Timestamp,O1,Oz,O2,PO3,PO4,TP7,TP8,Fz
0.0,-1.9895196601282805e-13,1.9326762412674725e-12,1.8189894035458565e-12,2.9558577807620168e-12,3.751665644813329e-12,-5.4569682106375694e-12,-4.149569576838985e-12,2.3874235921539366e-12
0.004,-59.188484547479135,-48.67292175837656,-91.51274007745843,-51.26358750539174,-31.535247447243307,-31.070227066419193,-57.36867269775041,30.99190915928409
0.008,-103.23312759932915,-84.8244765290622,-158.87735553966525,-89.5431443262504,-55.373209726954315,-53.62147136522856,-99.26821375038816,53.96825663228515
0.012,-123.59145143442771,-101.38620121496072,-188.58093617750978,-107.52838639839632,-67.12749375279031,-62.86125081906334,-117.00117152413668,64.47348992843342
0.016,-121.58899051210855,-99.42782221877755,-182.95862963705747,-106.37529815647406,-67.3819735632598,-59.558865650082566,-111.98233129886478,63.332813703577926
0.02,-106.85460795442856,-86.84352850291197,-157.57904013742916,-94.33768886549348,-60.94988683073399,-49.162108757724695,-94.10584210260862,55.72381231363681
0.024,-91.88790984321645,-73.86843233246526,-132.41999524272302,-82.07286444372716,-54.176992453540265,-38.7172407844464,-76.16338097668108,48.197794985306246
0.028,-85.85470399168605,-68.00444654179083,-121.90379874643463,-77.3133302314418,-51.82351283296617,-33.36858372395943,-67.49812167855418,45.37585420969128
0.032,-90.87637916265925,-71.03910737715279,-129.06895381305094,-81.71905113317655,-55.13375023885442,-34.28274024839948,-70.24694473853992,48.10146349930562
0.036000000000000004,-102.45160927187004,-79.4572764469242,-146.4538225109069,-91.30471045776869,-61.94376895121434,-38.91550742075958,-79.83003033399353,53.85956527742553
0.04,-113.25991438451243,-87.56175229553477,-162.37643557060284,-99.78101665019244,-68.51869959970844,-43.213021905351184,-88.87786696106309,58.91784265476008
0.044,-117.7171551850673,-91.09906227544008,-168.25217198112608,-102.49974642669241,-71.83337041280333,-44.21340181092478,-91.88974576607279,60.696693716485015
0.048,-114.7170957833153,-89.32828642268521,-162.8132321765824,-98.78132374284172,-71.03076002951616,-41.58387579919645,-87.9782599652815,58.99556270638982
0.052000000000000005,-107.36488108324318,-84.64769015477066,-151.391636348269,-91.5932748368204,-67.41482519857652,-37.38643946549519,-80.49038041397472,55.5807688096379
0.056,-100.37902111736557,-80.4497233506184,-141.5164307500816,-85.20078835445179,-63.24813572962353,-34.473928060489584,-74.2570712411968,52.67946685318509
0.06,-97.07491969005571,-78.81795477836647,-138.05155947785215,-82.4910064547044,-60.27086891705204,-34.672380474021736,-72.47159359128926,51.49683741212522
0.064,-97.66444294031731,-79.41802845579653,-140.6756222128583,-83.49263778040273,-58.78542465800683,-37.76393070534431,-75.00600643897747,51.63712925761695
0.068,-99.69151065877824,-80.10921614791428,-144.91565051222653,-85.81757920517367,-57.775784518250134,-41.80434722181286,-78.97870251657577,51.6631626773804
0.07200000000000001,-100.02416382389737,-78.65266294369187,-145.6091841386421,-86.49261045846998,-55.84046466701312,-44.42492324368595,-80.91338010298404,50.29206329091511
0.076,-96.97674687483314,-74.29989019587677,-140.34565966795014,-83.8962035416499,-52.25985189321062,-44.23538941081932,-78.98025962685972,47.370412364993115
0.08,-91.26587932627282,-68.27281785027185,-130.8049406617829,-78.63951009853918,-47.549753031361206,-41.52302656862446,-73.95927870694373,44.01409698867241
0.084,-85.2782723323152,-62.87826435697917,-121.27981044778875,-72.91798222137191,-43.16550007617954,-37.855496050450654,-68.42922579388312,41.84818820209591
0.088,-81.37536769090698,-60.01189199270294,-115.7376811476193,-68.98538500980322,-40.66215328949758,-35.00881029092221,-64.95775765787096,41.92621035615832
0.092,-80.45952155017503,-60.093553729324924,-115.4890638184234,-67.83231712386367,-40.88556496521065,-33.959273946138524,-64.57576144865533,44.070390755871244
0.096,-81.67738351872552,-62.06993340694359,-118.85742997635606,-68.86038400079758,-43.65718857396283,-34.525338929319105,-66.45468720445012,47.033258483235045
0.1,-83.30586729350492,-64.35903077289782,-122.81419122469384,-70.62053984090863,-48.06500857480572,-35.79025431199568,-68.81540419535219,49.296989717208135
0.10400000000000001,-83.98725699190231,-65.91281421749812,-125.07755731331355,-71.87759654942118,-53.01179583281146,-36.82992165890079,-70.2005982251693,49.911511817465
0.108,-83.50022574831712,-66.71910050674452,-125.31841602521507,-72.29534317542641,-57.672448046819966,-37.26864194646606,-70.26267302471041,48.88936652740318
0.112,-82.66954963720201,-67.52032790366047,-124.8767043447267,-72.3856031694151,-61.63860793069054,-37.35534097553273,-69.67013292859647,47.025048509831606
0.116,-82.61616300872097,-69.06646483181487,-125.43751154557242,-72.88942333313173,-64.76874432350226,-37.600077497996665,-69.3629205816556,45.368376320411755
0.12,-83.94361260471021,-71.49524782363474,-127.74298890846242,-74.12556560047386,-66.96701155336376,-38.32669238698173,-69.78686472122203,44.7116859528503
0.124,-86.29816243167983,-74.17320235763219,-131.02994136920188,-75.6770886528119,-68.02817922544995,-39.38866017409799,-70.54762279392887,45.30109314193311
0.128,-88.57257520068026,-76.08373894812578,-133.53356334712325,-76.62944994744694,-67.67125678746035,-40.2590215009302,-70.6954877569546,46.854006430866036
0.132,-89.58764943493557,-76.4716676368331,-133.64032038258722,-76.17514647559886,-65.72691278191766,-40.406496831256675,-69.4155676922199,48.77246463000927
0.136,-88.79721883871224,-75.30156855602712,-130.88489098296924,-74.16344995029539,-62.31649302364005,-39.67965168051961,-66.64670109119137,50.37778713887968
0.14,-86.596810762916,-73.25080481704816,-126.19980180858886,-71.24659197971337,-57.894381969775566,-38.46007694674688,-63.22807234122308,51.067834234750535
0.14400000000000002,-83.98994100348051,-71.19936052221632,-121.17663055198915,-68.45068110619218,-53.05887307923348,-37.409636795994516,-60.39926681751837,50.376519067312756
0.148,-81.91737543184792,-69.62198846804353,-116.99562492638998,-66.51350368378309,-48.28781836926407,-37.029195879909366,-59.051729939792835,48.05552809073845
0.152,-80.71077241013478,-68.31052031564636,-113.78580229574487,-65.44212326885926,-43.785462543900564,-37.330670829293354,-59.23117667580192,44.2360045495451
0.156,-79.99234775495611,-66.59179033422367,-110.7909447426602,-64.5635150902138,-39.539409765754385,-37.82985098837122,-60.17570518394473,39.57319561230952
0.16,-79.03128285980793,-63.86152523851061,-107.15363192254449,-63.020534362598084,-35.53843521518303,-37.87118179548975,-60.820606581294896,35.194713430328534
0.164,-77.20149803632984,-59.98662282995241,-102.5706656190622,-60.296457687523,-31.929353894562553,-37.00148418156812,-60.32921259631826,32.31963444502583
0.168,-74.31789691962805,-55.3828091871639,-97.49550942417704,-56.5142197910709,-29.042144869671915,-35.21854732052611,-58.41209573381195,31.715034310531905
0.17200000000000001,-70.73840176136977,-50.799523775480225,-92.88327111492003,-52.40038149175234,-27.289955566559684,-32.976501308915545,-55.36727899763309,33.304096723631915
0.176,-67.23686966040262,-47.001321083614926,-89.72616155061968,-48.98049269951372,-27.01242556306562,-30.966710450546202,-51.91060742238284,36.17797711847925
0.18,-64.73502713070908,-44.557831104700824,-88.70323347507713,-47.194361458616356,-28.36508746465978,-29.82618106385553,-48.92988109142675,39.030024857234366
0.184,-63.89867435415445,-43.732542846220554,-89.91878772946018,-47.5089407214723,-31.23803002514495,-29.835862865194827,-47.15594378101821,40.751771834966235
0.188,-64.82806294922287,-44.50290926794395,-92.88770138635186,-49.742725227880726,-35.262239876953345,-30.803053351529684,-46.90454605119896,40.89285624066167
0.192,-67.0133380208436,-46.65273347762883,-96.75846358844325,-53.17722869299831,-39.896442673910315,-32.18120164774223,-47.99195689168778,39.780429015436766
0.196,-69.58012202539047,-49.84808022239264,-100.64143930655337,-56.87953622547161,-44.543720207190745,-33.343155404111485,-49.833677643971214,38.276642992024335
0.2,-71.70975959680146,-53.66393258591381,-103.91341023080702,-60.079571558155806,-48.66583826683433,-33.882399591525655,-51.68597840377424,37.321203045311336
0.20400000000000001,-72.91731324720337,-57.507656067935784,-106.21836172585847,-62.327923425045185,-51.802489759081766,-33.706193978113674,-52.856273783418374,37.46539272063808
0.20800000000000002,-73.13381156109972,-60.61777860275322,-107.34865305984795,-63.47126033810298,-53.572450536856195,-32.95759172025373,-52.90144623647848,38.6451315904377
0.212,-72.62351221716352,-62.25151122348149,-107.1843161707178,-63.54874767028275,-53.717632038584554,-31.853144603547435,-51.79477264058369,40.29717322305419
0.216,-71.80544589568188,-62.01691647218644,-105.75202702317392,-62.70767123477464,-52.197771053931945,-30.545203942353623,-49.99360465987888,41.7185549417261
0.22,-71.06819654819162,-60.1585278025492,-103.34300975275085,-61.187634298433636,-49.28249480032116,-29.106299813232795,-48.32531192661031,42.43963340082723
0.224,-70.54756044374057,-57.49914959455168,-100.38759180379998,-59.246893795485164,-45.49486957233978,-27.53748768220612,-47.59277517665487,42.36571506527207
0.228,-70.05181369537672,-55.09286747624958,-97.27614071418157,-57.11023510024302,-41.46182577389607,-25.842257376270254,-48.16383433810529,41.68312638713303
0.232,-69.19804415689532,-53.76371914735307,-94.25707904186095,-54.95864491543398,-37.736588387724396,-24.119689235955434,-49.785346267517184,40.65579092073642
0.23600000000000002,-67.59412407408081,-53.6903074690897,-91.33324322418684,-52.87728508375426,-34.626701871863816,-22.56041088965185,-51.67424239071454,39.40536613396034
0.24,-65.03560960320755,-54.310551511878145,-88.31397957486615,-50.84462322151148,-32.14740064619377,-21.385415526438123,-52.9139875036509,37.83936229539904
0.244,-61.66907683340486,-54.648399689269866,-85.04659423206442,-48.8169738764725,-30.140969658868585,-20.77555453482728,-52.98388720519574,35.78119701596893
0.248,-58.00328432908913,-53.86621536157139,-81.63604696575294,-46.839850859864896,-28.46285720567755,-20.80846436373281,-52.08187345639283,33.20001393162261
0.252,-54.68391908440401,-51.67394501750141,-78.39472415779085,-45.054009661948044,-27.07081797378828,-21.38459245775266,-50.948446680475286,30.370825856739202
0.256,-52.156337065947696,-48.38863893086193,-75.57198805104758,-43.594808276403796,-25.97418418275447,-22.187749435121987,-50.29144833431269,27.86727661458508
0.26,-50.474750521359056,-44.703391400531586,-73.16514044673806,-42.50267797066988,-25.13367205731265,-22.76100407887202,-50.22282507565831,26.412596209963795
0.264,-49.3617796660929,-41.33088128856707,-70.95832129934297,-41.70776269208761,-24.413940031159086,-22.685352952546054,-50.09418135545138,26.619748975293533
0.268,-48.46948583345704,-38.73570490018483,-68.77142201032916,-41.10850405552878,-23.66785343547224,-21.786383155622616,-48.88432348881747,28.679591242398146
0.272,-47.648603295653174,-37.06770038571415,-66.70154391643382,-40.67501673198274,-22.92065674678372,-20.253819991625733,-45.92135568295396,32.09112721584597
0.276,-47.11105115660939,-36.33410229654828,-65.24388171587509,-40.557159529561886,-22.56408235510912,-18.630339531659956,-41.55659355449927,35.594098943631934
0.28,-47.45861452784021,-36.71413851685361,-65.29687578368396,-41.194140995471685,-23.4413469840905,-17.69827945082261,-37.4121670757429,37.458369019701195
0.28400000000000003,-49.50896800832891,-38.73671121627126,-67.95233406031582,-43.29317050558075,-26.664204996308854,-18.263700698691764,-35.92853868524958,36.09485671904304
0.28800000000000003,-53.90885304078472,-43.08888896275971,-74.03123443752247,-47.57430917507736,-33.124573502943235,-20.87139906384209,-39.27959451560548,30.75907290389796
0.292,-60.613832858107,-50.04110462976382,-83.43775423429167,-54.282359162011744,-42.84372691478029,-25.501100947982422,-48.084264545401766,22.019092881321967
0.296,-68.53330211583375,-58.83685376893618,-94.70748147069003,-62.71683046210546,-54.51057116280731,-31.400826255684024,-60.630163363391375,11.743338924530462
0.3,-75.67081285565723,-67.53652002031708,-105.19476439718005,-71.14684917618911,-65.57200849239666,-37.213738811105486,-73.19545177510304,2.5900470677943304
0.304,-79.78302537789386,-73.53786156945148,-111.92738914880954,-77.25441296308293,-72.960049893004,-41.384632179451955,-81.4306373100967,-2.8478939617759806
0.308,-79.2802114264399,-74.59045221814051,-112.75182760507778,-78.96032084370427,-74.19947805354923,-42.68936931979897,-82.16810398482107,-2.9524512387038158
0.312,-73.89696307222596,-69.78021619029562,-107.15442474655617,-75.23438827642985,-68.39127103179794,-40.63421643972356,-74.73985251854538,2.2928302614764107
0.316,-64.82444183061148,-59.99400841026193,-96.39889403662528,-66.53206404928301,-56.624470837282615,-35.573928804743446,-61.18321774779065,11.250836763035977
0.32,-54.29774679686898,-47.661580601716196,-83.03397138757839,-54.70727593548645,-41.649015645579766,-28.56225004311659,-45.32653878858059,21.2351110505424
0.324,-44.80265605503257,-35.85929078031063,-69.99315680077211,-42.41243994722845,-26.930621877466137,-21.004157621296144,-31.23035291571,29.533057414284713
0.328,-38.22185894080474,-27.171874893198037,-59.64716540309428,-32.217740099912135,-15.482730404993617,-14.25797546242984,-21.70802764762834,34.387123028880524
0.332,-35.22907793147044,-22.78245993877715,-53.100213682506364,-25.767053488972238,-8.933135466086696,-9.294325391144639,-17.504514705153497,35.482955659885874
0.336,-35.18419270884624,-22.20087601184332,-50.01189994456445,-23.32901502135985,-7.191102940282349,-6.515334291684667,-17.427403870574153,33.78340751409178
0.34,-36.60917476929501,-23.76619778376039,-49.07124604595333,-23.959533785343638,-8.82187271118653,-5.796490246410713,-19.3054145747451,30.893734609253443
0.34400000000000003,-37.96895985893059,-25.601171586510077,-48.82363625499056,-26.1299949095594,-11.868496164433282,-6.662323292221117,-21.187718165600245,28.30811542561196
0.34800000000000003,-38.35188191782896,-26.499166653204156,-48.39355091228799,-28.472172511003578,-14.695511434420155,-8.485630569379282,-22.159665950954604,26.871114540753524
0.352,-37.68740111856215,-26.287173613928758,-47.68883849984172,-30.238672484584185,-16.46266343192292,-10.603881895409359,-22.412375931570296,26.624691870059905
0.356,-36.494883536357406,-25.58158837853341,-47.10381587266784,-31.3379267752249,-17.1175994907602,-12.373380546845965,-22.697179474913582,27.03402056713776
0.36,-35.45110230576984,-25.226968427065685,-47.094050255278944,-32.082940322802756,-17.080222193533928,-13.263183728568038,-23.64148242388842,27.443904065268953
0.364,-35.049579071583594,-25.788917888843457,-47.90438728975323,-32.86830126942732,-16.880071798142353,-13.010235347132493,-25.341665214870318,27.492214375947697
0.368,-35.49090844813577,-27.34158263806023,-49.54342544670135,-33.9447715446579,-16.926361322924322,-11.770339777132449,-27.382810116729388,27.261398910226717
0.372,-36.721711632278925,-29.538914699973816,-51.845801198514664,-35.31244952222971,-17.4345782813225,-10.114681625685762,-29.116024773598383,27.111060799811867
0.376,-38.528469067944684,-31.860600052982818,-54.52714788747858,-36.74329736382538,-18.45642114891757,-8.83345562998602,-29.980691303481308,27.34730042047704
0.38,-40.6418393864775,-33.88474480730565,-57.25395679684698,-37.919985134014496,-19.931015760039827,-8.632919376895643,-29.744497780632173,27.99680087639308
0.384,-42.7915807048297,-35.428650391537644,-59.69333123238334,-38.58959863198163,-21.69104909108728,-9.837564956444112,-28.55953950084313,28.812732457918855
0.388,-44.69335249227129,-36.50259749108454,-61.53447781569321,-38.6472686914542,-23.425417623021076,-12.234003612463766,-26.845027274788663,29.46946998150429
0.392,-45.9722513761692,-37.10666419596805,-62.43701984617451,-38.08095857822332,-24.640480808363918,-15.11237921979,-25.047043439395793,29.76698714286431
0.396,-46.14394582701709,-37.05423775415795,-62.009528448439596,-36.859228124813626,-24.726714412242018,-17.512380742847654,-23.414816714492645,29.69608248168379
0.4,-44.77240984620653,-36.013403606797056,-59.964496737186664,-34.91599013974769,-23.193503762829323,-18.618507644196143,-21.960503027983805,29.356681242575405
0.404,-41.72300197202719,-33.73718166401329,-56.35349725178867,-32.24545509689756,-19.963657973219142,-18.108694165788165,-20.58170589938618,28.799422999951958
0.40800000000000003,-37.356696784272,-30.331964201125743,-51.70640614372269,-29.03880716730282,-15.547356006940163,-16.28951788562972,-19.241328599436883,27.904752590208318
0.41200000000000003,-32.480865274276425,-26.3411776295286,-46.882033299606746,-25.72248339713542,-10.938404051981706,-13.921263293364063,-18.054266762203042,26.381445603266457
0.41600000000000004,-28.056720230124256,-22.571678075868476,-42.705490510211575,-22.855368194790344,-7.244048763933961,-11.83336135342006,-17.248219792352756,23.931046113016237
0.42,-24.872344331114732,-19.790696440749116,-39.68616185645237,-20.97726065664392,-5.249202013030526,-10.57275860970185,-17.083134421742898,20.52345503120887
0.424,-23.323648339580814,-18.442147435778566,-37.949424135994605,-20.460778595728243,-5.127699431452584,-10.239170772552825,-17.761635975683475,16.61105806992714
0.428,-23.36976646269511,-18.509836751680496,-37.36586308376013,-21.408945606520547,-6.436060965625529,-10.558595038766725,-19.33632085696945,13.098299978838895
0.432,-24.594180344601,-19.54108428266136,-37.675478037850326,-23.58305610004618,-8.357149762351355,-11.090775993303396,-21.58811238064891,11.002237077392692
0.436,-26.33514563984579,-20.824155473968972,-38.528464297138726,-26.403494659626404,-10.072340745175552,-11.442630103727424,-23.958471019469016,10.956330695033103
0.44,-27.903279628781775,-21.694847262718213,-39.53357899946104,-29.107588176949093,-11.108153406551992,-11.420778737563069,-25.6809388938359,12.846326503147338
0.444,-28.812743786570195,-21.834496935623292,-40.33120664592752,-31.01377240925558,-11.495703418280755,-11.063919314326995,-26.098167818125603,15.789250732324035
0.448,-28.938742642634566,-21.41351684320216,-40.69471053610641,-31.7839298288427,-11.683628112238466,-10.577782597326404,-25.02527642740165,18.487931415353614
0.452,-28.496619142900272,-20.97520683394373,-40.563877081517376,-31.523462169608138,-12.24332507840495,-10.194876873964859,-22.910799628169798,19.779211019428658
0.456,-27.874422320710664,-21.133769191691044,-40.025024739155924,-30.68359259743147,-13.540012064583607,-10.041383408102774,-20.686561113001517,19.111367065006107
0.46,-27.452139364761592,-22.28290912307193,-39.32154849935591,-29.858512458708447,-15.563117475118588,-10.111280960805743,-19.387194802848626,16.743197815432268
0.464,-27.47227939728168,-24.44071261447243,-38.83344644056001,-29.55452494684596,-17.96627598976147,-10.328380227549133,-19.694841004720274,13.577815100333282
0.468,-27.98924204191451,-27.27246932192702,-38.97194963275501,-30.020980255272434,-20.257460021724228,-10.631173135171139,-21.62025566351508,10.713792265696611
0.47200000000000003,-28.849585141291527,-30.207221341174545,-39.935281706958904,-31.15719655870248,-21.989494265257463,-10.998147750683984,-24.454509863939165,8.920087810208315
0.47600000000000003,-29.724647460964093,-32.59349132442094,-41.476871242990455,-32.53997917561287,-22.864101469414663,-11.419080224258778,-27.041476271960846,8.302789610653235
0.48,-30.241149800816288,-33.88418825920098,-42.93347774253675,-33.608715061082194,-22.765857692373856,-11.879253438290107,-28.316164213054662,8.339900731565649
0.484,-30.153713944999026,-33.79326390513597,-43.526877870474436,-33.91612922531294,-21.75740056886957,-12.377490107217454,-27.84867816783367,8.231270324742127
0.488,-29.46298476040147,-32.38329642964163,-42.782306813868445,-33.32188356295546,-20.071201139974164,-12.969460210235411,-26.102245166333205,7.337073432767738
0.492,-28.369420637128087,-30.022469147489915,-40.752267107154466,-31.99895478580629,-18.077296587245428,-13.759226379193024,-24.208397560204048,5.439429405119881
0.496,-27.106784260183417,-27.247770883322687,-37.93535462682826,-30.28497132200573,-16.21786896816252,-14.825288443728823,-23.37805369786247,2.7162529106699367
0.5,-25.80771760760433,-24.628364377368825,-35.0195340068683,-28.523253512685642,-14.919855646880478,-16.13694251424522,-24.306918553322703,-0.46726731514286257
0.504,-24.48163920297793,-22.65094405157913,-32.59299903802548,-26.97981282212163,-14.48932113673186,-17.506831193305743,-26.86859144186633,-3.780942190613132
0.508,-23.096010933073558,-21.62268633878557,-30.97145840768303,-25.85129444357267,-15.010751548803455,-18.616932353893617,-30.223179924118085,-7.0212454849111055
0.512,-21.65420501236281,-21.570098811715525,-30.148952170040502,-25.283222159540628,-16.28914135139621,-19.10336855163473,-33.22399451279966,-10.071534434430305
0.516,-20.214762259992767,-22.18851087441817,-29.882098954745288,-25.354417730019122,-17.897028536981452,-18.6845099352372,-34.90905759607358,-12.803659782170598
0.52,-18.876174424936607,-22.937715119567315,-29.90102710319252,-26.046910433349467,-19.355753595567194,-17.3073396852526,-34.887077211580845,-15.009191956342875
0.524,-17.737584619516497,-23.269119089395076,-30.098228861788584,-27.21417516920087,-20.36676418749903,-15.22888634200649,-33.4516806642514,-16.437779435466155
0.528,-16.871542237456765,-22.897054416673427,-30.584390801315294,-28.594481910193622,-20.972498710943228,-12.977166265376582,-31.395490833899885,-16.936842725290944
0.532,-16.28747708097501,-21.943879603056757,-31.521876403836586,-29.855812373477306,-21.515056474942185,-11.160785495819027,-29.597852452696088,-16.599612004787105
0.536,-15.91736689492052,-20.868228551915422,-32.86898910401101,-30.678955754895355,-22.398419919988555,-10.20593051057017,-28.593117354520473,-15.780446549306362
0.54,-15.668752683586831,-20.230813202274362,-34.29479459653089,-30.884911396834582,-23.803957163094765,-10.171971181656545,-28.365366838583896,-14.902809273336516
0.544,-15.49678556855531,-20.40342218228068,-35.32690014785567,-30.52797809674098,-25.517225149790647,-10.734286319430339,-28.45232504349883,-14.168593598569487
0.548,-15.438457819413884,-21.36403721836541,-35.636880732175314,-29.87623678565717,-26.97745507724403,-11.353113064557874,-28.26402934202042,-13.376286856914021
0.552,-15.531039398027929,-22.647262929770932,-35.19778352383514,-29.226232945615834,-27.508718574460545,-11.516398865011752,-27.393412992178355,-12.017190775289237
0.556,-15.681455027264178,-23.49225081954296,-34.211101782096875,-28.658518590537255,-26.61744041832503,-10.948128687061853,-25.77682179082899,-9.626939230148082
0.56,-15.636297368788064,-23.170394500648058,-32.92657373005818,-27.934879800395947,-24.22991779000131,-9.722281870795314,-23.7019179759302,-6.176406012905545
0.5640000000000001,-15.087215988955222,-21.324678174485598,-31.46082063918243,-26.61926371979473,-20.743387550581474,-8.231452412273029,-21.675608833025763,-2.255256198311372
0.5680000000000001,-13.859014836077108,-18.149700764342924,-29.74441903347315,-24.376347166859887,-16.867017283718383,-7.025892915413351,-20.219945182753918,1.095547924893026
0.5720000000000001,-12.010640535911875,-14.277415091980743,-27.569650948915523,-21.227946370357927,-13.308226933003652,-6.561844408677416,-19.640426320313736,2.834576628693867
0.5760000000000001,-9.78039960483079,-10.447518414145634,-24.7224021104646,-17.61046946850115,-10.479586249780482,-6.979963399788858,-19.872943260700595,2.4156127580654356
0.58,-7.442631008529247,-7.184632932627437,-21.179995295207164,-14.213688120846882,-8.39779232204819,-8.036091106423783,-20.51397601254962,0.0774858519935151
0.584,-5.155008253460437,-4.64343630970825,-17.233438074463947,-11.667262643079425,-6.800963688201591,-9.21089307551847,-21.01663904657289,-3.2391762102304256
0.588,-2.9011773564194527,-2.6850840982033333,-13.449840859409505,-10.247716398204147,-5.399608127597503,-9.953007923805217,-20.94795240126041,-6.31536824247155
0.592,-0.5414100812938614,-1.0740509372160432,-10.419546834933499,-9.748744693200933,-4.0855738531450925,-9.909522083004958,-20.15038475270012,-8.212709469088168
0.596,2.0520235086720504,0.34272522563128405,-8.438421854614376,-9.605755296230768,-2.9859317451882816,-9.040885323188832,-18.74516329195467,-8.662324381406052
0.6,4.821366835505614,1.5447183504845725,-7.379293618733186,-9.244952894267499,-2.3717508232240334,-7.603349266922578,-17.032290341125872,-8.067305590789147
0.604,7.436729032698281,2.375215753071984,-6.819187314176816,-8.445732522072944,-2.488312447838098,-6.008405105813381,-15.349953630969594,-7.155444299474766
0.608,9.37010106156879,2.655505618424513,-6.3494315485676225,-7.500350094607143,-3.4146820970338467,-4.63984397138438,-13.953327411631562,-6.509753350803976
0.612,10.146345761630755,2.311665360705888,-5.819192576135038,-7.026740092925024,-5.00784487364956,-3.6950841366187888,-12.917060584205842,-6.272273975559301
0.616,9.629725434619331,1.4301031348442166,-5.367334878163092,-7.541747232249918,-6.944914153343348,-3.1273723521828742,-12.106572859840298,-6.167744819282461
0.62,8.128264179265557,0.18722451532448758,-5.2965273180153645,-9.093620783210895,-8.841516613728004,-2.7379318914099713,-11.249251768432941,-5.777375183171216
0.624,6.247099420266409,-1.269411790842014,-5.861187363382328,-11.177262818544591,-10.36538137136165,-2.345140214819594,-10.06303460554716,-4.856131397303898
0.628,4.563012326931641,-2.898353135643447,-7.109455949013977,-13.001082012646293,-11.299531689561036,-1.9391658870233641,-8.39249732155804,-3.4915007168463035
0.632,3.347686826137533,-4.709310447098801,-8.803540668614914,-13.916256846601414,-11.525602749693121,-1.7037528189071054,-6.263261970583017,-2.042717933250742
0.636,2.5009575994564557,-6.62007732178256,-10.464142504531878,-13.749449327783964,-10.977321047058354,-1.8931143948314002,-3.8570250196703455,-0.9215793381072217
0.64,1.6913746644789285,-8.372383506125516,-11.572444280374043,-12.864036506454113,-9.64189601411249,-2.669511364091022,-1.4686156131945154,-0.34889092648336373
0.644,0.6230837266596723,-9.586852574558065,-11.799669475554197,-11.900635412931365,-7.61268277181216,-3.9860748152002543,0.5433398368596727,-0.24218039161223714
0.648,-0.7373156453928118,-9.949709749046974,-11.151152892751838,-11.352897996987963,-5.14576359227101,-5.589431706729783,1.814562245380671,-0.2805888764653446
0.652,-2.074249853168851,-9.387937745966724,-9.89460097738322,-11.206377281213008,-2.629643186949238,-7.117409258964017,2.07760162790305,-0.1131323073088879
0.656,-2.830646115413913,-8.116181630886217,-8.333807394171117,-10.876294078901878,-0.45005930730246746,-8.228839431891174,1.2907172861888512,0.42639845547842015
0.66,-2.489435554259103,-6.538248981100651,-6.635031401451556,-9.535336104702651,1.173010757889415,-8.714071769279826,-0.30461728643206243,1.2351620632377944
0.664,-0.8631803220724237,-5.046472724844989,-4.798569518574595,-6.64364824577865,2.2876988037967294,-8.526270573581769,-2.2359462480517323,2.015213934294934
0.668,1.76134931826806,-3.8485075421693296,-2.7969947126086936,-2.385770695935207,3.165138160035326,-7.752940505333527,-3.9654611973072633,2.4394436827765276
0.672,4.7313577562160845,-2.908727497043742,-0.7224382353366536,2.283560962045158,4.124165068566754,-6.54193984727624,-5.084883239125475,2.2794550943601735
0.676,7.319766607962492,-2.0468762277753854,1.1650602353912518,6.030662661343172,5.307894957394296,-5.04524905993685,-5.447306315338892,1.4445258026161127
0.68,9.012759211972423,-1.153348730167238,2.489937244081034,7.741965413434286,6.528475135738972,-3.432635663099177,-5.198796519373445,-0.027935467661336588
0.684,9.656889503084528,-0.35909384970796054,2.9118328621250384,7.025123203240241,7.299037086453268,-1.9363355281429904,-4.689684564437016,-1.9842079159305968
0.6880000000000001,9.40512207507885,-0.04240281526608669,2.271992420542688,4.3480827552227765,7.052593217180515,-0.8701123432299482,-4.3070619779155095,-4.138780705273575
0.6920000000000001,8.568351466787135,-0.6172887426934608,0.7084717282434667,0.7929298642785625,5.475464393138395,-0.5493867507509549,-4.27803895296347,-6.076581844302723
0.6960000000000001,7.4754058522054265,-2.2183837473492076,-1.3319982196915134,-2.4217865734520956,2.778751413332543,-1.1357783033397482,-4.540008066993664,-7.31965424388477
0.7000000000000001,6.379499786153644,-4.510081500263539,-3.2542167679214344,-4.421111275920055,-0.2786981120736982,-2.5198921375292684,-4.787877407687461,-7.463362266893341
0.704,5.436156656800051,-6.763769052333714,-4.551312760716655,-4.922985413057063,-2.648095814140902,-4.317912647119897,-4.66349182707927,-6.348187495462298
0.708,4.716080484040845,-8.195394489850628,-5.011441478170582,-4.185807133056699,-3.4276233712178055,-6.023832271544848,-3.982361567010571,-4.17604210165905
0.712,4.250482879635058,-8.353958324860741,-4.732588209008895,-2.7151394788562015,-2.2479485066837697,-7.224982937629534,-2.8457377332097167,-1.5046206585111577
0.716,4.06965739217685,-7.34081356620527,-3.9534693197749675,-0.9326938886532616,0.5860744770867541,-7.764767558191352,-1.5717420681783096,0.9183811376166204
0.72,4.190528249197257,-5.751792747654349,-2.866083798972795,0.9779499664351761,4.247306035878921,-7.783727238740994,-0.522942818123056,2.4455869280587876
0.724,4.588052039653007,-4.363897161937416,-1.5273300204090674,3.0070677771887517,7.751232647843153,-7.601990943500596,0.07481350331875092,2.810091476081311
0.728,5.177052768463625,-3.742436792037438,0.06776450914094312,5.126229134549817,10.343244214071376,-7.521279738169596,0.21308802589373954,2.2569232050260553
0.732,5.851544837790186,-3.9585137727122515,1.8591127483147147,7.158207558274114,11.744336975670365,-7.643160815316492,0.06641982301493954,1.4265064493743012
0.736,6.554855561525983,-4.566741550796394,3.6439741765711915,8.812320989561272,12.154089038203153,-7.810156917194149,-0.1179643463138973,1.0447994567572323
0.74,7.290336215747175,-4.871543225144592,5.0757431619296085,9.839059765548257,12.022774158174514,-7.7213347145343505,-0.16717855833542217,1.586600168191353
0.744,8.062537802639667,-4.323984101499661,5.775358894076817,10.19499371606986,11.73808147840964,-7.135037965514698,-0.07694318994288096,3.069133602271563
0.748,8.768612580846593,-2.8405299927664487,5.477031197841143,10.074271065026437,11.385122009469,-6.04923826492859,-0.021108574747245257,5.075360889710396
0.752,9.152065461633867,-0.85679390858337,4.167040895238472,9.79089774437216,10.709670746893039,-4.726960017496367,-0.24980185093204454,6.960025106041712
0.756,8.874779226349915,0.8971628865156163,2.1304601285518743,9.5805390495442,9.290746248344306,-3.5525470583201013,-0.9415221008604249,8.128172809990815
0.76,7.657501673146669,1.7393074696532267,-0.17118207568205435,9.425335391693181,6.803952042607477,-2.833021421857211,-2.107950282230945,8.26781201465053
0.764,5.439751045267371,1.3244857630238585,-2.296020806112381,9.035487861269985,3.2555858829059616,-2.651279876676199,-3.583579478229467,7.438621310295616
0.768,2.4586663307919707,-0.25297422493400745,-3.995201788560678,8.008924839261795,-0.926413849429423,-2.858685984067506,-5.091756994176421,6.010444465022374
0.772,-0.7680438842040758,-2.528442032214457,-5.2153879494653665,6.117319188012857,-4.965964313803795,-3.178738573816986,-6.306336469803455,4.495236080852806
0.776,-3.5647575154366677,-4.843366173872369,-5.9456642219257105,3.5504154101666927,-7.947261737647068,-3.3514168510068885,-6.893770907355361,3.347707925688951
0.78,-5.311349262423221,-6.56649210442896,-6.079349744388139,0.930243902321024,-9.103950130171313,-3.252567156590999,-6.568741848757497,2.8252616292003268
0.784,-5.641704029902797,-7.273071790538552,-5.390858530442017,-0.923589593288682,-8.082449737525224,-2.9227403410421857,-5.171409215924825,2.940242097432929
0.788,-4.5625176639110805,-6.851836111046794,-3.689031943939767,-1.3841867562901484,-5.095919297819705,-2.5215065573484026,-2.7743943828116926,3.4962791279439216
0.792,-2.418501026400463,-5.506037602101685,-1.003599901802147,-0.3333886426055983,-0.8861774718412221,-2.231848241261673,0.26676926109195165,4.165786200233356
0.796,0.2658473528830996,-3.661281824035143,2.329522202577607,1.7703068624128946,3.5048666772358956,-2.1760011563238777,3.3646463742078367,4.581340374176875
0.8,2.9629864042269674,-1.8248037304992408,5.731711918641338,4.0940180024689425,7.067397351883869,-2.3842972063755496,5.847087771038446,4.441999694217884
0.804,5.272836381652354,-0.4199355953903705,8.601606628055322,5.8123090511318765,9.14494677454553,-2.8011524194683943,7.172826535937247,3.6128389610179283
0.808,6.955161567628295,0.34123296509733336,10.544258025901854,6.45283271321216,9.600059102985426,-3.3263992064133845,7.11479277958648,2.1974118051539335
0.812,7.911101008198159,0.5205160112726048,11.511040504310301,6.060219801670314,8.775997506043325,-3.845521847615373,5.855515158916887,0.5305077159756593
0.8160000000000001,8.161955545038978,0.41553369324157075,11.767964634723626,5.116855776747059,7.281124891058084,-4.239874949979594,3.935910364001984,-0.9273221487557066
0.8200000000000001,7.819895657507658,0.3951634443711214,11.671409401956566,4.250419822082108,5.681298644059666,-4.412114906627835,2.042677575845346,-1.7532542791556125
0.8240000000000001,7.0675550329831935,0.6943040751911553,11.41445662800885,3.90082255804424,4.261388405211392,-4.323060949266846,0.7267994730096348,-1.7325907603408268
0.8280000000000001,6.120981906297914,1.270054872549963,10.888398108979345,4.111148908768996,2.9616419373764984,-4.032459625321167,0.1808355472590506,-0.9470374918943207
0.8320000000000001,5.19298376878146,1.824696124361708,9.79695588904184,4.557606588446902,1.5220147709528646,-3.6915876584612306,0.2023148449172254,0.2545461000408977
0.836,4.458552647021179,1.9978590094930269,7.950730890726732,4.774795064064847,-0.2599453985564537,-3.477465022919773,0.3600445778270682,1.397534653965863
0.84,4.012410777145362,1.6048225561112872,5.511709582079277,4.420163096834813,-2.325610881961609,-3.506748924985118,0.25286792588354956,2.090478031203247
0.844,3.8461936357037985,0.7809946530487082,3.0289346502707417,3.4398873716127127,-4.321765658470213,-3.775963756248757,-0.27266279157652207,2.2006495759868585
0.848,3.8457031210630532,-0.07586743759657111,1.1899891467436987,2.0471426610990875,-5.763380185069707,-4.1833304262149795,-1.0629223671490422,1.9137167834883257
0.852,3.8435663758120597,-0.5186651819209942,0.4779321218760515,0.5788587233795965,-6.274616277750056,-4.6012370294432685,-1.744422386848555,1.6233074272353178
0.856,3.697250170374076,-0.30133305803653343,0.9505653957508571,-0.6656786332966362,-5.76475865206487,-4.9537377638632165,-1.904318157405669,1.6933757464286145
0.86,3.3448953278077624,0.4750177546322618,2.2547499962949473,-1.5192292961070848,-4.45179369983083,-5.247974727135954,-1.2775708293165167,2.22639576860297
0.864,2.82168670485936,1.418555663148311,3.884621898992066,-1.9274469625759707,-2.7297549131870937,-5.524584784220849,0.1502246084561989,2.960135169935654
0.868,2.2197117633830885,2.0561171143475576,5.4855077656869184,-1.8772137469409245,-0.9857845328663757,-5.771062653597255,2.12994071783487,3.3646714989669135
0.872,1.6536875450040327,2.0941193035017704,7.0453697182168185,-1.328922430744342,0.5353326744577771,-5.851619710836587,4.237551344834003,2.888254188602275
0.876,1.2548484519425926,1.5779101764599375,8.845825399027603,-0.21390131038273807,1.7492230302282223,-5.528399291535152,6.00903338984341,1.2360379257732461
0.88,1.161569913597475,0.8403904254643635,11.166193959414898,1.4724311187976014,2.6340495746186434,-4.6011338114184355,7.043262345503308,-1.4536455515240618
0.884,1.497022985099619,0.29613811338649043,13.95634412678885,3.5589915525551135,3.115466497982851,-3.0859707141370905,7.063367755965544,-4.641403614977662
0.888,2.3039791013709703,0.19511595340864574,16.667972750194394,5.64628504791483,3.0237527805876425,-1.3284917676006103,5.9304881007273025,-7.612008006819565
0.892,3.4791375179657678,0.5050559772253678,18.415077676099315,7.202214588912085,2.1739310455270697,0.06739070998207808,3.675287284881506,-9.793147747902538
0.896,4.755734118874017,0.985552782609318,18.400746573606284,7.78178161463245,0.5127926728107468,0.4971982113019635,0.5517755969147515,-11.001944445112713
0.9,5.746791882111864,1.372099518501642,16.345269152371372,7.244170951103683,-1.7848388172345722,-0.3298410030657237,-2.940653293106891,-11.475497090699264
0.904,6.073217965266622,1.5529138807100935,12.69108503013615,5.850817562937436,-4.336286615461859,-2.1877674974733736,-6.105483904144137,-11.67701854805614
0.908,5.515966902661347,1.5986697288617506,8.42881869778114,4.156396342333949,-6.698027828282534,-4.395078575925709,-8.216755519259664,-11.980124125184147
0.912,4.138830511984963,1.6558781034685808,4.6783884245739955,2.7517487749054226,-8.539576172492218,-6.117629456644522,-8.745130521434476,-12.43312690772359
0.916,2.3068151878180174,1.7946388782760323,2.2499188633681797,1.988373602153672,-9.737635725440441,-6.768462241709699,-7.564872477365498,-12.744891217554027
0.92,0.5551060734364341,1.9172759098745473,1.377803243447488,1.8219066730810027,-10.34892433895152,-6.299666776345475,-5.047596458109069,-12.49238654109422
0.924,-0.6270318177432159,1.8152228899456304,1.7603146569083492,1.8748524054557834,-10.479722605598283,-5.2080296878700665,-1.9594601488812486,-11.420188401035375
0.928,-1.017565773938884,1.3231514949801522,2.804959433677709,1.6701298825541357,-10.162467256957143,-4.263462692832036,0.7962164339658102,-9.631700192599851
0.932,-0.7435050586293528,0.4794965377744802,3.9543325519982773,0.9300332168963905,-9.320579925824177,-4.085772827766277,2.517401771746677,-7.558736579865808
0.936,-0.17412430924019873,-0.4204048480480651,4.921349267711548,-0.2253863695327709,-7.852628080143404,-4.804014654473576,2.985404440389175,-5.72676582852705
0.9400000000000001,0.2997359372923256,-0.9462332386091816,5.7162267479202455,-1.3088778468930968,-5.788338823209642,-5.999392846483147,2.5377005834172905,-4.461596361494003
0.9440000000000001,0.4761493820174678,-0.7666493786350088,6.5138788293322705,-1.712007032935162,-3.401313923456769,-6.955163397437332,1.8849608512432496,-3.738681878043394
0.9480000000000001,0.4027085713648262,0.13070562933825158,7.4452305250442805,-1.0520283911323531,-1.1954359738211906,-7.078225118990304,1.7418628360156845,-3.2598454419514837
0.9520000000000001,0.28735478393440417,1.397215259887048,8.487116453437238,0.5957207792880581,0.27828991005344506,-6.232686307193944,2.4753152391504045,-2.7193922700512303
0.9560000000000001,0.33371856953471024,2.50554025026986,9.511640413907116,2.7227360325734935,0.6972721011591148,-4.787286950861699,3.9670016787832765,-2.0684023309736403
0.96,0.6019410425801084,3.048187989485541,10.414917368162946,4.647206373401104,0.1859563668951978,-3.361999862447192,5.739379121631146,-1.57085915235416
0.964,1.0002931621417588,2.992734139518234,11.242506819230584,5.881859589472697,-0.6483256640905211,-2.4216247087506417,7.2895442949793505,-1.5912819939528617
0.968,1.3756552782656968,2.706352532593428,12.168260264822266,6.368804603097033,-0.9360009509850897,-1.9857203698475132,8.403584618039304,-2.247569217905493
0.972,1.6363196092100907,2.7280516656792315,13.351248012001633,6.453966512289753,0.0600778456723674,-1.6286077586546526,9.266066833275886,-3.200686152029448
0.976,1.7957576694982436,3.399879770998041,14.746905568415286,6.605097889489798,2.5372688739898877,-0.789387765133597,10.264383378615548,-3.783906922025153
0.98,1.8644600746106335,4.541693043094028,15.959796384765923,7.012196002370388,5.9085468405041865,0.775605271866425,11.575622379781407,-3.4617087954811723
0.984,1.6733312018709512,5.3816429995329145,16.267218581924226,7.330021207253935,8.874741720783959,2.6884638965550494,12.797397134188259,-2.3685370060520654
0.988,0.7575528709230639,4.803997616416723,14.806293331428606,6.720684758671268,9.824287059603762,3.9808467473772,12.869931701537553,-1.539648006985317
0.992,-1.5334183768023877,1.8490600039333458,10.919315889610289,4.237106037130161,7.454833183036158,3.503542211090007,10.45557051969763,-2.595108941581657
0.996,-5.676120032925837,-3.748206836905638,4.537432538610801,-0.6192431357624173,1.3848313693895307,0.5321058514459764,4.657215265639024,-6.93993388979402
1.0,-11.537137740906132,-11.244126551016052,-3.582434565035328,-7.461900098529895,-7.508813119231263,-4.753491897838558,-4.281074382848146,-14.849896671400984
1.004,-18.113785212969105,-18.96370222481596,-11.88833554690541,-14.942233809291906,-17.199765188391666,-11.171598092860222,-14.677790132740938,-24.967634268625034
1.008,-23.69383923041812,-24.797010695658855,-18.4208777257777,-21.14697328874388,-25.101730058104295,-16.922765606314897,-23.79250305379037,-34.55671399515791
1.012,-26.421151703769624,-26.90864056308544,-21.411333233370897,-24.286165527488265,-28.923790268478342,-20.267943323372492,-28.769431109807556,-40.498326116130556
1.016,-25.04546000002904,-24.378597435160827,-19.882629568160837,-23.369185724801582,-27.465945802009855,-20.19166739938578,-27.746369370209322,-40.60457378462206
1.02,-19.514997397265233,-17.530028609378633,-14.032633136870118,-18.577474734405996,-21.038006312742255,-16.75629965262806,-20.63246938538896,-34.59827217953398
1.024,-11.081306412640515,-7.804199012235131,-5.202932647472608,-11.157282374275837,-11.310581548580785,-10.980921450089909,-9.17013923306149,-24.25911696336425
1.028,-1.8651319491219738,2.730218743557998,4.527671254424149,-2.9304725260292344,-0.6771139105758266,-4.362326985507934,3.724087824166645,-12.641056172454682
1.032,5.946980623297463,12.036937861892284,13.010754117078932,4.359866585046348,8.603475337233931,1.7202303793542342,15.044941689334564,-2.7608867855087738
1.036,10.903736829166291,18.685796015145797,18.705565772103455,9.577761573430735,15.112776373444376,6.442022856947915,22.714170285232285,3.58619193645427
1.04,12.705767514388867,22.134043385254472,21.084048436497596,12.3841976782644,18.536752272085323,9.632935171316603,26.096294789141666,6.328298352096681
1.044,12.094510415913419,22.67356273342557,20.63934762740155,13.088834050977084,19.43996990764208,11.57744453760779,25.871224303118197,6.749124719068732
1.048,10.297397965573964,21.102396580639606,18.485048823783018,12.282925582729149,18.720153983445016,12.65970947451433,23.41152885003976,6.54663170534468
1.052,8.37624052159822,18.32385870400276,15.79239279036301,10.492765727835831,17.078377624899076,13.090783404512422,20.065556705093286,6.86298903262059
1.056,6.82191624984705,15.056752068242758,13.336762703821933,8.028004907147533,14.781174659487533,12.855822137596533,16.697192587439076,7.79437079395484
1.06,5.555858708253254,11.735385449868318,11.320071761701456,5.0471429449989955,11.786890214440291,11.86053416283039,13.615508489113836,8.582348055153034
1.064,4.26675435546872,8.582071016748387,9.517091715954166,1.7542677662322603,8.094290007073141,10.15344934710447,10.819869733475116,8.278941256760845
1.068,2.795177183827036,5.725166745846309,7.568888221413772,-1.46737504173052,4.031482699691196,8.036873597788599,8.289492272795087,6.4595649763491565
1.072,1.3333068345423271,3.2770681725896793,5.271169094489778,-4.077450358426631,0.2827707515355087,6.002314021616712,6.1263714986198465,3.553336641637543
1.076,0.33617089385006693,1.3346102479606543,2.7194983239141948,-5.556046571436582,-2.3752575902190074,4.53085543217685,4.503353376335781,0.6251184411348731
1.08,0.2155327294581184,-0.0764545298700341,0.2528405902139639,-5.655147849652394,-3.4639542677739428,3.8730922896397715,3.5100831563931933,-1.2194008547339763
1.084,1.045862113051271,-1.0334265784720174,-1.717974900388981,-4.56305914177392,-3.0683258803674107,3.9449601464166335,3.0525802446395573,-1.4360939379671436
1.088,2.4603378665376567,-1.6921504745428138,-2.920480976017643,-2.89839036328749,-1.813846960914816,4.381927469323273,2.8800174978205177,-0.2943317306685458
1.092,3.8143295523536835,-2.1910116365238537,-3.325492441888855,-1.4984662048225346,-0.551367054855973,4.729333079580101,2.734215849429802,1.3216387823731566
1.096,4.524986503318587,-2.53995894366426,-3.107766937863744,-1.0774796148762107,0.06916733042999113,4.657172063090002,2.499486273896764,2.406983014343041
1.1,4.377551405845452,-2.5805788334348563,-2.522981100244124,-1.9195569181226801,-0.11214052982450085,4.082138408808078,2.2400940874763364,2.3265172844025983
1.104,3.640315976907914,-2.048361369609893,-1.7609725534898644,-3.7419321708450752,-0.7641889406941118,3.1616173368383897,2.119462851433127,1.033324769171486
1.108,2.900285383406981,-0.737528781417268,-0.9012122718331739,-5.818384809686222,-1.3422657383648584,2.1677393168874914,2.2452150215654,-1.0338958477568667
1.112,2.7454632510875854,1.3329788027090217,0.05402521669384441,-7.2933760449795955,-1.4452297896796154,1.3386144352984957,2.5730297425102435,-3.2590783929440477
1.116,3.4716690083378126,3.852209086239327,1.107708471785827,-7.549074359148108,-1.034306724254293,0.7855335837084567,2.9484433493057622,-5.156838076281019
1.12,4.948959863378377,6.286605465616958,2.1967264619893285,-6.4728265956732685,-0.40617069059408095,0.4814397196760183,3.2402400114096963,-6.513012304540098
1.124,6.7129947090556925,8.07611235561626,3.1891883709540707,-4.493347169412118,0.04472516498708501,0.3264138845133857,3.471309289869623,-7.334823289920223
1.1280000000000001,8.17559082881121,8.836159021918547,3.8989974827345577,-2.401830401233383,0.0828771825149488,0.20706166840045626,3.8081416856630312,-7.695630793341024
1.1320000000000001,8.848754955563209,8.477235123533319,4.126324742156612,-1.0321293168958618,-0.25877527994816774,0.027666611341828684,4.41912882658653,-7.625936861023547
1.1360000000000001,8.491725848457463,7.196309539943513,3.7134031057034917,-0.9396687287458008,-0.7728643328500766,-0.2900728542254001,5.297684321801171,-7.134922027170433
1.1400000000000001,7.144957458922363,5.358835219947196,2.5939077942116455,-2.2165631193533955,-1.283579358507268,-0.8167406651818965,6.17706259735769,-6.320911927306042
1.1440000000000001,5.091099425157154,3.3554144962236023,0.8441729043233863,-4.49265470130058,-1.7964994559065417,-1.595274014325696,6.625486488507249,-5.457986718912252
1.1480000000000001,2.757509525371006,1.4804174176128981,-1.329305030118121,-7.124659088576209,-2.491670464888557,-2.6128932343199267,6.253600575032124,-4.94350138169375
1.1520000000000001,0.6137114236216803,-0.10676729013766817,-3.6310426363424995,-9.45250545859517,-3.5510464648978086,-3.7749029764418083,4.924997186938526,-5.1251681543717496
1.156,-0.9122537666833068,-1.335910845660237,-5.72811371960961,-10.994584071977897,-4.941013566199217,-4.906040214242239,2.841680904237819,-6.10593037273884
1.16,-1.5185747188477308,-2.154789208434522,-7.312763912306764,-11.5258352716437,-6.320889279429139,-5.797108877744904,0.44470146196772475,-7.667324518283749
1.164,-1.097285162768003,-2.479037457609593,-8.140292739448341,-11.035174215819097,-7.1544712655322655,-6.269946297681599,-1.7971826001426052,-9.378419824935918
1.168,0.20530491676845486,-2.2213865523290224,-8.09615583647519,-9.662479711170818,-6.997909923181851,-6.249939874566735,-3.6055796284481403,-10.826050238047173
1.172,1.9952555713070979,-1.3630465491200994,-7.239792623029189,-7.658395282746369,-5.778620873094951,-5.796073274270384,-4.974438215744158,-11.840774860800593
1.176,3.738474443426412,-0.018508848750116158,-5.8034159105677645,-5.38380024275375,-3.886048431771542,-5.071484114067971,-6.07851080456976,-12.574552283318553
1.18,4.934501139524627,1.541517995675349,-4.154452161279096,-3.3199242159043933,-2.011931630628169,-4.277705067037459,-7.091442671498044,-13.371560032160232
1.184,5.30036615414474,2.9443522033870977,-2.696952950229388,-2.006886954727179,-0.8120148113603136,-3.5803355331172497,-8.038357885346613,-14.520836165781475
1.188,4.845268931243481,3.805280702453274,-1.7842593265813775,-1.908196745328496,-0.5917929053025546,-3.0805674638922937,-8.800889944811843,-16.028223228729985
1.192,3.8179860680161255,3.8434097315339386,-1.622549727889691,-3.2169409931602786,-1.183422159762813,-2.8223195510227015,-9.25056605861846,-17.570613863460494
1.196,2.5605919408535556,2.9843616982157073,-2.196269663075327,-5.699714225430398,-2.079236024048896,-2.8123093508766033,-9.396838689650394,-18.671972059289146
1.2,1.3474587726132086,1.4088987021987123,-3.254254893122834,-8.68841843410064,-2.7378074377052144,-3.0319606507428034,-9.441166782410619,-18.99390520428915
1.204,0.29821260768267166,-0.46946249377424465,-4.362764932587197,-11.260658706686627,-2.8841272632434993,-3.4250939372950597,-9.67129534066953,-18.57282563427816
1.208,-0.6297802389117351,-2.133991189084554,-5.084336715668542,-12.588247272320132,-2.659700515804616,-3.8965351120023115,-10.291079544977947,-17.838042843301082
1.212,-1.5692793607286148,-3.15785318530925,-5.190717372190193,-12.292905196170977,-2.540882639085794,-4.328737212505075,-11.298202117534856,-17.397477281934698
1.216,-2.64597862556775,-3.3916017752526386,-4.8075545890324065,-10.632882938286457,-3.0886582317730245,-4.621502236836932,-12.489020537700526,-17.708098353990863
1.22,-3.9128557638082384,-3.0617361423633156,-4.407359828021072,-8.413951880372679,-4.6740202980286085,-4.741229853794721,-13.599391799247314,-18.82206292144747
1.224,-5.33515943999646,-2.709561393502554,-4.607149686230514,-6.6484391280164346,-7.306584656658288,-4.747117222300403,-14.481019538007786,-20.363252672195813
1.228,-6.843225312893537,-2.9925251805384505,-5.898814259072424,-6.144458031187241,-10.647566529625237,-4.788133234796078,-15.21320937069504,-21.72332934838869
1.232,-8.377789349755858,-4.3884986357520575,-8.402288818915622,-7.192132879362816,-14.160563359674143,-5.040650399191691,-16.049364488985702,-22.3644262807411
1.236,-9.885103876516496,-6.925782205514679,-11.759014131428557,-9.480943219359688,-17.299124654769912,-5.612117185030911,-17.21865675308709,-22.05387365019942
1.24,-11.270467656450819,-10.084760600944719,-15.231643459227598,-12.270297748460052,-19.64619892684459,-6.466372683677946,-18.71092663354284,-20.90971686593366
1.244,-12.343987165556427,-12.935717259155354,-17.95404756726748,-14.700229863927689,-20.96202297025593,-7.403686649427982,-20.180204024833074,-19.264211756826626
1.248,-12.846263245930459,-14.50664778682767,-19.267667381387582,-16.11884361222974,-21.174608796654866,-8.128572679627723,-21.070003504355554,-17.437846303115293
1.252,-12.55234970297306,-14.212928845639908,-18.954646633634184,-16.269487018532345,-20.347202691307757,-8.370387274437235,-20.89276297214292,-15.586959293608743
1.256,-11.403522105814773,-12.138142565660928,-17.265481341895793,-15.276107965159099,-18.650224421946405,-7.996347535479799,-19.50042851508715,-13.711157815100705
1.26,-9.580382616932184,-9.01098908644235,-14.745050987599825,-13.474692062610757,-16.328230958451968,-7.055883719869598,-17.18267688862943,-11.783744819863387
1.264,-7.448647776440339,-5.867338795792421,-11.938186691245392,-11.197108152514375,-13.645555924005748,-5.7287222644754365,-14.511733766906218,-9.896337012569347
1.268,-5.422903622926242,-3.5837563883637813,-9.186713128656265,-8.654521888711315,-10.834157780657733,-4.233101549484672,-12.055885905788273,-8.278772544674212
1.272,-3.7928127411582864,-2.496429958851877,-6.5768427542061545,-5.940615489732409,-8.045885987846304,-2.7338587397589436,-10.103157326017936,-7.165138645817933
1.276,-2.6143577911961984,-2.3049718346892405,-4.036895393763189,-3.124420205555907,-5.341424579955856,-1.3082930193768334,-8.55730206347198,-6.595251530221503
1.28,-1.7342530521373192,-2.3062423858677903,-1.5049812294473668,-0.35748279996005294,-2.7334753687791817,0.018239369384900783,-7.059208305372522,-6.288470420791782
1.284,-0.9233023231486186,-1.8178564144509437,0.9595858097463861,2.0928483337884245,-0.25914767562517227,1.2107884837214442,-5.240070336297322,-5.708946783629472
1.288,-0.06999947229587633,-0.5860174717677182,3.1354272976841457,3.887842567955886,1.9431086847289407,2.1712984334371868,-2.989616163014034,-4.303596748972268
1.292,0.7076037773149437,1.0558949491264684,4.702503046107267,4.733429948750199,3.613053991606648,2.7551746353947237,-0.5617291648622995,-1.7989182149394765
1.296,1.1157510692373762,2.366186780302087,5.373956291936338,4.510682654231459,4.437174166644581,2.8587610229042184,1.5488444117254403,1.6125924101797864
1.3,0.8772651498788946,2.608648195044225,5.029538610927375,3.356456927695035,4.189504572314945,2.5300212766160257,2.877774133336061,5.305645741964327
1.304,-0.037215220645521185,1.4829619862612162,3.8165090842876452,1.6627448122617352,2.885268887008351,2.0320257766325085,3.271047002694104,8.468219148737262
1.308,-1.321129310269498,-0.6898575702161907,2.1248398560201167,-0.04449100381498283,0.8412799831558004,1.7718226054403203,2.9717901451995203,10.45152091242926
1.312,-2.440573992127611,-3.107756111834533,0.4854949220543858,-1.2782993463961247,-1.38380902776953,2.1242021655452845,2.481653411275147,11.038196037763555
1.316,-2.8846742528057803,-4.861967575735434,-0.5703023417026998,-1.7466181816143944,-3.156913321331558,3.235807929180737,2.2851478872371445,10.491267156578033
1.32,-2.424713346773842,-5.343523442001242,-0.6550160957003754,-1.4351133852105704,-3.9745498745314762,4.913803764720797,2.589796707688947,9.37791637167902
1.324,-1.2181492370636988,-4.464122967428921,0.3799312704895783,-0.5737271926291214,-3.6161667901797045,6.68875985858358,3.2436690632239333,8.272379243540854
1.328,0.27767133370207375,-2.617738786861082,2.366962594069264,0.4661577612350811,-2.2093198348748047,8.01055277123669,3.8452182885193906,7.511698363850883
1.332,1.547549167541547,-0.4199276991203078,4.841426486364071,1.3185667903708236,-0.16423863878935663,8.50124907792997,3.983122058970366,7.111777705309578
1.336,2.2790752232222076,1.6054228998364124,7.169908844139172,1.7546156834550857,1.9881039065567165,8.130651368093822,3.4718202441745234,6.850388380624281
1.34,2.487959508568565,3.2185858995626404,8.758543439755158,1.749320333848118,3.782970206090795,7.210198622940879,2.455579524815221,6.445250970111374
1.344,2.4549272408339675,4.466614874453626,9.290221415556516,1.4713918766483403,4.967084897842142,6.2211204421728326,1.3346859747316557,5.711677735167541
1.348,2.490756484024132,5.508081117308393,8.829746266943403,1.1743506583716226,5.5343958767771255,5.553238597065501,0.5346174428177619,4.643152433316573
1.352,2.7023026326646686,6.408012928613061,7.768771305136397,1.06096816396348,5.664060422368493,5.315716874309146,0.27564331817666243,3.395252863800124
1.356,2.905310810703213,7.041441626540291,6.628179315483976,1.1844361368566751,5.5945246515711915,5.324057545181859,0.4727673335637519,2.2021029995194112
1.36,2.7390559052701065,7.158654823282632,5.808076164398699,1.4272495055702166,5.494416591785921,5.262582019167894,0.8126416654458808,1.2830468358024518
1.364,1.9248657170246588,6.569152614526502,5.432808650222796,1.5707286502602074,5.393745460843093,4.929339386337233,0.9694371417335788,0.7694345138424978
1.368,0.47646359572172514,5.289689146492492,5.314401267332869,1.3869569323078395,5.179204025344916,4.380307401967002,0.7982108782061914,0.6759870958230749
1.372,-1.2511605438867264,3.5699102278013015,5.080614154023351,0.727312124463424,4.665612515760586,3.8887969880870514,0.413637026471406,0.9004618391973054
1.3760000000000001,-2.7131296273782937,1.7795759391447064,4.393340387566241,-0.43385417883200716,3.705637164763175,3.7420101829648047,0.12206168876036827,1.2354513133450382
1.3800000000000001,-3.4335738272166054,0.22985068789330398,3.1388075779204883,-2.00617957648592,2.29014589487997,4.004597255723638,0.24757055020018015,1.399557446133258
1.3840000000000001,-3.205123481939154,-0.9464370812547713,1.5181187684984252,-3.8031964576503015,0.6072803208280675,4.42286237123335,0.9631124572897534,1.0984102396341768
1.3880000000000001,-2.161236884136997,-1.8042220637235005,-0.052365851026479504,-5.5893382973245025,-0.9866959428218252,4.530358816013177,2.192862370660805,0.13606258826621342
1.3920000000000001,-0.685325043339617,-2.480696233227718,-1.1438985208396844,-7.124372859314462,-2.070709148119022,3.9177616825963923,3.6408179471636686,-1.4734476508165244
1.3960000000000001,0.7899427179072518,-3.0403641751527175,-1.5004533643277682,-8.194876719413514,-2.2917544841011477,2.5165766318677925,4.924245495823925,-3.4470373779367947
1.4000000000000001,1.9651667974630982,-3.388267426036691,-1.1188876398446155,-8.645519780788163,-1.4885727228074757,0.7115061066942872,5.7389226376435545,-5.282328523218894
1.4040000000000001,2.7596950210881914,-3.3020257170301193,-0.18076957061566645,-8.399920025984102,0.2393429153235047,-0.796797951179542,5.980689447387704,-6.4270314083842095
1.408,3.2432038573278987,-2.597259325501909,1.041947687323045,-7.503466835614745,2.5195556909402512,-1.3457358966697939,5.741531850224419,-6.496319272258916
1.412,3.5091841191569983,-1.3043155834584468,2.2741477855306584,-6.1368215869097185,4.772513270698255,-0.6688670709336293,5.216760510498716,-5.450326831178245
1.416,3.5896612891792756,0.2650502700571451,3.2817319731875614,-4.567451945207722,6.357873939770798,0.9500552817007701,4.585399916471943,-3.646136333783943
1.42,3.4615174763803225,1.6236907975753638,3.8782969435960695,-3.0433949197476977,6.771232510851405,2.823248666274594,3.9292234438471496,-1.7271782793504826
1.424,3.1363456523304194,2.348457102788416,3.9490535489057947,-1.6649942873218606,5.832594956053981,4.234613728291151,3.237706137546411,-0.39740037123920047
1.428,2.7239239963346336,2.30029173366529,3.4664096622545912,-0.334111290247165,3.7862605516238546,4.820355606778321,2.4594932881936984,-0.14346237102472514
1.432,2.4190351296183508,1.7126783452304153,2.5239941791423917,1.1883356424768863,1.2722591858728265,4.747857021844538,1.57357117907668,-1.0253816218883003
1.436,2.4038593370414674,1.085643837569478,1.3574285516478994,3.123627866143579,-0.8507668648035178,4.5860869647913205,0.6451035278714699,-2.6216140536507737
1.44,2.720377196181289,0.9332020916172041,0.3126042057210725,5.487558771324984,-1.7926366972560572,4.945865461171707,-0.1629100375375856,-4.152894787590412
1.444,3.2152232393373197,1.5301277019625559,-0.23056720149361354,7.99905953812231,-1.114863646822414,6.106656662210298,-0.6199222266404831,-4.755845103683896
1.448,3.5703808768466843,2.7630550174435484,-0.014100109090577462,10.123702224869703,1.085633430062444,7.823296792263136,-0.5154753601727862,-3.7961962171830237
1.452,3.4332191688517923,4.179843786397214,0.9680804962699767,11.267388178701367,4.1968855333616375,9.434550079735345,0.2440095428210043,-1.1233113200723892
1.456,2.579422017086472,5.205603986843926,2.434140452021893,11.033264366988988,7.317896443175414,10.202271166634091,1.5698962845144706,2.816429288142899
1.46,1.0194836227137785,5.407570791734543,3.9046028171542275,9.409638873141375,9.601805503109063,9.6876585746013,3.188711217026139,7.057108726752631
1.464,-0.9925410553114489,4.687072655953671,4.911371317979501,6.801334974007659,10.57812751819256,7.967073576888652,4.733930273270744,10.375624088403129
1.468,-3.0679961281521173,3.295463355983884,5.187892076142816,3.8662150855525397,10.293498681761776,5.567358024118221,5.87121295644647,11.691886600561702
1.472,-4.829763723245378,1.7037147908431507,4.782648510859872,1.255869552810509,9.222323522746592,3.1928572379420075,6.424178096780452,10.46143003439829
1.476,-6.015140822240937,0.40919620049862715,4.045870408750488,-0.6003773507791266,8.001861183824076,1.4069695213383966,6.4431544418275735,6.906510836857706
1.48,-6.493688215898146,-0.2203240361295684,3.4990508110313385,-1.5583206566116132,7.127963126044051,0.44778937570481503,6.174139478705911,1.976785685026698
1.484,-6.215089087960223,-0.0033552952818354242,3.653953251765415,-1.661386553633747,6.760894260813075,0.2600336981086002,5.945566879930993,-2.982663195725763
1.488,-5.178271809843864,1.056979012057127,4.786957147913199,-1.0057726051545615,6.705382709700643,0.6569207250322506,5.982932810029524,-6.726312089464045
1.492,-3.44552371284135,2.807156116398801,6.784192571583844,0.3425102301298466,6.562576563681432,1.4944502434227616,6.262742876811899,-8.561965757171492
1.496,-1.1912724459034507,4.975409726621365,9.131361356348862,2.3169584341176233,5.958323618709983,2.7371364679456747,6.497508880911482,-8.56551781410235
1.5,1.2760493425703316,7.211248346028697,11.073349358555788,4.7485922781561385,4.731527225307218,4.386747251925044,6.2764074668011745,-7.4583956650694745
1.504,3.582510258002003,9.163689711149345,11.921234348628786,7.30880165245253,3.01177411642675,6.360690503288424,5.31234888095787,-6.209666937007569
1.508,5.400511368346088,10.564404686599119,11.334789592263405,9.54633110199029,1.1425493244569225,8.404374614923654,3.644393151242184,-5.5456287319429975
1.512,6.566924211585501,11.306537243514867,9.485311317988817,11.044980636390392,-0.47969464763082215,10.123442301246541,1.6856409268730204,-5.62187941724369
1.516,7.138845725085048,11.476534914257172,7.020692662868896,11.629709978806204,-1.5514758210192667,11.137050132629156,0.07490882484125905,-6.014164788150083
1.52,7.332476297347057,11.294821189761933,4.823997965359013,11.482522316391623,-1.9345542527589714,11.261781961293309,-0.5982398022624693,-6.029727429049672
1.524,7.364968678090918,10.982906032170831,3.6712576417085074,11.074706227958814,-1.633448387723547,10.614730335044442,-0.06344214741693577,-5.169852753722807
1.528,7.261833579028462,10.601699068632115,3.8827951078219485,10.90227733690881,-0.7396443739889946,9.544965833578317,1.472194600115472,-3.469020219083177
1.532,6.7806994372604095,9.981038702479054,5.174702714404702,11.182017357950826,0.6188907666783052,8.443698078346642,3.3906239702773746,-1.5287629848862707
1.536,5.519004997722732,8.807134262202453,6.7947392085552565,11.693158121874148,2.2955306231378927,7.541799945998719,4.9279328182183235,-0.23591092349670362
1.54,3.176960655313451,6.8480588688644275,7.893359024783422,11.88218839815272,4.113079399887283,6.809482114047569,5.508347386012247,-0.31574188958438754
1.544,-0.15675754000949382,4.199117463304901,7.968804284610087,11.193428959863013,5.86069226847394,6.023421299025358,4.995934380791368,-1.973382651420252
1.548,-3.9081913096079006,1.3538746535414248,7.098765981276301,9.405350991828527,7.298462608479895,4.935466603405075,3.7149444943697745,-4.794092699754401
1.552,-7.181662233524548,-0.9581761820045358,5.8682230405593145,6.795646618218598,8.187740449920966,3.4550869561498985,2.2516600113813183,-7.949257842308725
1.556,-9.129620736235665,-2.10721334696791,5.032100608355904,4.032436005662021,8.344402836073641,1.7405185164388968,1.1514724519674928,-10.583349212676694
1.56,-9.346870135923382,-1.8978023108302295,5.0908582872561965,1.8474707728419162,7.689177259650023,0.14903464396775234,0.6753185916641087,-12.167803191041457
1.564,-8.063341798119836,-0.6977410715262522,6.029446289470798,0.6843761766958778,6.279452414408297,-0.9164203548934893,0.7330988367866667,-12.657506872295926
1.568,-6.043605471013507,0.7151890353134149,7.313500923941319,0.5013947789138911,4.299273439119133,-1.1958855902375944,0.9786751982064743,-12.380029776171796
1.572,-4.210134344326434,1.5385852719291506,8.16856189376631,0.848173605329066,2.020487058252911,-0.6891743220767239,1.0222442478734592,-11.76863211424643
1.576,-3.187087826861898,1.3540623943936225,7.981398007439566,1.1526762166085973,-0.25980809918291925,0.34286974320275476,0.6382408564768411,-11.114657301532134
1.58,-3.0087388173233194,0.33053495983040193,6.5998049952668225,1.043613565767373,-2.286708154504595,1.483791480488435,-0.1344754960227874,-10.477495552313485
1.584,-3.141723263734093,-0.894178425300197,4.390627349390343,0.5312332211688044,-3.8988402943468827,2.3154776205956296,-1.0312549336413213,-9.785439116683847
1.588,-2.8362122487833403,-1.6153807644641347,1.9907108191691805,-0.06678595133234921,-5.067094429039571,2.5384842189123447,-1.7323310421379574,-9.008973686479294
1.592,-1.58971483869027,-1.4943220416098484,-0.057022441158551374,-0.3637818298093407,-5.891277858396279,2.0391760299207817,-2.04254230450897,-8.279652268513018
1.596,0.5421299148256367,-0.7596156847648672,-1.5522626437436884,-0.13885995967802955,-6.532585663754162,0.8923709681585024,-1.9769985368116068,-7.865165834638901
1.6,2.9674398243573705,-0.052012470001045585,-2.627181068560276,0.5785286627974529,-7.097093982340539,-0.6758146885158567,-1.709943571115673,-8.005375967875807
1.604,4.913061523368015,0.020424589248250413,-3.4763062878319033,1.6215449759256444,-7.508305470686537,-2.3281086632268853,-1.4056060840193823,-8.707003015420923
1.608,5.8648872185158325,-0.6816524487185234,-4.07192864508761,2.8608838894233486,-7.462950947572608,-3.6884337428382423,-1.0581563119449129,-9.621171920513007
1.612,5.854230584553079,-1.6596766479087819,-4.039524542205982,4.315589898253165,-6.511355747767084,-4.431329162187467,-0.429565403253946,-10.102349326636613
1.616,5.421586441250838,-1.9984681899877614,-2.804010806728911,6.110630310882698,-4.255773608894742,-4.380731183471653,0.8663694116894476,-9.446828372518212
1.62,5.283746005301509,-0.8780187771189958,0.051354526991417515,8.307740363188714,-0.5940544690874958,-3.5866982206134708,3.156507219411651,-7.213207360942761
1.624,5.921734432625271,1.9185584275928704,4.439351154080214,10.750256764698861,4.119866833270862,-2.3260338482432417,6.489338259119904,-3.4763256090445793
1.6280000000000001,7.306567879548311,5.778347869387289,9.614207401707972,13.027556332886888,9.091927725015921,-1.0294835430559033,10.4925692988636,1.1302662867292383
1.6320000000000001,8.942260409860864,9.487264310911996,14.373703412466057,14.63630072423075,13.327493719716585,-0.13220365131201106,14.427045882923267,5.606140185751428
1.6360000000000001,10.192054882416414,11.808326222040705,17.54152897491258,15.253704018268763,16.00135914663224,0.09614666173001751,17.43559143030143,8.931828643784684
1.6400000000000001,10.677489091028292,12.102010441776656,18.48132344522128,14.947270920134542,16.782705617115425,-0.34156458419238334,18.8830448440458,10.428795635609276
1.6440000000000001,10.511614500365795,10.652556100465517,17.380599804089798,14.182149796886733,15.947573473418743,-1.17120241954035,18.629572900998028,9.968635103243287
1.6480000000000001,10.184628789629642,8.479322787916317,15.080785427948285,13.556601135751407,14.173841009564057,-1.9980492739305191,17.057759379071285,7.954565765110601
1.6520000000000001,10.198932707741733,6.756836230728368,12.579851891718135,13.426768337587419,12.132737391879346,-2.5093601006847166,14.856943347827837,5.100290759251948
1.6560000000000001,10.71120147127931,6.181529051602411,10.502187849499023,13.655334360157212,10.10825016570925,-2.6199837013264187,12.683263438630092,2.1140482906866964
1.6600000000000001,11.411501900088297,6.634169739551908,8.823652184770253,13.646751161373686,7.872124401023029,-2.4816018535075273,10.87698791476032,-0.5361237456090748
1.6640000000000001,11.744277257381327,7.340384774616723,7.019397697991735,12.690367239079933,4.911503663279291,-2.336549000836385,9.412235201561998,-2.662255103008647
1.668,11.348384745430849,7.436296608701923,4.559868408523471,10.444377360039653,0.9024310757631611,-2.2951806981873233,8.100481765633958,-4.207101454430813
1.672,10.412396708149572,6.577672977919974,1.4265557870385237,7.266176533355974,-3.8624949777386064,-2.1828762189215922,6.899931460557127,-5.022895554815477
1.676,9.657050971566605,5.185081399381488,-1.7405882770690368,4.13927832248919,-8.409182427707492,-1.5923311610713426,6.076728616248147,-4.756389398629835
1.68,9.925374690094031,4.175514196913355,-3.9481767548313655,2.2134948718830856,-11.463510807565399,-0.1258792814842309,6.075779614164276,-2.983829691313076
1.684,11.590149677113004,4.3174284896522295,-4.466474119042687,2.1682143567286403,-12.127984166723763,2.272375941158316,7.131500906791189,0.4212312918043608
1.688,14.13090827729593,5.592928026491791,-3.3999648961653293,3.7363439207256306,-10.485352413597866,5.085658766798588,8.839294177481861,4.895721548487927
1.692,16.187285015478665,6.993899315099043,-1.8288134859431011,5.685247742561842,-7.740504545869044,7.259133074145211,10.01325750749129,9.055510142239655
1.696,16.11552453870354,6.926126574892805,-1.3930012540185999,6.304558982994422,-5.749181625998972,7.530548163917047,9.017097271191233,11.027193361282116
1.7,12.82864208362571,4.083338345303673,-3.426800804974846,4.230140550174838,-6.091784335616467,4.969639302074938,4.536810793182667,9.190509189069417
1.704,6.49317032322142,-1.6642171235052956,-8.090889288687322,-0.7898637761682039,-9.155291672548628,-0.5177888055059157,-3.5473168257485668,3.0221429295907
1.708,-1.322399210974254,-8.896903761664362,-14.006298707230599,-7.600861562290447,-13.738861564537729,-7.969821117465472,-13.686739245662466,-6.3893772582523525
1.712,-8.176612658244267,-15.065313335797327,-18.662968582904796,-14.008943213641942,-17.45477710506384,-15.575816346114152,-22.954203198523828,-16.49318073331051
1.716,-11.757916840586404,-17.575848759132896,-19.510145137099244,-17.685394976985663,-17.7960978311894,-21.27513208133496,-28.099890376866824,-24.116959062883325
1.72,-10.85854032527277,-15.000724872769752,-15.1696293511759,-17.172005996069856,-13.352591395927448,-23.48773450877343,-26.917366369361844,-26.687099374687023
1.724,-5.847578479225376,-7.799111536096461,-6.169053599835024,-12.507729472753454,-4.567335227469812,-21.677675167853522,-19.265858434282563,-23.28263593275551
1.728,1.555868911485959,1.826058344422563,5.179414034841102,-5.182335898530255,6.354624310342842,-16.50757490187607,-7.223404689617382,-15.011105125400718
1.732,9.059630651603584,10.867145123582304,15.70430086572378,2.541588376720938,16.341726944434413,-9.537889464711043,5.740142351287432,-4.5227756168133055
1.736,14.713584781554346,16.76784053684605,22.63171726390101,8.582906302500305,22.7027813378445,-2.6303772988394485,16.174409896309953,5.125522214118973
1.74,17.55640702301389,18.40490494509868,24.619831765818162,11.828569990151664,24.137612689473826,2.7049317024157062,21.990400490853062,11.69519041658532
1.744,17.75764408590112,16.361707931297133,22.116821331657775,12.40503966362121,21.070188316340136,5.750584858938964,23.108771371546027,14.504079856384124
1.748,16.272759777605643,12.422395244449945,16.933906680762448,11.362147732775156,15.22392032028165,6.671670148862177,21.15781388682626,14.391626136166451
1.752,14.261114502238343,8.610019548890705,11.30649755054219,9.99541230624527,8.731187089981177,6.270808893699723,18.445055711330497,13.017807670483307
1.756,12.561122029900616,6.261370407117283,6.897644210868748,9.169151150264042,3.2424514807025844,5.53612600616907,16.754309608848416,11.931759949480693
1.76,11.46479558476949,5.595588738485276,4.252271738378113,9.006374520283316,-0.5384297353220973,5.223631786702754,16.614253562527665,11.892798427903472
1.764,10.807405489480516,5.904987733702001,2.8787468268783414,9.041653337884782,-2.7710495307546807,5.620043281676772,17.350414615197224,12.729050747686415
1.768,10.222647669513208,6.155603564708144,1.8036987593732192,8.665830094058947,-4.0204592009868065,6.541184443327438,17.76712205538024,13.700600398586175
1.772,9.382165191317654,5.62657513979957,0.24812405663033132,7.572588315171743,-4.746988284212421,7.522396279437089,17.0037391738515,14.079431402578848
1.776,8.090814240640611,4.2415854673508875,-1.960614847308534,5.934081538565806,-5.033384931592082,8.069548864144963,15.041140178756905,13.590064053594688
1.78,6.286731215707732,2.502067634895866,-4.349270553460883,4.27249314529945,-4.616391897194262,7.890360683571998,12.637314533063545,12.486862895097147
1.784,4.02911579647116,1.1429738065717174,-6.083184572684331,3.1587840965776195,-3.126748049115122,7.009932931225194,10.805672958018476,11.29523212046115
1.788,1.5189843203879718,0.7504899426794509,-6.379542860913716,2.9486067659900073,-0.34666115147138044,5.7472215033267275,10.196765989267078,10.44642112726433
1.792,-0.87136601551083,1.5315015226369724,-4.846228582495314,3.6925305273798585,3.6442791124436553,4.57816058413664,10.757541415183368,10.046315367744683
1.796,-2.655030558817998,3.277314263928929,-1.6572568029023387,5.198749037481321,8.449985166062106,3.9199194167322275,11.818766292819419,9.904120919805791
1.8,-3.3887524250840215,5.500167619180502,2.50793003882427,7.1788508947283844,13.438972541214753,3.9496548207607702,12.530241941060012,9.749903650465058
1.804,-2.897449946094639,7.625549904536456,6.689673380702516,9.345063581511567,17.85072426640363,4.527209751862756,12.355833210154742,9.450461180564162
1.808,-1.4516783735025456,9.144527502112396,9.938193601535204,11.405263647066931,20.90839179096838,5.2618197386291286,11.329306439047286,9.083557732355985
1.812,0.23436619198946573,9.706101029861202,11.580190072848382,13.019878455611433,21.960407397447852,5.701379210600862,9.94762838827046,8.8441515335835
1.816,1.2205059140187586,9.154239824611068,11.362658019018454,13.809045615525065,20.64413732192679,5.544695754573695,8.79350863302534,8.880427605776276
1.82,0.7305962146183447,7.562224546932157,9.492491758911456,13.493991051613193,17.05354747587262,4.799907948603504,8.168346125341486,9.188205002723407
1.824,-1.4680733062787112,5.254009958736788,6.554724152445488,12.10497206369564,11.812916027540268,3.791478943603579,7.954878971608196,9.626401744499162
1.828,-4.905604431679421,2.7539707339365123,3.3121361800731393,10.098256304157985,5.96247893556847,3.0009801751766645,7.748458838859733,10.022685153169732
1.832,-8.566276770566219,0.6515005357705377,0.4525092478743318,8.250527091301592,0.6554249830214758,2.8158982076820394,7.1597994540243235,10.284616838520378
1.836,-11.324267141113523,-0.6039558068632687,-1.6550336342379524,7.304899823187043,-3.235007418209534,3.2977259981398674,6.061832067048272,10.43624464387176
1.84,-12.428811659438452,-0.8748880514185657,-3.046149525382134,7.559928707391009,-5.396215906182988,4.11442481620179,4.654686182535443,10.547515662345177
1.844,-11.79429020212092,-0.37619089339295897,-4.044139908595753,8.646525557041059,-6.101439569796639,4.681292865949217,3.3412509211939323,10.629844653685723
1.848,-9.970685797641181,0.441207405779096,-5.004697309141193,9.659396316185848,-5.968490117453257,4.444833302693951,2.4996870018840127,10.591847326311836
1.852,-7.8336068501507725,1.1015520298260526,-6.069431189981515,9.606480220707454,-5.597113607494066,3.1616519837534725,2.2933542290338664,10.29527315798805
1.856,-6.186230488068759,1.2836624033334374,-7.105902939802945,7.92393205816461,-5.305594439593733,1.0123429024788493,2.5998543192763464,9.68487678398742
1.86,-5.4409870660974775,0.9146383233828601,-7.815232794502663,4.803417688271111,-5.074578940322681,-1.4820566925318417,3.0998052596496564,8.891042052568082
1.864,-5.513879405298212,0.14393962177200592,-7.944712494191663,1.1305422489085686,-4.70723344178441,-3.703556261205449,3.4553372556865725,8.207230538333533
1.868,-5.951320441388816,-0.7695276311424095,-7.46940366378476,-1.9436812430039936,-4.070414420412817,-5.213097785155696,3.472550057341323,7.939112611824385
1.872,-6.181493257544389,-1.5711768248866065,-6.607969173077436,-3.5506907332046467,-3.2271245380288747,-5.9113819691247045,3.175565534618727,8.220582521031247
1.8760000000000001,-5.7825577528251415,-2.0845126844915285,-5.6965733753077075,-3.4934239786862236,-2.3860038554439598,-6.030682603630339,2.751873920199614,8.91425849168445
1.8800000000000001,-4.631393145804395,-2.216143764591834,-4.9681272414381965,-2.2540494061513527,-1.7056295929724001,-5.961162747336857,2.4395855189914073,9.657034468940765
1.8840000000000001,-2.9025699346557303,-1.93044781304161,-4.39362297039861,-0.6477337065271058,-1.124943495315165,-6.0304451891024655,2.4050588712198078,10.030660954736959
1.8880000000000001,-0.964360668388963,-1.2458246970063556,-3.7084644515289256,0.651254032023644,-0.37951228194742725,-6.344208607233668,2.6492706971921507,9.761799554069512
1.8920000000000001,0.7624761257407044,-0.26557838679491397,-2.6252703534782995,1.4264278940063377,0.7697471522715205,-6.761656351538477,2.9782621924523482,8.840654864903627
1.8960000000000001,1.9098680763750053,0.7815656896373184,-1.1254257852306182,1.8939281286247933,2.229871802011985,-7.014208949411113,3.0320330734421077,7.510757015665149
1.9000000000000001,2.243811262444069,1.5692640246256815,0.40947276601855265,2.4144393342485273,3.431040362352178,-6.863031526030682,2.399833624444909,6.134211123842761
1.9040000000000001,1.7132311613859201,1.7801456066813444,1.3221526378811177,3.1449098646935454,3.4869772481615655,-6.22392160191157,0.7953827427436408,5.013326691065231
1.9080000000000001,0.45330172449394013,1.2412314423463613,1.0096419372557648,3.858092577456773,1.6307736831877264,-5.203311096926882,-1.7691946370996448,4.2756692242692225
1.9120000000000001,-1.2626767495253262,0.012062081557360216,-0.7192504284839742,4.038993047354779,-2.296064145993114,-4.047969710247344,-4.894840043243676,3.8684974735697324
1.9160000000000001,-3.1446680927888337,-1.6649533358372537,-3.5160516209334673,3.152457795195005,-7.614852174451698,-3.0712639930925434,-7.880606839101347,3.64319383925249
1.92,-5.004759959636431,-3.5112674961437733,-6.631272235200413,0.9338866239049821,-12.989601032968494,-2.560797423283475,-9.953664441554793,3.4599996441602343
1.924,-6.816258076063605,-5.3724851737765675,-9.259001659950627,-2.477697031331445,-16.968527733053634,-2.7098416601875215,-10.56865244122946,3.246314037161028
1.928,-8.670782915157815,-7.2824439240012,-10.894595840555667,-6.619382414703068,-18.614968922402113,-3.5686194393874757,-9.650170723192787,2.994279341026413
1.932,-10.639769292461551,-9.370307961869003,-11.50221437349046,-10.913442106420916,-17.8939700631081,-5.020769882823515,-7.65400827425583,2.7168504383789696
1.936,-12.636599503610796,-11.669366576415541,-11.441978758603,-14.873017675588017,-15.623101658458836,-6.807133052310746,-5.410345725947991,2.4233727430682848
1.94,-14.346898426173084,-13.930577240141702,-11.180142597016129,-18.16591348477914,-13.003481798451503,-8.574739398908605,-3.7830129738649703,2.1312178155076253
1.944,-15.294895551628997,-15.584089433538793,-10.98448212378662,-20.545641927787074,-11.002846544392924,-9.96803588201692,-3.300645693911065,1.8935156116449434
1.948,-15.040640718392751,-15.917019510726277,-10.790055014031168,-21.751738193988785,-9.920443378947311,-10.726892828209202,-3.938311908968899,1.8184974979722028
1.952,-13.408285875406818,-14.402102618218123,-10.292602220662957,-21.495881489198382,-9.348067285621255,-10.749141282401979,-5.155535578760464,2.0541546183812898
1.956,-10.641371777302538,-11.02339294041576,-9.233147087481484,-19.601662668865174,-8.538158007185302,-10.109697985862113,-6.188130864086816,2.7428457359346794
1.96,-7.358774192812234,-6.393741861721992,-7.638638646149047,-16.19491798670242,-6.926632042889651,-8.997578230118961,-6.428382818113278,3.954680126626954
1.964,-4.322186734767456,-1.5784668015203351,-5.868099089069801,-11.814720468409178,-4.5093764807706975,-7.617526583486324,-5.704403463666495,5.6349459357588785
1.968,-2.137712963742615,2.307486758285904,-4.436258430608177,-7.340746606194898,-1.8757631117168785,-6.107320642248851,-4.334703779994925,7.597830842640178
1.972,-1.0431230202930237,4.536494084099104,-3.726782454502427,-3.7312951393373623,0.08893172773696278,-4.51187682100317,-2.9507507393955166,9.575702461543187
1.976,-0.9071533511601046,5.0035502737910065,-3.8090885393557983,-1.7083425022710799,0.6274429479535684,-2.8391843639437866,-2.203201845541116,11.310089377919212
1.98,-1.409173410234871,4.163871100248343,-4.431823123475624,-1.5189165649067036,-0.5625978038292487,-1.1318285162933535,-2.4770576882383466,12.639238805810237
1.984,-2.26676920052023,2.734368596407876,-5.193699075836776,-2.8813227160335373,-3.247915497044687,0.49757129894715035,-3.743678279776759,13.55818932836155
1.988,-3.367938444725496,1.328083148188398,-5.7739952175379585,-5.133930766549838,-6.822288413835395,1.9022520404014358,-5.596679822190708,14.224198607331346
1.992,-4.722592575595172,0.2213591215731867,-6.071773677214878,-7.493354846390503,-10.575813006936642,2.9914218888743562,-7.423851958347768,14.894541146449228
1.996,-6.2896129594946615,-0.645721843892261,-6.201397999819619,-9.310941381731027,-13.915426879105325,3.7962080581710325,-8.642818257536419,15.826832060230117
2.0,-7.7977169014257015,-1.4481641409975055,-6.321878313912293,-10.204465804491065,-16.423984301303335,4.481069858592491,-8.87414719408389,17.16666052729397
2.004,-8.708710438372236,-2.199657436655798,-6.434654970445536,-10.058471166048548,-17.792622381738056,5.260648448629581,-7.996905248809526,18.859977268629336
2.008,-8.390813495699604,-2.6060473040556644,-6.286059030414435,-8.94413001492967,-17.735468357991977,6.272771005611503,-6.1008793478154075,20.638899796697842
2.012,-6.427627084651249,-2.1424082000016824,-5.4343508518527415,-7.0241350838587095,-15.978323444596754,7.48927813010323,-3.3827625921258004,22.1084204261997
2.016,-2.9131090953003422,-0.3390310547442823,-3.4876934445023835,-4.513414626494523,-12.367932080614082,8.707486038410025,-0.06654421655048282,22.91232577876417
2.02,1.470199312909699,2.9058501981494373,-0.33826590106218646,-1.6657474570665727,-7.023447135580227,9.656855606263889,3.6362642782469266,22.89457061725261
2.024,5.6568135621294005,7.165708227619234,3.7268020423698545,1.23703670688883,-0.4247087992425804,10.14948739593001,7.516890260713353,22.175002575248982
2.028,8.6013472819036,11.570179836267926,8.09544765719238,3.9178997334611267,6.6391250412248155,10.1836698585048,11.334929635563185,21.102733841227746
2.032,9.691453717287914,15.103356204785086,12.043693407189494,6.155650119105758,13.25007198938556,9.939237069215778,14.79282864919196,20.09748447099173
2.036,8.954469609530634,16.965398853511033,14.952907685671562,7.807805099639154,18.581439435422453,9.654880859056902,17.533149098509057,19.471004253391584
2.04,6.986160225118056,16.84973181866735,16.475149036977655,8.817574115863863,22.082055836234304,9.480459677369254,19.20468446598079,19.30896217715508
2.044,4.651299244733309,15.01644472011185,16.581974811443615,9.200863422647217,23.551209479393037,9.38695174192344,19.568400567402023,19.470438383397777
2.048,2.7163492773806865,12.15366916693165,15.509200603085446,9.037031184400803,23.10390273007215,9.206196876624745,18.6013444731243,19.706584403881607
2.052,1.5899614897734864,9.112130705812888,13.654943783366889,8.478981738992843,21.07850787895495,8.775512091318888,16.545083682445693,19.82295423373671
2.056,1.2501304190780047,6.614342256245436,11.447222953630444,7.750006160885732,17.92599060954535,8.071274293836723,13.84593197552249,19.796443709443338
2.06,1.3761023742299585,5.063607308884912,9.265290991975235,7.126015215203552,14.13551098725111,7.261565548702492,11.023879439159373,19.782457490684465
2.064,1.5712665449968881,4.491676063053774,7.396967895772377,6.864315072984027,10.181201653508197,6.617862004130075,8.514352765803778,20.012487116610828
2.068,1.554751305078753,4.628023573565997,6.01879680740376,7.092302298910909,6.477584104155085,6.345077447389485,6.554160756437341,20.65707937871639
2.072,1.252840524761723,5.052998801524836,5.193682715821524,7.718591869408101,3.340076204372963,6.443857300877426,5.181017950694695,21.735523560568254
2.076,0.7547655498251515,5.34826680867036,4.847597036854495,8.406611951122613,0.9372463281251839,6.682999939963338,4.314072177711296,23.113940409925817
2.08,0.22555687616954856,5.226655123605724,4.792642431279546,8.680563559818893,-0.7171519703301783,6.738360390188063,3.877715875573813,24.5647185574594
2.084,-0.16005027684150264,4.61350438292834,4.793891084476854,8.131852162040786,-1.725773138000477,6.409474163138384,3.887607705306891,25.833388971004297
2.088,-0.2399587900276856,3.6594577066405236,4.668854702144472,6.634079190240527,-2.2267662907597696,5.78677862601171,4.439319589466322,26.674000371837337
2.092,0.1442786585714657,2.6805860132751604,4.38474493658623,4.453406374515453,-2.3051050940234745,5.253218616490813,5.603517666626431,26.844333619883855
2.096,1.1177296518360436,2.0241038803560514,4.069523652640328,2.1604692392968445,-1.9535936123766078,5.273022456038234,7.284259163640854,26.12439137446927
2.1,2.7068867629170654,1.921717805498247,3.9646266211138936,0.3970221171277899,-1.0850369341906116,6.100001827740925,9.158706752809849,24.382165844213432
2.104,4.759444801003156,2.38700667729222,4.314916825950604,-0.3926660424410784,0.4041280331325652,7.558307955490818,10.750144634169374,21.666001175365636
2.108,6.899159446903695,3.2002707874585212,5.235806281822988,-0.1319636395226098,2.5432456677210666,9.04850781811183,11.615019672343806,18.275782185358366
2.112,8.5837898826137,4.000539817179288,6.62542583845925,0.9016222288255449,5.218201428433304,9.803805073198419,11.53899444832905,14.735380546230772
2.116,9.257101238627456,4.429872382545682,8.132563638711417,2.238695108754655,8.135096674803208,9.262751106827636,10.615432012148176,11.642912782524036
2.12,8.573237905301312,4.284994093576643,9.254554741051834,3.4559166410581383,10.852206080990072,7.390755554401039,9.176558632250362,9.440714003970243
2.124,6.5896032628611465,3.6019477086138068,9.521632359183513,4.346532089742141,12.869882226842492,4.75242393282042,7.607519006216535,8.22034072753786
2.128,3.8265789528127243,2.6403192290645165,8.704513427256188,4.953068737437434,13.76318355353942,2.2864025231683627,6.159441228079686,7.689890415712853
2.132,1.1426381176875111,1.780738603678401,6.949964003587411,5.463614367525224,13.314356450203377,0.8857537636922643,4.870404656003757,7.328831985408215
2.136,-0.5664842050898642,1.3579402213006233,4.734083701411237,6.0303183211408395,11.58481736640124,0.9719512045076044,3.6194934494164954,6.663104783387098
2.14,-0.7082044902922462,1.5194573996668623,2.673459792822541,6.645885190893068,8.907213364112522,2.2990223580532074,2.282524035319966,5.502023300871315
2.144,0.7680438743166178,2.164593105875838,1.2510600624714243,7.128458933625097,5.782528228095089,4.075710725111094,0.8632286295564882,3.9998026415896675
2.148,3.34620870286426,2.9856059108692534,0.5971884268274152,7.213529103757992,2.7170333350438796,5.348703885897066,-0.48874549445645243,2.5108206967752267
2.152,6.151634672994533,3.5936445686811567,0.44904333778254113,6.687247678647509,0.06180319552436231,5.456125267492553,-1.5852408737614496,1.3261023336808648
2.156,8.290113412622077,3.663008075860489,0.3002775771899451,5.470649427144508,-2.0797747448168593,4.310327235943987,-2.370372738370861,0.47721216192530846
2.16,9.186056920970714,3.0591645272163532,-0.2889924097421499,3.651659322110845,-3.8072503226821937,2.401898548454028,-3.0114857129660777,-0.2673384889640147
2.164,8.767649941701393,1.894805918277143,-1.3989128443361096,1.4562194924972118,-5.2768875009660405,0.5176883712838389,-3.8307214196784116,-1.2201976274127446
2.168,7.434383331110666,0.49584058208938586,-2.630581969895502,-0.7961005098968599,-6.518765961495546,-0.6584280417346235,-5.090539456550232,-2.5158844251350274
2.172,5.84326835324714,-0.7149115724595276,-3.249939471296557,-2.731746501507132,-7.323819111485136,-0.849925220447858,-6.768959190324267,-3.965783421776905
2.176,4.605520111083024,-1.3889740723863042,-2.5687476198900185,-3.987283757477144,-7.2899352360609555,-0.27157357655460146,-8.48567078489441,-5.132545689501967
2.18,4.054769297680991,-1.3917727087642788,-0.3337491170746034,-4.284026625243541,-6.004853434772485,0.5478681856270669,-9.635070349889702,-5.5922887070814795
2.184,4.177655019653457,-0.8488308701081451,3.0724155134539615,-3.5174345856348737,-3.286792024891156,1.080294440061607,-9.689925629988238,-5.230748307430531
2.188,4.70868857856442,-0.06428104703081772,6.748744010667906,-1.825983256164477,0.6517824831053076,1.0776158260889588,-8.511032160863579,-4.379235957378114
2.192,5.315567242968427,0.6536633584742049,9.668990779848855,0.4124019131022578,5.212838893889739,0.6697105812463633,-6.479185455534662,-3.687897691089347
2.196,5.746104765811424,1.1559530180265938,11.117578576779579,2.6693381544818067,9.583788176029884,0.2323711827925763,-4.38440023752014,-3.791948282039357
2.2,5.891278222477695,1.532903248660432,10.977867727237935,4.445749804363345,13.001695169306231,0.13853451504201075,-3.0947372893019747,-4.966058565066987
2.204,5.7544462789931,2.0481794098574255,9.709325485392128,5.453597836335575,14.971840470230745,0.5222851853504835,-3.178645259982659,-6.972886867786656
2.208,5.373917511780064,2.952355624990787,8.036977823747975,5.709163839950634,15.345325989926096,1.2001598069241481,-4.668935167636846,-9.186715062632857
2.212,4.771501097003693,4.270567553836145,6.5361629482231365,5.4806089550813795,14.233298212629052,1.7868319268700361,-7.084194894704069,-10.919939945963279
2.216,3.943085796026139,5.679062108253902,5.317373666503272,5.102255796630061,11.83222663472543,1.917543684236989,-9.705101380024189,-11.751092112481729
2.22,2.9037590676423406,6.578451480744889,4.017453078869721,4.77825609422257,8.298172095630889,1.4666970158386903,-11.924920561704766,-11.679143050377661
2.224,1.7329816593933174,6.341775187317239,2.0700647077867416,4.477298969626872,3.740123697032004,0.6237959664895243,-13.496298139502755,-11.0304221799488
2.228,0.5820390955615267,4.630717354827425,-0.8957753945496734,3.983834613759427,-1.6661934806809313,-0.20006613824352826,-14.55144029239068,-10.201745125350499
2.232,-0.37362601460512224,1.6195625656248467,-4.752190778971681,3.071787184773598,-7.5365764138443865,-0.5831647499323935,-15.400597298861157,-9.432405319007103
2.236,-1.023811025579164,-2.0236556397815093,-8.865848225527998,1.671462575161513,-13.240822403845414,-0.310654272825559,-16.260302659291824,-8.741747765741366
2.24,-1.380175404174679,-5.394146991078401,-12.347863699852269,-0.06356964176734436,-18.018124071521243,0.5370404891318685,-17.053759686650096,-8.053193108158439
2.244,-1.5672639295058843,-7.732678862184002,-14.435281296030098,-1.8348145952727464,-21.207479986430712,1.6458420203848618,-17.411500542503063,-7.3870030281268555
2.248,-1.7476445710468624,-8.741289638360058,-14.795332943841458,-3.3567767269890965,-22.476051032644023,2.6511704649203693,-16.86162102885305,-6.95429545138154
2.2520000000000002,-2.020991036701048,-8.671849813938081,-13.600220340147644,-4.484843358764465,-21.913745170533275,3.3269477029052723,-15.090451103188684,-7.066636950329439
2.2560000000000002,-2.36619594011097,-8.149622416637953,-11.38651639238833,-5.237183197202739,-19.935991846084335,3.6625027080647214,-12.150508670767294,-7.896583790326304
2.2600000000000002,-2.6470313362117395,-7.812197012991874,-8.766976147413743,-5.68024203680784,-17.0388084677827,3.8204143781931634,-8.48003161426891,-9.262566182937007
2.2640000000000002,-2.6863965956097218,-7.962715606930033,-6.176940639568784,-5.782292223528771,-13.555840649971401,3.9993206140893562,-4.734202420706879,-10.608959912631462
2.2680000000000002,-2.3711311636873234,-8.416449975816022,-3.771122988266825,-5.3513398998497905,-9.553279291356148,4.306070066609664,-1.525520484227286,-11.238244979030242
2.2720000000000002,-1.723186774445253,-8.622798271065449,-1.4915393569556272,-4.125098552924044,-4.9303722592784425,4.71440611242258,0.7944283838393176,-10.692349279445807
2.2760000000000002,-0.9157055725688679,-8.008376662981618,0.7341425820376912,-1.988896320376739,0.3210274575360472,5.11110400544726,2.189767381357342,-9.051505070819076
2.2800000000000002,-0.20596974110037536,-6.331269235383047,2.831162624732201,0.8367050991088263,5.874981937863367,5.4086044081677755,2.8441213930749427,-6.95882158031327
2.2840000000000003,0.1651532323298568,-3.8785971383094875,4.518931208613708,3.754235970911054,10.987059482348059,5.609990255447997,2.9675712408520667,-5.339743517089346
2.2880000000000003,0.06341189211639175,-1.39747850052089,5.385597225279696,5.95953097254926,14.647819693456654,5.786676843760233,2.629990365474498,-4.949994738526698
2.2920000000000003,-0.4914013795984715,0.2129972775441047,5.054405368375512,6.759718567310529,15.92754869381497,5.986138899736034,1.724147660261906,-5.998682309316791
2.2960000000000003,-1.3626959188888463,0.27003623559707535,3.313062926531245,5.8485233887957975,14.327825072942062,6.1198151582794935,0.0411272015871873,-8.067639513785025
2.3000000000000003,-2.3732725321908106,-1.4317585987978703,0.1856629262910019,3.4121069546189915,9.985681373952104,5.948403378380988,-2.569124578640583,-10.366805165007747
2.3040000000000003,-3.38225238385877,-4.58036156711529,-4.079708041020865,0.014338075578848475,3.6386265768409203,5.190266551516629,-6.05150835772838,-12.166640159157964
2.308,-4.321472939669945,-8.5223215302278,-9.069340945385193,-3.6576361953788137,-3.627187369371711,3.71197307772934,-10.083814325931655,-13.149147751661758
2.312,-5.175568429949891,-12.537948380325417,-14.261790567631067,-7.035349810378079,-10.713747725008659,1.6874815605301592,-14.121330139880513,-13.4827622602279
2.316,-5.949552602976837,-16.08564500074067,-19.100127955844528,-9.797796825011972,-16.79209366521036,-0.41133033512892325,-17.547788870202794,-13.593893236433587
2.32,-6.631181363230951,-18.887783297950534,-23.03758138517793,-11.830102656995564,-21.409549738891258,-2.00047518061956,-19.839135779405524,-13.804232323092492
2.324,-7.185868895123747,-20.86111800379723,-25.604200057854598,-13.108590700733714,-24.432362259769093,-2.6853073816554343,-20.696474855514964,-14.083577197938098
2.328,-7.575775011291313,-21.974975180939794,-26.483867325415133,-13.612460025014968,-25.88931781908866,-2.4964106638336716,-20.11338559153876,-14.073366293032905
2.332,-7.773956728607885,-22.138106443742117,-25.570030110304515,-13.31669504881296,-25.820586679292887,-1.9031749857265368,-18.35565385894131,-13.36170694163684
2.336,-7.759196171712915,-21.202642082425143,-22.998234089337586,-12.261785264226432,-24.22386629190777,-1.5783814504571865,-15.88129598536068,-11.81724716281758
2.34,-7.4599568738958055,-19.058932594400915,-19.090036426363213,-10.59272692292177,-21.08925300851712,-2.0058747483462867,-13.195409038523621,-9.752738717025863
2.344,-6.696424520662674,-15.756588380293636,-14.250690545354644,-8.517890046313767,-16.494559862304982,-3.1651020439641115,-10.68347043745689,-7.808290958528346
2.348,-5.184047092855678,-11.568419972927472,-8.87160347990357,-6.195321307474444,-10.695637500342912,-4.487437502052558,-8.494254690931143,-6.618704599030934
2.352,-2.644452267983411,-6.955747140285325,-3.293459374081749,-3.6404633110078635,-4.1646206965566535,-5.144183582291134,-6.525979830556253,-6.475016054786806
2.356,0.9757351425366778,-2.462922790157961,2.1253886443520287,-0.7721466047652257,2.4283625114074425,-4.546319665580199,-4.560410287035552,-7.187634487788728
2.36,5.310000727544946,1.4150197567805662,6.928609341142646,2.4187933392165633,8.301655772859363,-2.755611888418912,-2.4751220364286155,-8.233977710087174
2.364,9.533469380645386,4.322574740937,10.534777064132413,5.669342805181316,12.693006304382948,-0.5646646839315963,-0.42563315262236756,-9.078914327511598
2.368,12.576734296049779,6.081453382199982,12.349762776551756,8.388069837299724,15.023932129664729,0.8591991133096144,1.1259168592730475,-9.434000556918477
2.372,13.556127544578544,6.6910788709896565,12.00096540226707,9.843124312533575,15.057953422552828,0.6065256276378932,1.5969404705200532,-9.296289023218264
2.376,12.216010798192485,6.299624705703138,9.547566080074375,9.515152018758045,12.974743315211867,-1.4227959558796783,0.5990958471739987,-8.764969395346839
2.38,9.145890273735176,5.169508548433839,5.553871005159181,7.431742601961844,9.312527985468364,-4.363613379924914,-1.7902302027571295,-7.817461514580486
2.384,5.5819305679451645,3.6071803839362815,0.8921122816966545,4.226984627272145,4.7517124302502225,-6.7830319652204025,-4.99283054520231,-6.263096516462156
2.388,2.819537875863716,1.839803868041031,-3.670813072396868,0.821593547674297,-0.1957532124718,-7.457186693771632,-8.219564640563704,-3.9746897024332384
2.392,1.5116445116807427,-0.12935940350899955,-7.890555250280613,-2.132116399108668,-5.440994018059314,-6.1246928719252764,-10.958297967156795,-1.2765645651386421
2.396,1.2252824662535886,-2.613611524723467,-12.223848503365957,-4.719959981726561,-11.35632087076715,-3.7945078460555806,-13.386491317140212,0.8183644663276937
2.4,0.5745717286847594,-6.162292088832885,-17.558061553598463,-7.797320967239443,-18.496452174378646,-2.3634504188000847,-16.387307174782563,0.7856110785894543
2.404,-2.069085273982978,-11.284819644329104,-24.58660739372715,-12.489248810469007,-27.099953810653233,-3.7108827654253673,-21.075483776379087,-2.7805201232182526
2.408,-7.603195306615362,-18.049696001110703,-33.12022790791946,-19.367594620220075,-36.59845196815081,-8.694382913543564,-28.017026188667955,-10.33190617909213
2.412,-15.465925545234484,-25.742647633537445,-41.72693227618015,-27.7595261651212,-45.42319746417593,-16.563346425224495,-36.55497862554955,-20.79349656786235
2.416,-23.60285963044936,-32.82180044385808,-48.01047732160396,-35.65319550582342,-51.31551088596461,-25.13449571074102,-44.69355614007452,-31.63315676578577
2.42,-29.202777621983728,-37.2716281220828,-49.4558314218815,-40.33519057211299,-52.077491781001754,-31.651827400360844,-49.69869387338463,-39.66280296736977
2.424,-29.9037596017983,-37.29772570225981,-44.520791969033326,-39.529608076239356,-46.47835825789002,-33.94810949581051,-49.219743665527744,-42.27257815983194
2.428,-24.873421696221442,-32.07918493045429,-33.426877772713624,-32.47784145044761,-34.87862243725726,-31.33552843803409,-42.406750723594655,-38.51061761705046
2.432,-15.214215542931242,-22.221300497903144,-18.222387163735903,-20.39188714748684,-19.247143989784945,-24.807770112848175,-30.424176436246057,-29.478653869643495
2.436,-3.507599881207682,-9.678623364555051,-2.084875507160973,-6.044720248145268,-2.5430547371283865,-16.511246295476667,-16.079806669815184,-17.844024512308124
2.44,7.285747306638484,2.8798539831226435,11.859614411107373,7.330182320730614,12.291524218768473,-8.76505368686162,-2.7126694551509445,-6.705067427679296
2.444,14.998698841123883,12.996181310476913,21.609511504707598,17.26859090295102,23.259353570993426,-3.1428584194450195,7.109173825572952,1.6320519242656246
2.448,18.935796768937564,19.2298116222247,26.769077755658714,22.84460064271468,29.74918834406151,-0.033495455925276474,12.44596880011386,6.3930933091714905
2.452,19.793520491483946,21.499051276900673,28.2793728212215,24.66367926392263,32.348875963021555,1.189153826181382,14.017930771324359,8.289081144113652
2.456,18.954986099705764,20.83445239703201,27.609727156871486,24.17029310387636,32.20706997452123,1.5717918495122376,13.468375167918794,8.822231345910723
2.46,17.6229416568886,18.72265817615994,25.92600883588227,22.729852247588155,30.337368101916354,1.952780204050896,12.34208672010152,9.377420566531555
2.464,16.2540986492686,16.371861230152035,23.63708686394807,20.972752793988207,27.206481823994977,2.6081051080677753,11.339688427411375,10.577504735519597
2.468,14.545704981704375,14.248169374022154,20.49859914404226,18.703290870515616,22.769473884589956,3.3022697566977968,10.209275755484896,12.186086684434258
2.472,11.88844295289391,12.06614207353357,16.114144488870693,15.329513148343494,16.838345550651752,3.6218252493065393,8.244713243042952,13.503783305625348
2.476,7.920982439320596,9.149280413337237,10.426475169580954,10.46641530374609,9.487479399287508,3.318863062741002,4.9896959276604775,13.941801096548716
2.48,2.8624851946776744,4.944665943095629,3.918239449398584,4.35243739662792,1.2557709721928632,2.473084175897384,0.7069292799828872,13.411392055439592
2.484,-2.5499981230369713,-0.593215566028789,-2.5841451377415297,-2.152181847339307,-6.951391208154064,1.3897251101598158,-3.6617553605967714,12.331498016242904
2.488,-7.421652872132881,-6.912331565306317,-8.30609108961005,-7.925957920948008,-14.148947749137847,0.3626567691026139,-6.971076447731093,11.308357453830922
2.492,-11.081270488996665,-13.045545767067097,-12.807930247448667,-12.045321428988927,-19.53584026224007,-0.502481078023493,-8.452946552378762,10.723971128610401
2.496,-13.27677920922315,-17.947907835143383,-15.999040372198351,-14.092881458036914,-22.605398945751745,-1.2997179471071831,-8.057848578465155,10.5048929964737
2.5,-14.098305974463642,-20.806078553752172,-17.87737400007495,-14.167015421793167,-23.091454193792742,-2.1568981955406343,-6.369280127853926,10.191458717784144
2.504,-13.75357668327581,-21.22344081150868,-18.253479163798374,-12.67178854083761,-20.887418349048062,-3.053638979662537,-4.209874138115083,9.239508469235261
2.508,-12.383803700287444,-19.254481012693873,-16.69267917965726,-10.056463377253067,-16.055723657747535,-3.7541484518596917,-2.2160275127666864,7.364680200718112
2.512,-10.037190033595493,-15.325003081082627,-12.748647634446115,-6.664559511371635,-8.947643310381068,-3.9094875404000504,-0.6236367779183638,4.730449280744779
2.516,-6.794360392423641,-10.108720660507288,-6.379632446374217,-2.752207734341596,-0.3392800249804395,-3.2753662953396088,0.6466830674487483,1.8983352975262733
2.52,-2.897432361525148,-4.382934900376085,1.768028904351013,1.409095589149274,8.582923304427027,-1.8807192589817987,1.746922756996355,-0.42165009243376517
2.524,1.2273039357962716,1.10064222842675,10.405030935491823,5.446158171765319,16.456574653728808,-0.05417587265651491,2.6940744742564675,-1.679329945344307
2.528,5.0944307309321175,5.726491173326963,18.007795448156685,8.90407619643031,22.133650616267232,1.7269714079302503,3.3444165061730473,-1.7029535758297243
2.532,8.349602806894268,9.092972862859938,23.384615188401767,11.366329686213703,25.031780409559587,3.0657138936189767,3.53796786063981,-0.7558624504169984
2.536,10.868592015548984,11.02187528847503,26.060369815558488,12.574233081732473,25.24350147676273,3.800135227647388,3.2505857440935415,0.5739546415745735
2.54,12.713725105472804,11.519056723512335,26.312843452232983,12.488645871560038,23.356014611439605,4.018255671968973,2.635251979098257,1.5900353159045153
2.544,13.968741264069081,10.698417828233005,24.847659878083505,11.255174687840508,20.091432860056784,3.9218161066050925,1.9065637617538869,1.7271195074720254
2.548,14.580967310560482,8.726280191243404,22.35390992800103,9.120453846954547,15.99598925135524,3.6591234365969285,1.1645103391556404,0.7418089747588965
2.552,14.347048880506463,5.824071673713206,19.223433192838456,6.360709418994929,11.354625013135092,3.236825742058727,0.31907731956175667,-1.2129586268863477
2.556,13.05863281981749,2.308682108878088,15.556348764833501,3.2483043400416136,6.3402156746271885,2.548437448917184,-0.816185486594577,-3.641326851659187
2.56,10.7256081370723,-1.3653027747022861,11.422097974349299,0.0657878285417155,1.2635239466085295,1.5062877988150376,-2.300140239455459,-5.882158107734085
2.564,7.698216708683162,-4.641427637570814,7.116042344624248,-2.8958353928321685,-3.3145786480122297,0.15513783286792204,-3.889699920519206,-7.359734283275884
2.568,4.580718309612735,-6.9982232589643445,3.2060275713388364,-5.381402063961559,-6.7247217442547935,-1.3083514287679918,-5.069543308138918,-7.806048501901614
2.572,1.9700732190613053,-8.132475969887878,0.3193914561775273,-7.231940089877071,-8.510294380528649,-2.620266357764649,-5.297484377955925,-7.357223455344638
2.576,0.15997830027788495,-8.098431800213007,-1.2160637320457681,-8.434479922893615,-8.721321445385684,-3.5896980266825267,-4.348777553036598,-6.466796495038807
2.58,-0.9865159735091993,-7.302690992831003,-1.5940251474148681,-9.103613455799632,-7.945808494989251,-4.175242963508481,-2.5245573569054613,-5.6840352261242515
2.584,-1.9129802218467375,-6.34133237696517,-1.4664860048478658,-9.403759117998334,-7.0243443859717445,-4.466976916040949,-0.5783118699844181,-5.394349095877715
2.588,-3.053589443718465,-5.739819569069141,-1.5961361986053362,-9.449559061901937,-6.590561162294534,-4.581523932284199,0.6249848563213618,-5.6543284870849675
2.592,-4.503716259470025,-5.721595799343504,-2.409421488134285,-9.248194188311345,-6.70776255561168,-4.551855407663879,0.5458527597415923,-6.2228992472828395
2.596,-5.910346748495726,-6.145494034776448,-3.7507950342080676,-8.742317026413275,-6.851922283709428,-4.312136033581737,-0.7599776683455275,-6.764352739956848
2.6,-6.646547845198029,-6.627392292332843,-4.965777316300546,-7.9063906204346495,-6.259318921655677,-3.7728099973887765,-2.682233144273141,-7.10269965200041
2.604,-6.19525347286492,-6.783606990234603,-5.293891219497027,-6.846520920051944,-4.45116361122291,-2.9534490064111196,-4.404788139702532,-7.370134687434529
2.608,-4.51886484864167,-6.452966625804038,-4.3349772327819664,-5.828076022384039,-1.6207632358732553,-2.0651195941113656,-5.353277065827342,-7.947744641112422
2.612,-2.1810373561030474,-5.765801585432428,-2.3070516313323424,-5.194593065119534,1.357179599435085,-1.468028014425272,-5.47840025611481,-9.231446568835054
2.616,-0.14858177077633172,-5.050300005213785,0.016602323039478506,-5.233312117671403,3.306874872229855,-1.5204588749170398,-5.242994584110647,-11.353865991697148
2.62,0.6523420639974802,-4.624699493791013,1.687162287521005,-6.042563754173443,3.327938544595554,-2.3811123001319174,-5.322112865969757,-14.030251800732003
2.624,-0.22901608786935412,-4.619582195293788,2.0296462620453894,-7.490804587508137,1.2379384136618228,-3.9014927413072655,-6.203215960950274,-16.62949380862574
2.628,-2.5684121932716835,-4.933182272888189,0.9345559651173971,-9.279998128561829,-2.343743683029743,-5.665022292199865,-7.90864954148401,-18.44004222207286
2.632,-5.594475943115981,-5.321398919697685,-1.1297924719099228,-11.064209185724849,-6.287180241631859,-7.1585410756392776,-9.979905458098074,-18.999027657767783
2.636,-8.382976327406254,-5.56879241835145,-3.3951766328200392,-12.579935256032513,-9.460415801026556,-8.005569195278895,-11.72010001475087,-18.307392847470055
2.64,-10.285985091432849,-5.617010525523028,-5.163265736995754,-13.711981993359132,-11.175417983565694,-8.124471171942332,-12.543144055901621,-16.829902677541668
2.644,-11.183512335149771,-5.58100184559521,-6.105084461052456,-14.492025663070763,-11.383569584158067,-7.751941362991602,-12.247799377337515,-15.280789982467468
2.648,-11.431519411247791,-5.6455905549923955,-6.34834070923398,-15.035791688189647,-10.573862097699703,-7.313078068521008,-11.08215144358428,-14.299834931649457
2.652,-11.566462523254359,-5.9181910717625215,-6.346562999783146,-15.459679718777352,-9.478770905288457,-7.214620153131364,-9.587844569427034,-14.188971481110002
2.656,-11.965851958661233,-6.3523036368248995,-6.647991732517994,-15.826187886947992,-8.761457526675485,-7.678954410630922,-8.336410744806926,-14.808274570301819
2.66,-12.641636576951441,-6.771142019996432,-7.642572079017782,-16.11056535043349,-8.797047244131818,-8.665626554085065,-7.689308974715004,-15.66485806196988
2.664,-13.284958142686264,-6.978672498695232,-9.410757809017014,-16.20872227803102,-9.595800620288628,-9.925090318893126,-7.696635633433743,-16.14325307216768
2.668,-13.504901985743345,-6.8772267926585755,-11.690597054085629,-15.972275107864562,-10.832783820887926,-11.123151158403743,-8.150334541322536,-15.758147663326781
2.672,-13.091434941685065,-6.4975423986522856,-13.943382500588541,-15.254969715439302,-11.945674128698556,-11.96910180263967,-8.733677633401385,-14.34364325724664
2.676,-12.145646612496876,-5.934916417711065,-15.518907171617684,-13.978018087037299,-12.290869594538663,-12.298798067618918,-9.1844336110712,-12.115390609526457
2.68,-10.989078543345158,-5.2353158215871645,-15.844116974992176,-12.179359207242214,-11.335552142719507,-12.073513120054486,-9.384375846679632,-9.604261779160879
2.684,-9.937943115056441,-4.332112550350757,-14.622559888019168,-10.040248013539212,-8.875332192923224,-11.34144380484122,-9.359541669183272,-7.4850868988605725
2.688,-9.088683153441707,-3.0909180912142347,-11.966754658988066,-7.860879736359948,-5.186885593838269,-10.189630626169219,-9.213247543125817,-6.349325508474067
2.692,-8.248702263660562,-1.4397600821405376,-8.385868610098896,-5.976056093489433,-1.0157139072491645,-8.72004371137291,-9.025403757796994,-6.496458602059647
2.696,-7.086899662769838,0.48516617135715023,-4.641246293449058,-4.6569147758364124,2.630008477836327,-7.070691557186819,-8.791545220855824,-7.808852685096554
2.7,-5.390513883320409,2.302015495236219,-1.4776498497340071,-4.024337545804656,4.8370520021117045,-5.443043951866002,-8.424672905037369,-9.775601642165839
2.704,-3.2755330811319254,3.494965256280693,0.6355322771228202,-4.026286129123946,5.132676595685098,-4.113659649351121,-7.813271955112214,-11.666057646129502
2.708,-1.2030203431245354,3.638970227521895,1.6496710913011157,-4.472924615386091,3.6547017269697335,-3.381198620966643,-6.901500341075916,-12.792207331645386
2.712,0.22969539414907558,2.6280804751431788,1.9023294586677366,-5.105440590681155,1.0579639814220627,-3.4614472836601635,-5.740115518063249,-12.765327082382555
2.716,0.6019512888017289,0.7694146947178524,1.9011666984201838,-5.67065200300749,-1.7952112112739087,-4.376874966600099,-4.484642983372851,-11.627555029016548
2.72,-0.07975573132716818,-1.3126029652953548,2.0650565304631527,-5.954408348557081,-4.178594226751102,-5.878885747030836,-3.328602678925563,-9.799851517928346
2.724,-1.3659259755268067,-2.9371026065568913,2.519584719044815,-5.799188859218475,-5.715849346344839,-7.488818064347015,-2.4218274602044403,-7.8686324372179115
2.728,-2.5932597010528298,-3.6508146113642397,3.0689125084845728,-5.115472474420358,-6.367419580720707,-8.648876803071289,-1.8106924873723074,-6.311715250416455
2.732,-3.2308064455885415,-3.393931285201006,3.354100089867643,-3.9017888750511247,-6.249021007247393,-8.938073494757646,-1.431194323587988,-5.306553267593699
2.736,-3.1638487761374563,-2.479697555133498,3.073525096614958,-2.2868643215917928,-5.450649864587149,-8.268458792231286,-1.168824537204273,-4.704415134948249
2.74,-2.7348970306388765,-1.3932335450081155,2.169643003008332,-0.5381612628914354,-3.982138726197718,-6.937642625100125,-0.93650036950703,-4.178082144375821
2.744,-2.523481960322215,-0.5311461183050596,0.8544085247785915,0.9890078023061051,-1.886894551430487,-5.505095646577502,-0.7298423365987219,-3.4522892933964613
2.748,-2.9882027764825807,-0.01916224546880585,-0.5132549324475804,1.9726253163003094,0.5913211811421206,-4.523519251127709,-0.620384077557901,-2.478274657113161
2.7520000000000002,-4.166269589089666,0.30880014570834646,-1.6055186031524045,2.2796069465550772,2.9520842497552167,-4.253974678534178,-0.6848356785328633,-1.4651804612908563
2.7560000000000002,-5.609015845169097,0.7661716099473779,-2.2777755677018376,2.0609880808128764,4.574955327628913,-4.520892099941193,-0.9244038694102983,-0.752467055375746
2.7600000000000002,-6.584461850359503,1.6083985739967375,-2.5807077086838035,1.7287856775542423,5.011956031620457,-4.783562477350642,-1.2206016731004183,-0.6100962430850814
2.7640000000000002,-6.457454386320251,2.867047060454297,-2.6739792359837793,1.7800569253920457,4.2436012623832085,-4.427039205765595,-1.3780799807241237,-1.0798751396673651
2.7680000000000002,-5.0338276526963455,4.319565482274129,-2.6943704441034697,2.5507226984291265,2.7328951186893846,-3.111981817141441,-1.2256808004460709,-1.9384665117659097
2.7720000000000002,-2.681308319725076,5.603413448350466,-2.653829311539539,4.024212206969196,1.2212766726697737,-0.9950631067968061,-0.7157011695217079,-2.8031749696597217
2.7760000000000002,-0.1828974064317208,6.393599601836968,-2.4503193393188667,5.792735740143371,0.3598625615875335,1.2983295136023116,0.04141750849248638,-3.3052013006713423
2.7800000000000002,1.6280415129203902,6.571650936818287,-1.9365712939063542,7.23455072875322,0.4103537106323074,2.9732811850371945,0.8467886001874376,-3.2324135701633168
2.7840000000000003,2.249705750154135,6.284508341861965,-1.0248594680729184,7.81327866622496,1.1727510929206346,3.4631260153560106,1.5379122526196625,-2.576355855223028
2.7880000000000003,1.7236940926345596,5.871704297221186,0.24645859841848505,7.355953490499587,2.1747750796882883,2.7192695480375733,2.1047828902101173,-1.4798103389189237
2.7920000000000003,0.5853239535990724,5.706909371256643,1.7240818869690884,6.1619288574866005,2.9952287506678203,1.2334054291081884,2.719911876474953,-0.13556431390452417
2.7960000000000003,-0.4273526396456191,6.019747565878788,3.1900276522173954,4.863590013776047,3.501232327347907,-0.22992507733351886,3.6373895528395224,1.305958310364531
2.8000000000000003,-0.7422470231540501,6.791071659465615,4.444794354739088,4.118504859048699,3.8689224779384404,-1.0236243667955023,5.0265227850736665,2.7726258970178606
2.8040000000000003,-0.232138930821975,7.74742706867346,5.349361744427597,4.268494074020737,4.377114074436349,-0.931126544988274,6.823717438441236,4.249470039908829
2.8080000000000003,0.7400514057297869,8.465914624150855,5.835719390779104,5.160244388992396,5.147402031615684,-0.21344917241867734,8.701409791220613,5.742855666293963
2.8120000000000003,1.527115941428974,8.546846989010419,5.903987290043233,6.229715418404794,6.0234732773503765,0.6151687532524193,10.193289387872937,7.2579852350986584
2.816,1.5418564346533685,7.777539036939515,5.599750752911177,6.7938607060689264,6.666408074357605,1.130787401049929,10.905473783626803,8.80250993396794
2.82,0.5814630260011882,6.231023110350179,5.009811282900955,6.416275933657971,6.8028463722976085,1.2612416303568352,10.721433500607645,10.389433700520385
2.824,-1.04712473403265,4.247401430216996,4.23611915310903,5.138085302232184,6.431293696334706,1.2864679163972141,9.864252523368577,12.021587100910892
2.828,-2.665534395551731,2.309209085406792,3.3526811147453373,3.454958501387182,5.833706571296034,1.5926593897884231,8.781184304238423,13.655772470084685
2.832,-3.554110864640279,0.8636310631325159,2.3643468837847195,2.060168731971771,5.3733075678171645,2.3485803860990018,7.91569404596612,15.16084731914816
2.836,-3.324903151325202,0.15508408548248553,1.1754685898497428,1.4843386112231656,5.2144534625742835,3.3151144796429435,7.465365504407828,16.32059597598709
2.84,-2.1300720830445243,0.16431653232564258,-0.3592056474440142,1.8494541065338126,5.1833262185355125,3.9468853925432086,7.284585309590511,16.901231389703298
2.844,-0.6057041985919227,0.660871797910545,-2.336846647875518,2.8442601452027247,4.872974904756234,3.719263222794666,6.97585699618196,16.760029529750454
2.848,0.4373003602776748,1.3479500482196727,-4.682613673210085,3.932829446744222,3.957841663422073,2.4943698033653163,6.135667810882978,15.944662606128304
2.852,0.43162229397307783,2.032527660953633,-7.0640612642816905,4.680414751801891,2.5159721511838598,0.6881965205693632,4.630777442991757,14.713229985642329
2.856,-0.654266800933101,2.7122679812285924,-8.939067147212654,4.994714416253828,1.1243309771257373,-0.8971932941547038,2.7432022354105356,13.450194998905772
2.86,-2.2930281733376887,3.542586146586814,-9.713030326862054,5.160404615259495,0.639722367360946,-1.4862967724131977,1.1065950906906892,12.506842436613852
2.864,-3.6806442343831804,4.689120733598202,-8.981151282307565,5.632484912151767,1.750224951478458,-0.7808964672649381,0.43652787553719463,12.050671733267563
2.868,-4.1712194021282585,6.151122841755523,-6.727658544745282,6.719401374138329,4.554306280449055,0.8358530050975332,1.1912110754701644,12.009811104418986
2.872,-3.6219266952718954,7.671245189756746,-3.3644280610599253,8.346662502257573,8.42670046386479,2.4740103118510888,3.333911942867644,12.139018670397036
2.876,-2.4697768279899037,8.790026097969417,0.4026443265781836,10.034429639915857,12.255060228206958,3.1956059022586487,6.315698859825943,12.185394248092507
2.88,-1.474999401629134,9.051738962298032,3.859397408873974,11.132253135048359,14.94407264034453,2.5319798011767034,9.321363695322134,12.052117406527486
2.884,-1.2907919420504186,8.24773352543582,6.545888215680407,11.163938189708347,15.909028298152748,0.7427929659841084,11.638376710340026,11.86884450739035
2.888,-2.089302164503465,6.576099561580236,8.38319625502254,10.105559393583121,15.308416271577016,-1.3156704872194496,12.973828377313112,11.923651615986955
2.892,-3.4585404100441792,4.61987544509293,9.607172027288243,8.43388983821626,13.901806209788674,-2.6417930608452025,13.561954743864817,12.480027351960416
2.896,-4.640557811543658,3.1223707581781355,10.53515128494928,6.9053459829482335,12.622838510008478,-2.6179877393196875,13.989106187194238,13.594484474969477
2.9,-4.955579054556665,2.6822197536617978,11.342002413502769,6.204326939897555,12.127026019364394,-1.2958457326058124,14.840651422644669,15.03547365293366
2.904,-4.186229500716536,3.494486225153537,11.944414184510379,6.621497856736369,12.531293760728772,0.6865319300802639,16.348909999035413,16.359907867128868
2.908,-2.698877162479107,5.268260220388697,12.070945306808653,7.940867153452132,13.458494415893142,2.5062220924855865,18.224172264259096,17.119466988568092
2.912,-1.2260250529197947,7.3658740224485655,11.474704100046438,9.588676271914096,14.319050530991035,3.63061732361507,19.779907119128893,17.080777738347706
2.916,-0.45707301121706223,9.079388402772224,10.135069599704934,10.932041141878244,14.63230115106353,4.072776927229597,20.27567110410814,16.346374126180535
2.92,-0.6620434790294212,9.921382794520696,8.343442071391223,11.574649957162706,14.222866025828125,4.307380631681099,19.298564903192073,15.29954901414635
2.924,-1.5753221288837267,9.777718288198002,6.572371068218104,11.472414349588007,13.20179213126005,4.890764304289405,16.969244193857207,14.406235341370348
2.928,-2.5930143621031903,8.865622880071669,5.209006405838409,10.83145788783088,11.788836723496729,6.043145626323394,13.865739090333477,13.974734589721038
2.932,-3.147297105948496,7.5499645873986765,4.320306598883349,9.878819707225489,10.119751121351442,7.451491469006214,10.719427014813732,13.995307460238791
2.936,-3.03135807219212,6.127100262983504,3.5855428224900834,8.660576293033046,8.166362500047853,8.41744543463301,8.059068579330415,14.153842542081975
2.94,-2.471146311916982,4.714115103246513,2.4790173086066716,7.017967461544458,5.8134846442522985,8.278845559288584,6.014867092988425,13.999689821502216
2.944,-1.9351069274509882,3.2838756764051595,0.5886001278352069,4.737192528068022,3.018211058325619,6.829542563063569,4.372586948351341,13.184768954308083
2.948,-1.8062779254654515,1.805777088018317,-2.0855721694390468,1.787917598497188,-0.055329310124989206,4.491365574979682,2.836003554319177,11.647627502454952
2.952,-2.1204772584398484,0.3911703048792674,-5.023158617722288,-1.502423593996923,-3.0179220142074428,2.1222313425059838,1.3199781395890113,9.643679602598013
2.956,-2.552550153484617,-0.6732041454894784,-7.364074966772819,-4.4792631808330725,-5.372305634868667,0.5555059470111701,0.06773442307485311,7.618374253153661
2.96,-2.6325022589687705,-1.0219742460165548,-8.262436133856454,-6.381828760057715,-6.686646396785363,0.15738630805583398,-0.4692009595360105,5.999916018805379
2.964,-2.059463564553539,-0.3964458447784409,-7.273279947355945,-6.662877057649894,-6.739352497825962,0.6470119629152578,0.07465894371478043,5.025363050982492
2.968,-0.9133482658547791,1.1899098979280325,-4.563463534363791,-5.231876696542713,-5.561439089245937,1.2936906618724606,1.700397102136435,4.678867747611889
2.972,0.38285525556773337,3.422081719460607,-0.8325000001746048,-2.4868206941242192,-3.367506385267575,1.3737554004474077,3.9755391088191345,4.751432661517356
2.976,1.3094113095216926,5.805160011553596,2.984403683147093,0.8590055595410604,-0.44484901563396306,0.6044096526679823,6.2183314870572985,4.97825943365558
2.98,1.5642584283463634,7.882539133474609,6.093117369269294,4.069198898312095,2.929300288353943,-0.6926462929094441,7.834841102319956,5.159335606482955
2.984,1.2355231725642852,9.416880346977678,8.078303481791863,6.619014125946819,6.481333510085733,-1.8146897287058437,8.593011252156316,5.200577172400699
2.988,0.7329997006431768,10.438500241530164,8.921649216217588,8.277238226127224,9.879281137484327,-2.135885459607607,8.67640229357994,5.075486565392794
2.992,0.5202932999774816,11.141978767125124,8.834583539418531,9.030060381257726,12.685217942746476,-1.5198112967972293,8.49965009313894,4.752330023785817
2.996,0.7983377605398232,11.68125626664613,8.00927022960036,8.916055021085526,14.37638392389465,-0.44307653209955333,8.392463163350158,4.1560495127597505
3.0,1.3552378617810064,12.01482959253218,6.48382228294588,7.929403147190158,14.485122497499844,0.27562229702050445,8.380364910240246,3.200790165367266
