Timestamp,O1,Oz,O2,PO3,PO4,TP7,TP8,Fz
0.0,1.1368683772161603e-13,-8.526512829121202e-14,-2.8990143619012088e-12,-1.1937117960769683e-12,0.0,-3.865352482534945e-12,1.3642420526593924e-12,-1.3358203432289883e-12
0.004,-20.0013061189743,-37.90200065861248,6.55834650711364,-11.032933312177931,-31.589873043035823,-10.113154340962524,1.183370578384654,6.098858995249458
0.008,-33.890936406143965,-66.32478999199077,9.880587018519577,-19.920092483961298,-56.35465975124424,-17.776590457012503,1.1673750496364619,9.577794667157491
0.012,-38.54145024208242,-79.97242550447106,8.357705558907014,-25.522264939798504,-70.46023073140927,-21.644224632149417,-0.6724596711297863,8.994673310996234
0.016,-35.153484253786246,-79.78163139213157,2.7131338751290173,-28.131311664725843,-74.51872864882145,-21.995817250001778,-4.11661914386508,4.6759789691753895
0.02,-28.275142248320435,-71.86740620578792,-4.592987970122408,-29.10746072152648,-72.83176802829345,-20.426716001850252,-8.281434176039966,-1.5683775090566598
0.024,-23.118234055512744,-64.01111557154124,-10.824383982734332,-29.959850603577763,-70.85166549463136,-18.91034629124124,-12.106864832762994,-7.420427286755455
0.028,-22.770632475516322,-61.700968795656934,-14.398361270860448,-31.437489599024133,-72.31570544836023,-18.769322432129627,-14.848624745692803,-11.17352514080207
0.032,-26.840964769943753,-65.8264072864497,-15.463462281805334,-33.15191780515639,-77.59371892949517,-20.1076499206074,-16.301857302450117,-12.39504575029963
0.036000000000000004,-32.18264773237229,-73.07629696194084,-15.357858525011636,-33.922093032490324,-84.01272180358689,-21.97398156901602,-16.667326607983398,-11.84039371039654
0.04,-35.1031772556903,-78.52699985726309,-15.423234254327213,-32.601120527179376,-87.7911642999739,-23.08624055475923,-16.215674565870813,-10.771618763479637
0.044,-33.611265569395755,-78.66879381471549,-16.005171861369263,-28.831016944273358,-86.28045749198299,-22.640948227737283,-15.013893084827316,-10.128885986207365
0.048,-28.419898925617076,-73.17237821583697,-16.291028518302994,-23.2949578458815,-79.28854223331084,-20.746575819918803,-12.912781730119093,-10.052621764237955
0.052000000000000005,-22.267871984412977,-64.62804255270757,-15.032403133704747,-17.366643902939586,-68.92132765089471,-18.28394445182846,-9.774139668773103,-9.97579758276487
0.056,-18.149593781433907,-56.724103103532684,-11.611758164917944,-12.421967951270545,-58.27394343813998,-16.341632511969294,-5.767459304590886,-9.143802803948859
0.06,-17.632423309254023,-52.13318810489713,-6.690303869861964,-9.246837457519632,-49.876269750017826,-15.604047047826498,-1.4906824637904492,-7.19967297258367
0.064,-20.200099852421715,-51.28069181113136,-1.9811766109670543,-7.833501257596339,-44.703138852167854,-16.04454528349828,2.194955294821682,-4.479368303367551
0.068,-23.875151603581457,-52.555083399346074,0.7112543454546767,-7.61224030729278,-42.17056100504939,-17.04623185676627,4.553242764901768,-1.8438447824420336
0.07200000000000001,-26.584483249866253,-53.62918818952582,0.5515991167050629,-7.912716742217867,-40.94054806092214,-17.828473618751218,5.330748333371787,-0.1884210689339909
0.076,-27.34676861711273,-52.96156456518452,-1.855225026857397,-8.342397514348448,-39.92476865075005,-17.903388764372778,4.854145683850334,0.05210830869722827
0.08,-26.60805972293423,-50.58295693447448,-4.893942383633771,-8.889678548806046,-38.890948746142755,-17.295121119955013,3.8005486216604254,-0.8965021745368063
0.084,-25.650306190940398,-47.78335952714448,-6.993683434983893,-9.762460041708351,-38.36101542705174,-16.44518464830452,2.770950382328863,-2.3688618223773403
0.088,-25.588749782521575,-46.0750609961988,-7.613440004901179,-11.132381047350663,-39.03063035267911,-15.901690282832305,1.9420096369709654,-3.720570917192248
0.092,-26.685460963371327,-46.216643363073274,-7.543764426400287,-12.998079704170237,-41.20832157996418,-16.019417882117637,1.0097714043937458,-4.722601887750457
0.096,-28.383767332978664,-47.89888955251118,-8.355769355283286,-15.235105687129249,-44.637616935331295,-16.846517513026356,-0.5465662188070155,-5.657114502545639
0.1,-29.927539023810198,-50.16363293425499,-11.367332416868209,-17.7333590950187,-48.73223642343012,-18.226454916705165,-3.053305891371508,-7.071448016795884
0.10400000000000001,-31.02679975095083,-52.09951675765484,-16.792031745091492,-20.46061182422298,-52.90474482917955,-20.001001934052226,-6.35665758908641,-9.392411367434178
0.108,-32.080987306680015,-53.32425367293254,-23.580754896015776,-23.381341510732227,-56.73719432517541,-22.15669265158209,-9.839562388855626,-12.651575414508827
0.112,-33.83823813143755,-54.02019597426275,-30.01215942301465,-26.31186188608197,-59.933706571967434,-24.81968859015376,-12.724127466023589,-16.47857423079884
0.116,-36.76837045965266,-54.614554265116595,-34.608014484868164,-28.85257510914056,-62.16931484064598,-28.121328257493303,-14.45921301544007,-20.33592958974839
0.12,-40.60195259490075,-55.382636879373635,-36.79454365016977,-30.49852955996562,-63.03278999992121,-32.02946373301438,-14.959251310317455,-23.82060979971942
0.124,-44.35346094731085,-56.20256661084002,-36.95569893948132,-30.8980699838243,-62.10900164596157,-36.25923634445232,-14.582158477605105,-26.84829466863539
0.128,-46.81651729010963,-56.59886154811801,-35.91775081378364,-30.095290087525257,-59.17584033165767,-40.31517892007946,-13.868653766598896,-29.59188844088071
0.132,-47.2243287623196,-56.03656590387142,-34.29788475061119,-28.599579849707425,-54.432683589396206,-43.65860260486471,-13.23536032495332,-32.24135864110595
0.136,-45.67265421744207,-54.270893331186656,-32.182176695444525,-27.215480850888127,-48.60565183590414,-45.928677323396755,-12.812628298087873,-34.75617735065792
0.14,-43.0740168166264,-51.54748087366053,-29.323920780772397,-26.703546427873107,-42.828458591264734,-47.09745298993471,-12.502796200108264,-36.784124991884255
0.14400000000000002,-40.67594126124965,-48.50190250809294,-25.675263724770673,-27.446723772227585,-38.27498584512119,-47.477718339793,-12.197060715833004,-37.83280992827696
0.148,-39.458717499600596,-45.86926803548744,-21.827972882541644,-29.324064329711717,-35.75000996440423,-47.57577152290196,-11.974729570323518,-37.58011217896694
0.152,-39.76305907770467,-44.207616404234386,-18.991160743734838,-31.850427453362926,-35.45671148860757,-47.86003027263337,-12.12761715999551,-36.10944401353211
0.156,-41.31236108527662,-43.78072828718359,-18.457259645357794,-34.483881858987445,-37.03658965106331,-48.561714223028275,-12.988897570841914,-33.905430675356314
0.16,-43.56230245786446,-44.61110022345494,-20.8838406580457,-36.92354784900425,-39.839244927155335,-49.597629496359446,-14.700447303715066,-31.609767325388134
0.164,-46.083340577124716,-46.54561370789531,-25.864348027559117,-39.21288281651701,-43.20367322442161,-50.6466985127347,-17.07481398729749,-29.705998909712946
0.168,-48.73173252251229,-49.29778807256824,-32.08119114603198,-41.60261131715632,-46.64378144378671,-51.3323291855495,-19.652188383843054,-28.319524301729388
0.17200000000000001,-51.548480952419595,-52.494567637626034,-37.964437876200634,-44.279632255649005,-49.9157304679631,-51.42765864137829,-21.917786676424328,-27.243487291286186
0.176,-54.522837162040105,-55.76027465264531,-42.470758626435554,-47.15068172382942,-52.99706294881591,-50.9917124356528,-23.545883605702443,-26.18433218026314
0.18,-57.41072370674135,-58.81629094064132,-45.510956823401216,-49.79727920575115,-56.002763668439115,-50.352562891208436,-24.51243285369361,-25.050818271959628
0.184,-59.72750712358027,-61.48943052707318,-47.80991093403247,-51.61401127075169,-59.01671441972019,-49.943406666028636,-25.03993758683839,-24.11499729716752
0.188,-60.91995854727122,-63.634228225853946,-50.309171392824055,-52.04090943448921,-61.92858070854578,-50.06771757467402,-25.411212537879578,-23.913290676504175
0.192,-60.65170298342571,-65.07001985582966,-53.47446751531703,-50.78188397990459,-64.38540905195524,-50.729890156425995,-25.769720943524135,-24.931831956908383
0.196,-59.03214297695945,-65.59854386446293,-56.93303884464393,-47.923763412702726,-65.9029170429888,-51.6403310467889,-26.053359413696057,-27.274758870871835
0.2,-56.65386801920238,-65.11017487579542,-59.65264260902353,-43.93015976085985,-66.09656258299617,-52.39327716737159,-26.089254085944958,-30.519682947155985
0.20400000000000001,-54.38021753067733,-63.66878993591797,-60.53667950792391,-39.52819198949504,-64.86115421357829,-52.70843069309831,-25.7868978160825,-33.87102625431646
0.20800000000000002,-52.965179407925916,-61.520916622064476,-59.051786319322275,-35.52912677639739,-62.407860146206815,-52.58267489490595,-25.287723037718706,-36.529931101817056
0.212,-52.70395667792104,-59.033620036686386,-55.515673065459794,-32.62575710206056,-59.16161460105991,-52.264494829134264,-24.938210359495997,-38.05177002047324
0.216,-53.2883282890798,-56.58183701249152,-50.89728064437759,-31.207782320965748,-55.57736459956658,-52.066217478823546,-25.08501039952489,-38.489093883843395
0.22,-53.92202437395349,-54.42349637931619,-46.28091951230658,-31.230405865540092,-51.972155701767065,-52.11897277307469,-25.805138072207683,-38.25213580364766
0.224,-53.633772900823374,-52.57931781535501,-42.333013023348144,-32.1854397030001,-48.41920623314854,-52.22067383882961,-26.745681063024676,-37.80286773376622
0.228,-51.662576147496225,-50.84116949413573,-39.08222202272293,-33.22879926291807,-44.81090337293983,-51.88061520270924,-27.198968236609858,-37.37141978919692
0.232,-47.7797840986683,-48.951953477660595,-36.104964003551686,-33.46739214576661,-41.085258034045125,-50.55350829360532,-26.400217786928465,-36.853006692738006
0.23600000000000002,-42.42101212422449,-46.82396111483115,-32.980623593478526,-32.326069649832846,-37.44392587585128,-47.94520633203365,-23.931302799933633,-35.940111176406674
0.24,-36.595606085325244,-44.694726937800056,-29.708808758106898,-29.845057913908022,-34.4463336290932,-44.209371833457226,-20.020047938271773,-34.367800923289224
0.244,-31.620053219582474,-43.13423148070723,-26.834115337688445,-26.75092196134176,-32.919208469176,-39.924104149930145,-15.567356024516243,-32.093716153707476
0.248,-28.745622468260308,-42.824707780489746,-25.21289215011575,-24.220402758655155,-33.66013829705713,-35.85581976663025,-11.853418142201917,-29.308635603181017
0.252,-28.784187118811133,-44.18443522293052,-25.561129441953085,-23.406203514813114,-37.04918052756449,-32.634998355319,-10.059185062131291,-26.319398097318242
0.256,-31.827411133426722,-47.03689472543624,-28.02854170356079,-24.913553103894856,-42.765673491499854,-30.514948859044466,-10.794651499586394,-23.401140370178155
0.26,-37.168209250175096,-50.57021594668805,-32.0235997841894,-28.489964532190925,-49.809952340410746,-29.34696926165418,-13.837682961764585,-20.729775869787147
0.264,-43.46931346705446,-53.645487920278924,-36.38178479407645,-33.09830498872407,-56.841040712166546,-28.770962827129324,-18.210050656333465,-18.436218428733525
0.268,-49.10792395429394,-55.26875017215667,-39.793571711540494,-37.337212182809026,-62.634916578586854,-28.477739840576646,-22.561747235196776,-16.715239249212914
0.272,-52.61125661855158,-54.965075474611695,-41.29508626610243,-40.01193435217817,-66.42602005651446,-28.375672058496775,-25.683477740407625,-15.864769303165758
0.276,-53.07483472110289,-52.89704797431273,-40.604370083320305,-40.59532747968649,-68.01628058302043,-28.579858161215498,-26.936836493536816,-16.188130225786836
0.28,-50.44619431418732,-49.733629270261815,-38.16895918572334,-39.37303675269493,-67.68828068480855,-29.250225630155683,-26.426937092889716,-17.78762014623061
0.28400000000000003,-45.55113340452931,-46.35299288273535,-34.92579286914804,-37.21865238651799,-66.00369245218008,-30.396358541522204,-24.852897197231073,-20.379751439185043
0.28800000000000003,-39.79717097893695,-43.490578121883914,-31.90343117116163,-35.12158113855696,-63.57190756157803,-31.77556948329334,-23.147878729682247,-23.299515549918965
0.292,-34.6384717864089,-41.46377229545192,-29.84197037248589,-33.70787274615793,-60.85009000488708,-32.95094959389462,-22.073854816406538,-25.739136443928032
0.296,-31.044079452047527,-40.10143399034922,-28.96636279414804,-33.005130428860866,-58.043621150782315,-33.491409669441964,-21.943428243803055,-27.11233826800043
0.3,-29.20785762928699,-38.92957332786517,-28.967109975997573,-32.55333068717391,-55.16094502771284,-33.19757839991735,-22.561920083239897,-27.321034868976994
0.304,-28.63106681351087,-37.512785874524184,-29.18777999485178,-31.78323908236223,-52.18118283011154,-32.218411831320736,-23.38315010845338,-26.75065363905776
0.308,-28.52390779136431,-35.72727142304643,-28.93830778491963,-30.441342661508884,-49.20647161102147,-30.983345410259062,-23.791757877281952,-26.009672153148074
0.312,-28.289787389243656,-33.79732580322991,-27.801299372595963,-28.811875339902144,-46.49341718296773,-29.977520065602675,-23.384104673928277,-25.57793237362523
0.316,-27.846108486472758,-32.125794114367636,-25.806247643940196,-27.625087384362132,-44.369229813081915,-29.491535482258996,-22.150003832293578,-25.57838543323544
0.32,-27.632910598291346,-31.086694210671908,-23.405769930350175,-27.7123037157628,-43.13625025743045,-29.489510128443953,-20.498560966095056,-25.80451273271541
0.324,-28.311941393646293,-30.909094010618105,-21.265837358917224,-29.589609651995715,-43.018508497316816,-29.65395160682624,-19.11208703618263,-25.956754681617554
0.328,-30.32233092478623,-31.660163610956943,-19.96881423944376,-33.18405306196314,-44.12974448554962,-29.569822202155592,-18.699060235925117,-25.922223292364947
0.332,-33.53520762024846,-33.26566459439471,-19.755679843201506,-37.82047366323434,-46.41489792292816,-28.94045362283464,-19.7181278402345,-25.90096701242919
0.336,-37.193892663798124,-35.52883738888511,-20.419586175454015,-42.461175352553255,-49.58680538319891,-27.715527281286768,-22.16684199697829,-26.28485326660234
0.34,-40.19965464572783,-38.17857038363513,-21.41616186939359,-46.0959635128969,-53.1604276093592,-26.08559743604701,-25.528036018815556,-27.368229429719236
0.34400000000000003,-41.56793946619587,-40.912998779529175,-22.11867953330011,-48.08155002042827,-56.586509825724875,-24.366031124203346,-28.885810395271392,-29.09606405079535
0.34800000000000003,-40.802042756903575,-43.40834248465853,-22.101429758290692,-48.279216428363554,-59.41227718330725,-22.842456792060602,-31.217609732648043,-31.04919800333721
0.352,-38.014829121241064,-45.30112930867057,-21.323781211557844,-46.96525246925114,-61.38718024006789,-21.664782866585483,-31.773747983349267,-32.69828603502111
0.356,-33.79384579084194,-46.20457110068435,-20.136162900037107,-44.600096983343974,-62.48532189113996,-20.847198049330018,-30.392115718491823,-33.76193606483912
0.36,-28.943158607436544,-45.826255155733406,-19.10247852728503,-41.61203089356741,-62.87658051619246,-20.35216571818046,-27.597069222119217,-34.4063821337495
0.364,-24.267338857134746,-44.15210906617904,-18.740891866265656,-38.317234767421155,-62.86182623550246,-20.196378069155116,-24.42690397148931,-35.13004260827631
0.368,-20.44444261197691,-41.545183619412796,-19.309049431371932,-34.96546016810407,-62.74635308882637,-20.485871418522265,-22.03589891798447,-36.38618640924881
0.372,-17.958039870798075,-38.64774554591986,-20.71311604759967,-31.824190816526766,-62.66007429111448,-21.350457026679123,-21.21577819363347,-38.18652025956487
0.376,-17.036360981668167,-36.12234284585679,-22.57000993362658,-29.20455368793739,-62.41260270839791,-22.820993465863012,-22.061906287670354,-39.95491999651517
0.38,-17.56970308446398,-34.38178938352212,-24.366387116299393,-27.382149220646284,-61.511290820606746,-24.72679076185659,-23.93842753571198,-40.75430147373004
0.384,-19.04725374459281,-33.44030538640811,-25.614433639152367,-26.442768103307117,-59.3645277804402,-26.68257374562654,-25.746668233136006,-39.774241977257134
0.388,-20.61068749538572,-32.940566431280104,-25.95491054162926,-26.170965727839302,-55.57113277402857,-28.19006492728181,-26.392036801984887,-36.81032599085984
0.392,-21.299641232793874,-32.328201379981806,-25.199472627791693,-26.08491279737359,-50.14856714310531,-28.81633244772229,-25.231613807330632,-32.45888940618045
0.396,-20.43829458214782,-31.095800870619314,-23.329379367870615,-25.634403321466607,-43.591407322982946,-28.361298537239236,-22.2968115030003,-27.88986995349285
0.4,-17.992579237720292,-29.027894309224507,-20.492077844039613,-24.489168462008365,-36.76460073199587,-26.927749346174096,-18.210280443428474,-24.302056611131547
0.404,-14.690753734515283,-26.338975407227167,-17.002747132104332,-22.753170530260263,-30.670723509197728,-24.85888257704255,-13.856148631914948,-22.351173484774563
0.40800000000000003,-11.754675755731569,-23.59672520884783,-13.325288948282605,-20.93888103910001,-26.133960046316247,-22.564032504151555,-9.970483422084726,-21.861551301480404
0.41200000000000003,-10.299228110386139,-21.422477002827577,-9.99464818176034,-19.66666546708177,-23.49935883507601,-20.315734782068148,-6.867912550595747,-21.975728233589166
0.41600000000000004,-10.711455688461683,-20.14169652804867,-7.475325808124126,-19.241578652965586,-22.49592286686891,-18.13468615935426,-4.425232077129749,-21.645220886112384
0.42,-12.3782134259734,-19.620017141567928,-6.0058253104980395,-19.365390632840104,-22.38349051285843,-15.829518041051188,-2.2977103735681794,-20.174315682794372
0.424,-13.946016363409854,-19.38512781097461,-5.512444034920236,-19.188050162071818,-22.33608189144161,-13.17790859491538,-0.2390369820950582,-17.540636236486307
0.428,-14.001285994488626,-18.94134456689642,-5.652781613076058,-17.72110862564955,-21.84545905044797,-10.147165038556523,1.6639667375754925,-14.349365602568469
0.432,-11.808869344041796,-18.071364723388456,-5.989792445261628,-14.40942286480049,-20.920210376090722,-7.0195376893350385,2.9699642317650614,-11.498298680228686
0.436,-7.7173579416698885,-16.947326989344674,-6.207383531210553,-9.546905719520623,-19.97351454596378,-4.3428107511072085,3.092128285779836,-9.761910120996617
0.44,-2.986482110950874,-15.986992027011752,-6.23557818765039,-4.2591333483376275,-19.4886637373005,-2.7070668204451067,1.6390595980960825,-9.4822205126045
0.444,0.8630338464677152,-15.546911372333852,-6.216834552739783,-0.014404248117216412,-19.657395372081282,-2.4512056440730703,-1.2859237635548197,-10.480926301968566
0.448,2.8088919893284583,-15.628313851932717,-6.337990068308045,2.0955900372058522,-20.18792814337928,-3.4500220134086703,-4.990483880707416,-12.191075010272243
0.452,2.795497837023049,-15.769794495023234,-6.651667383656786,1.9141503337598351,-20.403766624254672,-5.104026241685688,-8.391328083239841,-13.920379475057075
0.456,1.6557192087684598,-15.226532582115965,-6.991687446866308,0.2894516903538715,-19.590370330749238,-6.560045939655083,-10.442090004773718,-15.105178370092858
0.46,0.5386813275545137,-13.411771659656551,-7.0587891617951755,-1.4148203234085486,-17.445684013184746,-7.069269169811832,-10.59052988334065,-15.448260536716361
0.464,0.19792429575181814,-10.360162171879779,-6.63664986128515,-2.113011681694843,-14.378672613594858,-6.312668440599737,-9.030602080521703,-14.921632069321845
0.468,0.5643815906614691,-6.888299489059023,-5.781634073910027,-1.6384550726262432,-11.414719354371869,-4.521690134126629,-6.606473360507152,-13.66749815127082
0.47200000000000003,0.8716907832481411,-4.268644659871143,-4.8328881192951485,-0.8186941656547333,-9.678685969350227,-2.3150599242121643,-4.381495195641946,-11.858367297077052
0.47600000000000003,0.24257399256384815,-3.544505274400194,-4.204159500833612,-0.9140700957010495,-9.710331363191017,-0.3384265531121855,-3.0655058191571243,-9.575875591080148
0.48,-1.6527956321970123,-4.8927812511362845,-4.065125774685839,-2.7452078120323904,-11.040808544190327,1.0882711658402968,-2.6020230872754837,-6.767710490226932
0.484,-4.29059487624545,-7.4437456419509545,-4.131762110308273,-6.052521243585716,-12.335343722064977,2.1045897234189397,-2.1766161599466614,-3.321577725779889
0.488,-6.522113182245448,-9.685026681410704,-3.7541276682836724,-9.494784108675503,-12.073151779503405,3.1605970792868447,-0.7000988789432085,0.7742754039295505
0.492,-7.166901747146312,-10.22699558697002,-2.2866893926234297,-11.303198232382897,-9.40421234558562,4.688165697534032,2.4752716375935506,5.255674707761159
0.496,-5.654778192976664,-8.541800336332813,0.4451898990105292,-10.251015790198494,-4.713477406230481,6.7734839885140445,7.004035678558239,9.510759680870365
0.5,-2.354874051609386,-5.290533997283092,3.879610220471477,-6.382818836538718,0.4272423402927643,9.032671674552148,11.522218774176963,12.712016743037566
0.504,1.6284855265841998,-1.9995489431015585,6.888433980768923,-1.0281112734901399,3.9675570195156524,10.797124498299809,14.258570481670404,14.157918406806516
0.508,5.059619155652626,-0.23276446365071024,8.332603329190533,3.9166005694978594,4.417580967865661,11.499711521458494,14.006820067863373,13.665273592562016
0.512,7.241771520406019,-0.68854747432556,7.710192331331427,7.03359469390125,1.6861584992524286,11.044448719404272,10.926591819993064,11.785777362856265
0.516,8.345370990956326,-2.758010110573764,5.504029094737689,8.114935676632058,-2.769888265519853,9.919118042992977,6.661127304261299,9.658433352050679
0.52,9.202490844482327,-4.854380578389396,2.98650963059481,8.123851097567808,-6.651332153865383,8.941560711507236,3.5864504033152116,8.489384871128323
0.524,10.68730153080719,-5.364161778005041,1.5260629033834903,8.400725902326712,-8.04486035056459,8.75740474828308,3.5079366477966687,8.883787225773176
0.528,13.052642693003918,-3.6738577014522207,1.7546076681101113,9.596221613447597,-6.509355162111092,9.373359398043476,6.491055611926868,10.370587618662853
0.532,15.617570434184472,-0.6502840134400003,3.090977356573376,11.02050638274602,-3.384660430846111,10.022349647460032,10.513241180685782,11.436358851038676
0.536,17.01078469339268,1.7477419280384083,3.955189343545726,10.870433623596568,-1.0958408117513727,9.48436022629744,12.269899015887631,10.154553360762975
0.54,15.847593665937666,1.5304969568114757,2.6194278554271477,7.2659619298934786,-1.8187528158039186,6.732810227652635,8.84105211609699,5.1753175806943545
0.544,11.503395266138568,-2.1583573470836654,-1.730551630650325,-0.4729746970862152,-6.214328058189722,1.582094703385792,-0.6058179977985674,-3.390100254029221
0.548,4.591442697199227,-8.40266810923788,-8.32515357435841,-11.067979565917653,-12.912918926292036,-5.009572052007343,-14.002021419348011,-13.672823852834199
0.552,-3.1144400890302677,-14.760863641893707,-14.945305493384694,-21.542831440933583,-19.03507872365276,-11.173903484252605,-26.968760628795508,-22.567164182921715
0.556,-9.304852143577591,-18.31048648603462,-18.851825147899717,-28.444621905851477,-21.500867662298447,-14.830905083527568,-34.614221411103244,-26.88679584685076
0.56,-12.06159494226813,-17.02082406658542,-18.067948763042978,-29.424854649735835,-18.493350616148746,-14.5480685007185,-33.69770662431324,-24.656015736058976
0.5640000000000001,-10.656865341916046,-10.75745281331001,-12.34507324901756,-24.34588950759212,-10.334976435896806,-10.157822428534473,-24.090753114990548,-15.942829390784937
0.5680000000000001,-5.856122389768871,-1.396117966981251,-3.327984623296288,-15.32423194614546,0.6595402908076267,-2.839256362118931,-8.816963457447855,-2.857806211044931
0.5720000000000001,0.4108208451182236,8.012439984279354,6.161145112511576,-5.683772289963713,11.268342873118058,5.3723992156844815,7.3256390359308625,11.26434376534013
0.5760000000000001,5.870254126670034,14.603695617535095,13.354576141511075,1.6200785593475757,18.80257539609704,12.39732215369213,19.843639111378934,23.100621239046177
0.58,8.86699810845198,16.894487926653483,16.675716678694698,5.289152847751097,22.147641827227403,16.866125819345598,26.301261174106685,30.443860660782548
0.584,9.013991171953421,15.236248877855928,16.241579480154428,6.038964867422237,21.930667121342935,18.48733812641308,26.95472402399423,32.74089002445635
0.588,7.256326087851221,11.393644095063337,13.539509502744863,5.899471190970189,19.835552075761143,17.91689904631812,24.08075091493106,30.918369862849204
0.592,5.333296863224405,7.5489584204556195,10.511341729121682,6.904642287844354,17.529461412073488,16.25822707515522,20.48502743003928,26.682513378060037
0.596,4.897837506200176,5.283368286958989,8.56141065917734,9.916061989622676,15.82888572068191,14.480698150618082,18.059051409827134,21.699394735041608
0.6,6.701155203837288,5.005570229826844,7.991008131168655,14.192834798631452,14.50693284475517,13.042262777514907,17.1123340342931,17.03847397367872
0.604,10.217720485720974,6.0293317798741555,8.083051084982117,17.875319154803833,12.742729737689842,11.85258414136456,16.681506396437953,13.047206777343888
0.608,13.895055730708464,7.170520154112296,7.6977109229588905,19.052225375399757,9.874097018677162,10.532997098424175,15.472188370711478,9.592989376681999
0.612,15.905493067689804,7.484901290776293,5.995112024950799,16.80229564970898,5.977020370681657,8.784931878786438,12.794246631910141,6.440858570048192
0.616,15.035303170682482,6.754561532180276,2.9053219654865643,11.670112863798408,1.952039137865313,6.644529801305453,8.950788103326886,3.534523380818996
0.62,11.256823773421274,5.475770843483588,-0.8611813175425596,5.361432618261915,-0.9336565266708021,4.487239199674377,4.951569833289568,1.053170462945559
0.624,5.71649976727781,4.426197866309906,-4.1912601540465175,-0.11538582363016303,-1.749130904775086,2.8091353639356385,1.8441940793404683,-0.7198944632137341
0.628,0.17610506972414441,4.134659427940676,-6.104755883665234,-3.368229931766564,-0.41651787722656763,1.9377329008611923,0.13065390694441703,-1.5933985887983226
0.632,-3.793429711248109,4.585022548480822,-6.181009745349911,-4.1363741744572735,2.2477803437570287,1.8491420794673559,-0.38816632710779686,-1.6045590948867812
0.636,-5.4403435842914405,5.310694763778656,-4.671023570108559,-3.1847796826515378,4.976756354048575,2.1986120163253418,-0.3032345276135402,-1.030872814875579
0.64,-4.996405514041953,5.7545317660483875,-2.302510712362732,-1.7275154673211546,6.683650999675649,2.531723383464737,-0.09693387716151847,-0.28215034909214864
0.644,-3.375612275707226,5.618213645894286,0.07130988053688725,-0.7532223975703118,6.9085965506979505,2.5347353962667967,0.18500040491107939,0.2510129961956977
0.648,-1.6188248673040562,4.991117428754194,1.7988697215961338,-0.6130032432720327,5.875359877467645,2.178523924889646,0.8837299081544643,0.31194689234712314
0.652,-0.402159745973222,4.212887467693179,2.596451447069626,-1.0307987036369468,4.206694338289594,1.6832271711878093,2.3648446645999,-0.18573543154468553
0.656,0.13947724156446384,3.596979652667244,2.529345411022746,-1.4367054763011424,2.530863020369054,1.330963191093474,4.632146312122245,-1.1896509442662477
0.66,0.23971993945201575,3.203391266121514,1.879826238018154,-1.3785043606116574,1.209865604429183,1.2497089222241584,7.205298624710167,-2.56139476736422
0.664,0.17368059393606927,2.8246275540089414,0.9948929021746835,-0.7592624455410828,0.3185509603921446,1.3018624720981506,9.344433587961248,-4.114061611306681
0.668,0.02616835263347639,2.1961919363385505,0.17051876183268178,0.19359926242168513,-0.18319558064621333,1.1524566334169322,10.461496622917934,-5.629943000668902
0.672,-0.2847755294110357,1.2947678508718354,-0.3975302343784506,1.1568145768341083,-0.2459409126832952,0.4946839014538682,10.451931101018658,-6.864177602199845
0.676,-0.7821486185678168,0.5085389164788126,-0.6160338575987225,1.9559275600552155,0.3354487614659547,-0.7141466881571432,9.725940323314944,-7.568473595660464
0.68,-1.2348061551076626,0.5019966867568542,-0.4816816331285736,2.648417553896138,1.7683106147958938,-2.156894442492103,8.929836119471133,-7.546446136705356
0.684,-1.182840181604206,1.8247241965180478,-0.05553042427948185,3.417217215711503,4.008788654171042,-3.267361001202289,8.549867234871044,-6.718355355606093
0.6880000000000001,-0.20895904689757572,4.499911609348317,0.5559471081000993,4.36950444814363,6.602851911169239,-3.5081788293935006,8.644226974134881,-5.177654473345854
0.6920000000000001,1.704850071042415,7.859574402306919,1.2107278452116361,5.3876480180366,8.776613388306771,-2.6695587258800515,8.860684129422111,-3.2080998722540244
0.6960000000000001,4.012693550295921,10.776828664051038,1.7428862277859025,6.1529579969966335,9.775822416061544,-1.0144074935720937,8.686432837819893,-1.2332748327404488
0.7000000000000001,5.782178589080104,12.169140728101866,1.975233286928301,6.323975044034739,9.246522962293795,0.8213119822554518,7.746291127094423,0.29992026726085896
0.704,6.162646781446938,11.491871509409009,1.7424666594638438,5.752975228497405,7.427620937195286,2.1297732583602738,5.967792269503434,1.07146557322136
0.708,4.876601172699452,8.949370075724971,0.9000257381029542,4.587913140529793,5.021576573845323,2.4768083850548237,3.5199613252506197,1.0049695367432037
0.712,2.4350734100295313,5.318871754136126,-0.6750720407643485,3.1971603281567127,2.8190911586515313,1.9091643708194397,0.6099117473110027,0.2980576105454702
0.716,-0.09278180016713122,1.4963955839053824,-3.072738029874131,1.9608150766518406,1.3043093476027252,0.9066698611522952,-2.687658184138627,-0.6650385697379306
0.72,-1.6600800893940004,-1.9756465794677638,-6.31199078281054,1.0517509182356548,0.4442226791888402,0.09544040238461093,-6.424592436715557,-1.4960082520116202
0.724,-1.843378840608807,-5.129101157858315,-10.274588294085788,0.34218917601737076,-0.2230617085904214,-0.12379046427042795,-10.604483752993588,-1.9918087651150813
0.728,-1.0904982301308337,-8.407784974632364,-14.642393259756432,-0.5059939225733388,-1.2644120033937156,0.17423404767248485,-14.974594288826097,-2.2418813981124117
0.732,-0.4399664733887221,-12.219055264433223,-18.872334906904257,-1.8098740061468561,-2.9800241476891642,0.45808363979904243,-18.963222175861006,-2.5932986851661326
0.736,-0.8524289333779507,-16.46289621632883,-22.245692769393372,-3.61563994401871,-5.183652770448816,0.025608555070903094,-21.83860868197985,-3.477263207419128
0.74,-2.561876871895606,-20.356268484000395,-24.01329261803204,-5.577641946003212,-7.271304817496912,-1.6011165246202381,-23.017767444137917,-5.17376806974363
0.744,-4.847865036716485,-22.69722318220977,-23.595443132442483,-7.038847556043834,-8.52282904811858,-4.388255240417607,-22.35673949169177,-7.628248899749792
0.748,-6.391704674769244,-22.444496608717998,-20.7914673509232,-7.286557852639817,-8.45938069553506,-7.768120864928164,-20.246993182088204,-10.416026797001848
0.752,-6.022809375496536,-19.288210264480767,-15.919561206481944,-5.860356032847676,-7.054528342860863,-10.888555752760794,-17.454884947852634,-12.876246471864476
0.756,-3.4393177014707135,-13.903060154552122,-9.816093461611672,-2.785199107965525,-4.703529743379704,-13.006372760857175,-14.792105311612659,-14.365318601919398
0.76,0.5200671114819215,-7.750955059893897,-3.665496591654346,1.3698504377240397,-2.0152451951345256,-13.81745758663385,-12.802327952202859,-14.508523542975666
0.764,4.223939105273644,-2.5236900521041434,1.3133782612417235,5.641757148094143,0.43949652993529753,-13.555865277370344,-11.615430486651576,-13.325798718443423
0.768,6.0193303055333445,0.4920058949015811,4.201376351267925,8.95812162038851,2.2817042648054553,-12.83022399244146,-11.019817308390202,-11.191013555869944
0.772,5.025353832443443,0.837435516938001,4.603954023624851,10.459114749056425,3.325619717762322,-12.297763543694032,-10.696945650313864,-8.666640098290287
0.776,1.5425371925210811,-1.053999326498797,2.70668349664453,9.765685741756101,3.5186556476093642,-12.34517032163069,-10.436496414437443,-6.292893995570125
0.78,-3.119982310702426,-4.156915429416557,-0.8504895102024648,7.110037677042044,2.889258576348709,-12.93440679098319,-10.214795924497707,-4.432671175189967
0.784,-7.2912151487502115,-7.3488072372865645,-5.218340859984437,3.2726696268318847,1.5440178776484572,-13.67805038096094,-10.125991963913293,-3.2256183506117395
0.788,-9.707291041394683,-9.84877785067755,-9.603678044101912,-0.6731982611564149,-0.30739148718890874,-14.076175265687425,-10.2293310407278,-2.6370825721102733
0.792,-9.9996137677374,-11.399547204725991,-13.452574525961836,-3.72427093309841,-2.3588426911996976,-13.775881796146223,-10.426421756991658,-2.553898363980295
0.796,-8.703200488110951,-12.165597150878142,-16.508404687939787,-5.294939382644941,-4.2787918190540495,-12.727436835131357,-10.465810333939714,-2.862395631638776
0.8,-6.8593214297376335,-12.478153528149647,-18.74909957221172,-5.408550922957147,-5.840450489969726,-11.181697986709878,-10.06085319381026,-3.4723315979537404
0.804,-5.474654782755238,-12.603337742164058,-20.26365208354713,-4.635029217416047,-7.0388714914369075,-9.565407674479047,-9.045822010599409,-4.301078827386817
0.808,-5.102428903301643,-12.641020666149728,-21.144222412963416,-3.7834090735290715,-8.093505270560797,-8.310941244285686,-7.4874941087198295,-5.24683444245963
0.812,-5.702090955797644,-12.557952816473232,-21.436116776274844,-3.4812952273260294,-9.297487793707774,-7.713120170854495,-5.6960977767773215,-6.1903830898165495
0.8160000000000001,-6.779373194293839,-12.28354144752393,-21.152345566752842,-3.848912644486859,-10.774749721500427,-7.854986016230441,-4.1342625782909295,-7.031402214574172
0.8200000000000001,-7.683668693716072,-11.793824082856077,-20.32574606938431,-4.447592868642346,-12.301501717043351,-8.610034024379956,-3.2632804756592577,-7.726763673586703
0.8240000000000001,-7.891420416038272,-11.120423948157764,-19.04461618331618,-4.5357498934278055,-13.321418284156465,-9.693883027417314,-3.3797100956921895,-8.28763712020276
0.8280000000000001,-7.165010270615539,-10.288368429988225,-17.44459987378525,-3.5079675779215336,-13.179969150438154,-10.738968819354568,-4.484425343233966,-8.73118162485801
0.8320000000000001,-5.570344710438917,-9.247485261684488,-15.680541501953144,-1.2877174076185156,-11.470382796375475,-11.376315285155215,-6.235710163971078,-9.0112970098333
0.836,-3.4053833609990534,-7.862920932899897,-13.905029083971613,1.551682540586114,-8.294928487806402,-11.324221384744817,-8.010757841907036,-8.98124155616776
0.84,-1.099184479871269,-6.008213202067736,-12.25648723764715,4.020450925213282,-4.300839242893375,-10.468817756453689,-9.071718480953791,-8.422367547322295
0.844,0.8904778870669361,-3.721111826591283,-10.850545810449091,5.1839210525440365,-0.4580529602947365,-8.9060650632386,-8.799862392783325,-7.139192490802742
0.848,2.1580408959142687,-1.331327167183531,-9.77547103059834,4.604572383148167,2.3055989190874016,-6.93033812672013,-6.941216026982374,-5.081424137652306
0.852,2.4154365583484605,0.5506159923278346,-9.080494237322398,2.5154307454684215,3.4316210150096538,-4.957555237329473,-3.7533897291552307,-2.420011873546173
0.856,1.5655608929550908,1.246597485608703,-8.747587381342385,-0.33980531864554564,2.901187254839357,-3.387712207677737,0.04014185724474828,0.4831732000953082
0.86,-0.24724115055119,0.33904814495573987,-8.658758344603257,-3.0956271141947127,1.1814727124637159,-2.4582884964222558,3.504534615063733,3.2098669240026823
0.864,-2.6514576320366245,-2.0563251811565806,-8.578909993328239,-5.143955728479796,-0.9936566725781404,-2.1521520805185332,5.868992220288362,5.465001471149947
0.868,-5.125062275823041,-5.225430241494422,-8.188956322644401,-6.293431182704381,-2.8892871819963943,-2.201527298349049,6.8481463259491875,7.20520165993463
0.872,-7.113317046963971,-8.068968576065117,-7.184973295379223,-6.664754938114157,-3.9705621012428196,-2.193680439270395,6.741728243589932,8.63526699847543
0.876,-8.167914399306767,-9.535073943468177,-5.420185649223697,-6.447143420412061,-3.9854036228852863,-1.7479651872557724,6.236791742021694,10.056072830259836
0.88,-8.078615060033144,-9.099185493330538,-3.0299496986651206,-5.7243373032728755,-2.974238781380876,-0.6992711513134395,6.012365261178843,11.63403131772813
0.884,-6.96617182405646,-7.0632787329837186,-0.4610334548024184,-4.506139568040481,-1.2459142934393697,0.7804712877073143,6.351741300920025,13.218471058427014
0.888,-5.274928243395095,-4.480774813292896,1.651698711138863,-2.90894778044796,0.6898606305859687,2.1873759111384175,6.989014368644405,14.334999859336989
0.892,-3.633145225892463,-2.7007064184420813,2.7398165897945432,-1.30731474161459,2.2540751924050824,2.843158951825899,7.293560748266827,14.391975141879016
0.896,-2.582564424539612,-2.697765399162506,2.5995263761975025,-0.26482664545497414,3.0118806378404486,2.175346321561051,6.7007958218393355,13.019350939846902
0.9,-2.291238080683229,-4.523335488646694,1.5815421501378637,-0.23540807954890397,2.885299142034256,0.007426714610971885,5.1337801415746185,10.360651241818005
0.904,-2.3896366464955463,-7.172963524260581,0.5615161557228703,-1.1973237561233816,2.263388297203761,-3.271147570856897,3.164588234950884,7.163662972080431
0.908,-2.0563408146410893,-8.97830189189952,0.631526991663236,-2.4976780539667516,1.8985582602107058,-6.76250992342591,1.796958524288641,4.568011217325875
0.912,-0.40225024546464283,-8.382643327235257,2.5938097875083486,-3.104366281276441,2.568958557928511,-9.366133448704659,1.951673443185939,3.6538527155624365
0.916,2.988924164176069,-4.730255802608383,6.476338150036156,-2.185658890265472,4.651076329625198,-10.223642773142842,3.9259355134902307,4.95743296855909
0.92,7.661501097373389,1.336125607074564,11.342379771472565,0.3148130599635124,7.825456660510895,-9.090117819277339,7.155978110250544,8.208135026960576
0.924,12.272933459213164,8.07908011234548,15.547813351151945,3.481133602039563,11.104553584474502,-6.4554601305860615,10.437602166178067,12.433632032495268
0.928,15.050050825995868,13.391893759561526,17.38433245609849,5.788292301674687,13.222696686616075,-3.342417127228714,12.491813768632028,16.39267442989427
0.932,14.56851566848718,15.707372442322253,15.843512243532473,5.874795773616711,13.228300219417406,-0.8503136616428719,12.583131361302094,19.13170238829889
0.936,10.535752303369463,14.68594622037699,11.151460093532933,3.335210236827777,11.000933823202104,0.3531214891181662,10.870438248259006,20.389713720308237
0.9400000000000001,4.1201175055200565,11.318824282151752,4.767020840088776,-0.9647512973236871,7.378807242490325,0.31629401079339914,8.30252971448624,20.62880801531196
0.9440000000000001,-2.4431913113389783,7.379584452435267,-1.2015955257573978,-5.291712534295698,3.7864450885390397,-0.2961640282728695,6.10677987614099,20.66948033007128
0.9480000000000001,-6.79946502365101,4.543694819323491,-4.886610955221954,-7.94353488741649,1.5498620934287146,-0.6185296010585262,5.155359552349182,21.131774217650047
0.9520000000000001,-7.537319523036331,3.6326670231561593,-5.43817967208679,-8.141501106991086,1.2586349723286503,-0.09311641292470085,5.553510795039301,21.99675703837505
0.9560000000000001,-4.806222957734917,4.371920031251079,-3.29811528390087,-6.381303909703831,2.5397464098900286,1.219352709176519,6.6579317407004055,22.536714223087813
0.96,-0.18909587747589285,5.719520507626612,0.14201750528764023,-4.060563431252149,4.347691476417822,2.7002573875237204,7.490605128856146,21.673171935818914
0.964,4.1226134697039925,6.542264437872632,3.3161458354176148,-2.603036627087704,5.607841559751137,3.5595236250937887,7.306120307829133,18.57873623165915
0.968,6.417618776895779,6.244201564550053,5.270133469477287,-2.6129875114222614,5.847132229265867,3.3215334105461807,5.986389148325088,13.199170648897962
0.972,6.2445636534394,5.0151769829183195,6.0365943923525265,-3.580442580640124,5.446084740196966,2.1261264891172686,4.0558560879219385,6.412160594871409
0.976,4.503013607087269,3.6221985618115013,6.435218564878369,-4.296686052654195,5.3924637712276535,0.6647318741065646,2.332145340724537,-0.27370715031804593
0.98,2.8192471274608124,2.899954511793453,7.443913792088324,-3.711988205209991,6.672718098959763,-0.20808238437643922,1.427179339742679,-5.331637534350989
0.984,2.593910704525797,3.2728894087396156,9.538946568382016,-1.673916870387984,9.659284698939246,0.04646795183816721,1.4047423046420136,-7.825138874557922
0.988,4.261814278457678,4.577045623504318,12.379271178078511,0.9238077576717387,13.837858901691789,1.3632823434213606,1.7692015096513387,-7.721755483748325
0.992,7.141840413518366,6.235577843918236,14.992511152522866,2.6699299478912053,18.011979358206986,3.132681425064675,1.7797807201204705,-5.789265126980922
0.996,9.894092306922175,7.632109901092008,16.31394191431764,2.503385127004094,20.86015611233745,4.558209397241626,0.8979854398253337,-3.1679160650052154
1.0,11.262262348374634,8.415150993863563,15.737295958977029,0.36468176804226005,21.517156467435143,5.094947223700501,-0.8982378497207719,-0.8504480386829982
1.004,10.647414477369011,8.53862775020525,13.367053134246135,-2.783606573890893,19.867326893813242,4.705892331476662,-3.115457119091843,0.6633442510214991
1.008,8.240766598351456,8.072171272449395,9.866632949059294,-5.559928962080562,16.440638510224744,3.812068896006622,-5.048866453048504,1.414153717076033
1.012,4.727619703888195,6.972653109284465,6.046863962446878,-6.999657270767557,12.040702662130343,3.005830630174387,-6.180473882954402,1.791591758902996
1.016,0.8225923672139288,5.0397757914332715,2.484216141845309,-7.089961549193504,7.377189866406638,2.723757865983771,-6.425816118084185,2.2597280785118983
1.02,-3.045372597912774,2.1077928897934726,-0.6126139876691923,-6.685881989234986,2.899545032353103,3.0711404634203063,-6.100451818515012,3.151526802157832
1.024,-6.72038133405681,-1.6614682128113145,-3.266419851181354,-6.882552774294481,-1.139612820372804,3.8701211735960896,-5.646950656842364,4.583760984276523
1.028,-10.075674086529489,-5.622257965966583,-5.480866741748514,-8.269817408921426,-4.515965323331102,4.857234976722566,-5.306695154621593,6.468784009171259
1.032,-12.793524781164706,-8.800761418590014,-7.101314103980712,-10.562958605702192,-6.954511409592783,5.863059868639311,-4.961406124119776,8.543783209392814
1.036,-14.374332353871523,-10.317946986290167,-7.907256448831049,-12.830627890550204,-8.224425175731994,6.850737002145024,-4.268638687013436,10.377368072541685
1.04,-14.405807515301603,-9.864783648631601,-7.85921525467279,-14.153845265884001,-8.354315512878657,7.815933040066284,-3.001051150663443,11.387531627308931
1.044,-12.904894170232183,-7.926995694596599,-7.27739478746139,-14.258906003632546,-7.777984038513978,8.655165229160048,-1.3591334894808824,10.946579551623927
1.048,-10.462991947684714,-5.58864162177133,-6.770936241577374,-13.697458894595457,-7.250440240278294,9.130179562374451,-0.020387468982562496,8.595729572086611
1.052,-8.062917052581724,-4.007269975701092,-6.908141467406949,-13.466411769039496,-7.530047368183887,8.973529146438068,0.1574756561758477,4.302031688358397
1.056,-6.630175591947136,-3.8344853164824144,-7.8300198637771246,-14.320099439566093,-8.978921667698614,8.064935798940041,-1.3708778115269524,-1.3993876036811344
1.06,-6.563751398747172,-4.910453544035704,-9.080919834807219,-16.22642944626955,-11.32517293302817,6.547994480569287,-4.426641805045847,-7.495214823616152
1.064,-7.529937520461317,-6.410801132306233,-9.799246940619469,-18.314187767745352,-13.748827822325211,4.7877659255664184,-8.043502708434062,-12.818081717387486
1.068,-8.644855307050875,-7.34799657571466,-9.192038098590501,-19.348135277729398,-15.259814723156524,3.1874067479188852,-10.834313696082972,-16.457790027712917
1.072,-8.945466906675392,-7.131572870961236,-7.026074624377998,-18.441388548720624,-15.167171552996933,1.9885127197089787,-11.619214775527325,-18.0450629208583
1.076,-7.869306453227182,-5.851100791073577,-3.823598359374273,-15.557622880409326,-13.361010269155031,1.1880795554852739,-9.978678725165082,-17.76462306354722
1.08,-5.480429541023113,-4.141636260761288,-0.6321983859418197,-11.509120496390096,-10.282424552741986,0.6277566683511395,-6.438668030537883,-16.1102439140642
1.084,-2.360813734623207,-2.774551780313459,1.5009202522280702,-7.495252383075467,-6.648587169054508,0.17796078991113973,-2.1964185557835663,-13.559484385280939
1.088,0.7130455813608023,-2.26332682759039,2.0264895761520165,-4.499048280162697,-3.145435156256781,-0.13015899102492767,1.4520285107196287,-10.38415918882265
1.092,3.0994452478316816,-2.72275692353287,1.066138862565822,-2.906628380927941,-0.29330215970276186,-0.12915666885237442,3.673218207186892,-6.714676540085975
1.096,4.467522479364106,-4.003591805412498,-0.8093434909783355,-2.5254742383401663,1.4990004523501739,0.31700374932688646,4.362042051933258,-2.7788265840586064
1.1,4.790258371468553,-5.931789897625322,-3.013396812578776,-2.905141818324182,1.8210251634736778,1.1397989688812231,4.01822776233621,0.9015268869065949
1.104,4.243289095309592,-8.425115231528025,-5.26236905736323,-3.6798961099154894,0.2788980364955478,2.0402352725905075,3.3832856432877634,3.566815459686495
1.108,3.1132892071359493,-11.391234697159916,-7.574613333106299,-4.704923224059712,-3.286439897725586,2.6569784706266546,3.0531736371203806,4.552517656498367
1.112,1.771746015482222,-14.500988150006833,-9.98135896076974,-5.937284353133009,-8.501539618454217,2.8311216453366796,3.2713269915270757,3.6998562498251886
1.116,0.6412461593363332,-17.067389478683026,-12.20656144592158,-7.238495005652339,-14.312252700889076,2.752278296629356,3.9483488350274456,1.53370989221753
1.12,0.061749227831114695,-18.24255548387373,-13.629286311549095,-8.334996657595184,-19.215357285100254,2.839761293236279,4.772941420405459,-0.9893460732114363
1.124,0.056703028189531324,-17.519706641474386,-13.640613740020854,-9.030721784389698,-21.87240719627266,3.3866864846659155,5.281122743051128,-3.071777621772526
1.1280000000000001,0.11610033861688862,-15.26363778325549,-12.200821124275535,-9.539690725306855,-21.826992795783553,4.182136558496495,4.840155706842324,-4.664730702546876
1.1320000000000001,-0.7946036869352611,-12.879483402471578,-10.191560239373757,-10.64462346837422,-19.89990628468354,4.394504080953084,2.657276531908792,-6.647191856185373
1.1360000000000001,-3.8552412994199585,-12.35033724744153,-9.218274102682699,-13.44065032763433,-17.922419319245364,2.8817517546403906,-2.0168147524864253,-10.38443583867911
1.1400000000000001,-9.726292110323811,-15.249725837133838,-10.840340677599215,-18.6909663913234,-17.839871798512377,-1.162512791687277,-9.460814127926824,-16.830128415930176
1.1440000000000001,-17.934202552271017,-21.728987032404575,-15.609304609024548,-26.13016818433198,-20.62353411823392,-7.581049270302174,-18.99838462158641,-25.664107194753342
1.1480000000000001,-26.68698141259665,-30.075284585620466,-22.485514836532275,-34.163063540488565,-25.588420506230705,-15.029661257448424,-28.77256731841726,-35.003967084494434
1.1520000000000001,-33.330973459053894,-37.19372343946293,-29.050043712323713,-40.244904141980214,-30.553152508823587,-21.35785533041826,-36.06838483926731,-41.96158705952507
1.156,-35.34143807421606,-39.879069867846056,-32.51851947711884,-41.86347519561332,-32.82492083927946,-24.46881903835174,-38.198339660277725,-43.836751855199964
1.16,-31.418463984871778,-36.29507965820517,-31.067428324659886,-37.675499358119396,-30.529883680498642,-23.241725265987043,-33.62683716455422,-39.35482736589347
1.164,-22.14240103901011,-26.906723621606034,-24.771605965333038,-28.220330962431035,-23.601169430363598,-18.04495678582589,-22.796583731027113,-29.310338561931758
1.168,-9.840555562112968,-14.372549261580843,-15.642351163879539,-15.828076809857976,-13.901375891269709,-10.564417858881825,-8.199823469896728,-16.26365240657242
1.172,2.294985201619056,-2.428861858466462,-6.715621204734816,-3.7395668923682024,-4.414597498366902,-3.033830408250651,6.449801045587719,-3.4391738514757435
1.176,11.436919363762172,5.71185695646318,-0.6668133943762768,5.1492432481104515,2.0936569972805046,2.7325749220735815,17.61642799663332,6.5922815302458275
1.18,16.13666503415243,8.670215129242251,1.329170496781444,9.324713798754146,4.257827111539882,6.0182071955832726,23.262281420975796,12.78301718403145
1.184,16.65490731562477,7.281862873933278,-0.07444609361982657,9.018385478407254,2.548479070137091,7.2780297092067485,23.471938391890035,15.642033436980682
1.188,14.512407037293997,3.9085533791912894,-2.9853869991393367,5.798971071032611,-1.1929658695721628,7.636978167377492,20.118735336553073,16.532828843259722
1.192,11.580196610200801,1.1142989732911701,-5.365852817958057,1.693934703643663,-4.787491296445751,8.14872097848638,15.815522732996214,16.73318823118916
1.196,9.208535305902842,0.4312749818818702,-6.004437868947662,-1.6864521616985257,-6.73165984987827,9.229022196171172,12.701532855243386,16.79578152477302
1.2,7.78168598828961,1.8081240439141766,-4.893014925515217,-3.6429768868101746,-6.694073442794888,10.53793240523919,11.666775334902923,16.521637866643232
1.204,6.8281643960153815,3.9349514004875346,-2.9113681237754463,-4.363260537975293,-5.339583671125183,11.311430452146851,12.318800524823928,15.456992701267154
1.208,5.53785945407526,5.173304850833119,-1.1175256916558283,-4.5173805244935465,-3.706377610871641,10.900494098858871,13.565195259115171,13.50039155399918
1.212,3.325049428474813,4.51933917101951,-0.12948469514822136,-4.7827017526456075,-2.5700849110803574,9.180754463775884,14.389597010256693,11.178536434318403
1.216,0.1628685525220135,2.1221610384582164,0.07819355851370346,-5.524036464624714,-2.125309198289415,6.631986953007072,14.374431625675243,9.41519821948782
1.22,-3.4005379857053413,-0.8393831703060641,-0.04295463146672773,-6.7045935559008285,-2.071536205144639,4.09688911880221,13.747142105573403,8.961755589343511
1.224,-6.487552570551088,-2.788515355518939,-0.0023393032752210274,-7.977967535766766,-1.94460142783646,2.3844209451835923,13.04478178446152,9.882552238826065
1.228,-8.228828533639899,-2.51146647863834,0.4620639023005424,-8.847633311874233,-1.4409500311580814,1.9409359426199444,12.681225537705359,11.454547972227829
1.232,-8.056922203637441,0.3236332667706847,1.3707638409150604,-8.8265392378039,-0.5677819633933723,2.735293082906537,12.701468207776998,12.55095209423871
1.236,-5.870881977901263,5.100378782463849,2.6629833444776523,-7.574655648639691,0.4140706399912233,4.354969867046748,12.851163935119985,12.273824455509384
1.24,-2.0683778815409823,10.592150357514583,4.311950266843269,-5.029901055825121,1.1374426288575705,6.218089698611948,12.840502774284687,10.45120402667817
1.244,2.5179076406739114,15.462724433138192,6.245549682592355,-1.5256140498340756,1.2183052738000697,7.775596091627449,12.570569132401943,7.706822268724409
1.248,6.796938966564994,18.70047010411463,8.140840778121856,2.191574931228388,0.2614853403078996,8.636814068736385,12.173340245253712,5.078803103925566
1.252,9.719528711361818,19.85481316755113,9.31385625130497,5.128062208111714,-2.131196286010436,8.618583455343469,11.860173119000137,3.4330493991183175
1.256,10.628727722562871,19.05926550751792,8.90385119711209,6.383829281442104,-6.231401672227548,7.7480085507522745,11.71650982803203,3.0225165008223485
1.26,9.5350523994166,16.90518619313616,6.3429268999116175,5.5552301820303,-11.923352717116813,6.244641894213601,11.615574675797689,3.4415400001253147
1.264,7.15915367454636,14.226894429300955,1.8494236232709227,3.0008929967775657,-18.462947129439726,4.468419771069421,11.307480322385345,3.9607164019698757
1.268,4.6802901675409885,11.85114075317233,-3.391769790003309,-0.19427285360779933,-24.46276333177866,2.8334698578519237,10.626068812996891,4.0215164044388985
1.272,3.2586377692414317,10.354743052469985,-7.585053749156941,-2.597686166530366,-28.23284184450722,1.6989896919876628,9.662332060715926,3.5823924486689975
1.276,3.552581168375582,9.915299395825969,-9.120135263525299,-2.9923618945135786,-28.371597931861743,1.267070252954909,8.775496809837932,3.121384281765586
1.28,5.47461393499816,10.309796295834985,-7.416114962538813,-0.8642081294274249,-24.354974456513446,1.5467454091285617,8.410639629129037,3.3257107700101187
1.284,8.298131805269804,11.056050336878343,-3.3353590092929153,3.4079247091940488,-16.83323055563187,2.3962257446291915,8.836549250166172,4.668033535997893
1.288,11.055456914726165,11.652282122349789,1.1232319008240665,8.748039862327005,-7.452553379110213,3.6136325867501,9.963392080337144,7.126807626646041
1.292,12.990714847878735,11.789710448711048,3.7389608872672397,13.843109750813255,1.7215350473597937,5.006296324208961,11.355497949951314,10.178254364101576
1.296,13.819817161270294,11.445003307142542,3.12958201523179,17.63467650806524,8.921142238348693,6.396494060594705,12.41995806081286,13.019783620389262
1.3,13.688078822575335,10.811197423177418,-0.5946461366747826,19.6273822668677,13.209530095597984,7.578612649726892,12.674969454459642,14.88593756102864
1.304,12.900768435954888,10.10655697256152,-5.917388635604766,19.9141763183502,14.61286220951024,8.289297969412473,11.956429942462819,15.289806140553992
1.308,11.632836284452424,9.37891537547057,-10.692041582931779,18.960143191172392,13.841632295402633,8.255107428750307,10.447519096092947,14.101570923883628
1.312,9.819054688045071,8.432535912485037,-13.194647938948947,17.29396156614166,11.79530247109551,7.3188086619557,8.528108956165852,11.484200906302249
1.316,7.297059352713404,6.947006130754744,-12.909913329743176,15.28789449762644,9.140207981417461,5.588388583182677,6.529703347506256,7.773759369054915
1.32,4.104485377123638,4.745065603384319,-10.651574579763292,13.127793171385747,6.1768973673515575,3.50942842515542,4.560259091610533,3.426652756087151
1.324,0.6719844025901693,2.0138830180717378,-8.02782489404035,10.908606593429795,2.962142827592288,1.7537758480139019,2.480988597333635,-0.9887572803677358
1.328,-2.2502941025941254,-0.6764180214067892,-6.584590250689871,8.748750181524883,-0.47547061640443644,0.9457879426763611,0.03311717067299469,-4.810283043104846
1.332,-3.9099720930516924,-2.5905921392195523,-7.072151472189034,6.840857790250084,-3.9852990459635294,1.356233749018429,-2.9477093852183316,-7.369185171824483
1.336,-3.9234933697043743,-3.168560963364598,-9.1765925990494,5.407200273190938,-7.288666353379995,2.730387017436442,-6.362189233569552,-8.170241474956129
1.34,-2.466026989481179,-2.304008224034078,-11.788651360462609,4.600441152909298,-10.087997618881673,4.37848958505856,-9.818869854449076,-7.098028570138013
1.344,-0.17515874180935498,-0.4266176022606487,-13.62010281516541,4.409702613927948,-12.204792008264121,5.495617088421568,-12.78435974624972,-4.554349968417682
1.348,2.1816374119844113,1.6618610363325388,-13.82300343336101,4.639520383051604,-13.64211746299361,5.554602269239695,-14.824760814241017,-1.4168527836077374
1.352,4.0771814689614985,3.122679995272847,-12.306585408346109,4.991941724445496,-14.52818995195912,4.568111481863525,-15.798362724764047,1.2172404025400283
1.356,5.414111773987315,3.436893648885416,-9.645706027654342,5.209585404871177,-14.97629047071905,3.0673493469075765,-15.901860579224376,2.4135818346558153
1.36,6.436035236481985,2.617292793715933,-6.688201551231032,5.199718247421515,-14.961979664508362,1.806918617543488,-15.5376391848622,1.7441811082185268
1.364,7.457545633666086,1.1838073161557077,-4.091007560633443,5.081755922024968,-14.30169420594757,1.3594793827542162,-15.060184625759575,-0.5628332989704177
1.368,8.593798031826736,-0.08809886953531532,-2.0291916926171325,5.113893061065028,-12.76296946819457,1.82087792792845,-14.554562933099078,-3.7493293060824726
1.372,9.65566966258666,-0.5303984097017747,-0.20046974002070783,5.529670582487597,-10.247507384345226,2.776387870131657,-13.787771826977405,-6.882628080998529
1.3760000000000001,10.266073797327408,0.11679832383561006,1.9195482229588379,6.359063426254579,-6.927902255661138,3.5353760164653067,-12.381820743021308,-9.284217227253976
1.3800000000000001,10.097501135944185,1.5912048708451039,4.712993484557046,7.328150665103749,-3.2628662961378723,3.505186385342313,-10.11549224411283,-10.82104521055453
1.3840000000000001,9.07300209112691,3.226690089623844,8.151636853435775,7.913279468181827,0.12270157919010671,2.4820728557078837,-7.1621804878996045,-11.917056124746068
1.3880000000000001,7.403007640601572,4.248475948354098,11.759662810540249,7.542870820969256,2.637058778410392,0.7149848889894201,-4.115495145908426,-13.270507098078724
1.3920000000000001,5.451810384120108,4.108759406661193,14.815440561321338,5.861122041817907,3.9014452910887485,-1.2610733799829177,-1.771564217409832,-15.416275533664248
1.3960000000000001,3.563862053782941,2.7429948020089796,16.684027026143667,2.951515751500665,3.8568808229447313,-2.90719389935839,-0.7626102182530303,-18.353591981736827
1.4000000000000001,1.9642353405834,0.6202498929415015,17.098971676539804,-0.60891817085394,2.7535126897746522,-3.912621199764544,-1.2419841845039628,-21.44383299967285
1.4040000000000001,0.7721337509137811,-1.4654589807651064,16.244285673558807,-3.921761996440182,1.0269550199427613,-4.262928651867696,-2.794208370785782,-23.644392289710595
1.408,0.08750079268429545,-2.7741417979887046,14.607396552651153,-6.106676563835208,-0.8773397222039421,-4.138391302178206,-4.624222947946691,-23.968793283002015
1.412,0.04961159460435738,-2.9948588072566054,12.700399888611173,-6.654419288402096,-2.6524076674695607,-3.7340903186504875,-5.919180480819705,-21.949742515877915
1.416,0.7987773543081857,-2.399447064834021,10.81588357133478,-5.620314021951344,-4.172643688867538,-3.129925517643642,-6.182644924167107,-17.873895955626722
1.42,2.3709663543559145,-1.6679147758422914,8.965794804933466,-3.562332865169992,-5.426613305648971,-2.2827661829251156,-5.36719410121259,-12.684795012448376
1.424,4.600615022201964,-1.4695942150383416,7.028870466801891,-1.2456280216492814,-6.393018524607214,-1.122739352984354,-3.7661171830168314,-7.591812258277969
1.428,7.108536990390348,-2.038512146508765,4.986678939872945,0.7212450791421361,-6.954984550346126,0.33028935679249116,-1.7793478509192937,-3.5900380788752955
1.432,9.433034946308908,-2.992919682802494,3.081083507331641,2.1444984965983167,-6.918286124311635,1.930099108700233,0.2874809074182849,-1.1253650918415588
1.436,11.236658812315,-3.5134798992203287,1.7837447557885753,3.2799734756845282,-6.100012208501539,3.471470400956605,2.2887076662373147,-0.037293120458343765
1.44,12.45882367442573,-2.802382597052201,1.5631192539876793,4.625687233658027,-4.438408126460672,4.80695696089424,4.151758019179397,0.21668867200241948
1.444,13.330170483703114,-0.566196680961184,2.601312129816506,6.6037012259876064,-2.0426171077861,5.932348198020918,5.767408962663467,0.2181760959501844
1.448,14.212474364547234,2.7524424931198155,4.641340142610716,9.298511519076783,0.8443608408633736,6.97016971021003,6.962840849584609,0.31312520364372176
1.452,15.359696629300743,6.148273044461348,7.070646182695782,12.38104692415618,3.93986020189368,8.055841684488769,7.591212432407701,0.5209697188211067
1.456,16.75259947070117,8.575650572332052,9.224980241502635,15.25740926803428,7.03852615876076,9.204230558241761,7.68343441894649,0.639280975588008
1.46,18.09123709060441,9.51058939487848,10.709685310170244,17.339285440727508,10.058980062666706,10.256270162743022,7.519798802388323,0.4371231140139571
1.464,18.954403372845263,9.22332456411641,11.553649806712201,18.305115462814683,12.993948511712915,10.949183301654557,7.534630801248568,-0.1847557834125837
1.468,19.026920416623398,8.58627724503549,12.09833394132329,18.218812196602812,15.787163552519814,11.065300356003718,8.08198294029171,-1.1574183992379403
1.472,18.253046053203434,8.518994709107574,12.699137336589047,17.451403508394833,18.22335552997356,10.570591555348074,9.203659893524673,-2.3177254998954595
1.476,16.84206063055717,9.418171063039154,13.44371657557167,16.4766460186338,19.94577221275358,9.650911043074302,10.55630864954037,-3.5085430448007173
1.48,15.129547026299406,10.917242553841788,14.072739564635413,15.644768405924879,20.601345331331686,8.613970380889441,11.57400390401017,-4.642966564701055
1.484,13.383996870381452,12.10504276827669,14.156896718453936,15.042000027394351,20.026206348250525,7.721216901622029,11.78914079704191,-5.692878690150792
1.488,11.676375136548813,12.063863553591545,13.403034241728164,14.492664360619528,18.3408298789509,7.06240611564499,11.112669909249234,-6.628606717705225
1.492,9.896156298234928,10.398072977261108,11.880843093233125,13.695567044405834,15.874969476565639,6.561937549517097,9.899341197682588,-7.369587685020633
1.496,7.906304239995734,7.4438802976892475,10.022983548882621,12.430398763950507,12.983298747863955,6.112896605749484,8.764414194269193,-7.777522013946509
1.5,5.720123283532303,4.044754480610209,8.378774117565627,10.719365530395407,9.863128612018045,5.749355404492235,8.22712083000988,-7.700253439212247
1.504,3.585337080199679,1.0412198710901066,7.273227043780935,8.85980803424627,6.501422764160452,5.72481812449405,8.387097614169761,-7.045751844379993
1.508,1.9133409544392634,-1.1898262404756679,6.612860801955321,7.316952628486433,2.8166811387945927,6.414926769917656,8.842296270075167,-5.825644518325134
1.512,1.077853056413005,-2.8739599335558523,5.976885421941915,6.520725284127366,-1.0929295137602821,8.082907554473422,8.896441249185955,-4.148860599423642
1.516,1.2020013001983898,-4.576352043710358,4.9457233364882995,6.663612919886873,-4.748695576598948,10.64859463627181,7.9411824356539,-2.191042721240592
1.52,2.050859644834418,-6.725737451388341,3.4447351672097284,7.599770407327924,-7.309921372037934,13.602401220088723,5.8040709273882385,-0.1628652543095086
1.524,3.122591034793004,-9.228647100352646,1.8930590010677406,8.919867686490761,-7.85150304340732,16.148781795120158,2.902805602308945,1.718646091941082
1.528,3.914406903724739,-11.417697157266957,1.0501617740901565,10.182206770170524,-5.782073606271297,17.53696648051846,0.12616689461901842,3.2660550074624553
1.532,4.198936455988587,-12.384664804425483,1.624564513873338,11.166971514709076,-1.196930756727852,17.4030371419758,-1.4936148993911047,4.3578649246528585
1.536,4.16169775286653,-11.478290679660859,3.874812699305039,12.01869892180548,5.054740312666581,15.938498618443191,-1.1648059757826559,4.963407308837304
1.54,4.316323238388577,-8.666807825316937,7.437115485057802,13.178695255655839,11.644899635422917,13.79398813079024,1.3716841230234422,5.132185282122009
1.544,5.227623688559106,-4.565166518566912,11.501488301202698,15.124244290786919,17.269267554949693,11.763606444001198,5.753328668088216,4.940082663652902
1.548,7.1832049531367375,-0.13778435972471925,15.223270377333392,18.042353156816716,21.115452095018554,10.41681650468854,11.108709215812269,4.406094857245989
1.552,9.980316227974981,3.7178302173806514,18.116796122150845,21.610957727843925,23.050335104892838,9.874517754071348,16.304707610805053,3.437950568649285
1.556,12.958263739674294,6.482130287752625,20.21550129690877,25.039275373541386,23.4767120866436,9.83986275002826,20.25874842558187,1.8661886648678774
1.56,15.274037832456088,8.083963218486133,21.920269817148437,27.38256675474713,22.979647363467848,9.840684683731524,22.242343886649905,-0.4278407675546987
1.564,16.278605899344257,8.744938218469542,23.64318231393736,27.982562216850965,21.979158675392682,9.52972715665419,22.089247813262773,-3.3450045255722216
1.568,15.797161805334326,8.740614641708817,25.458964853090947,26.79782206658092,20.569141866735663,8.875477589081129,20.22633219614727,-6.467302718167957
1.572,14.16957358331274,8.234100991759078,26.97317435685909,24.436351274564913,18.596714118801174,8.14225336153686,17.4925246879302,-9.119656175755154
1.576,12.03985741930228,7.270575472730343,27.495606015101657,21.85701122577302,15.909501535137679,7.693218183329009,14.795232695170853,-10.611809742536025
1.58,10.016795075000118,5.896312582902283,26.411187137939123,19.8912110838246,12.596543250743707,7.7562976975459605,12.737811526387304,-10.553112946374313
1.584,8.412785964912473,4.293924435905865,23.56193895139586,18.85316198772489,9.086141625151868,8.289484904511482,11.404382627613813,-9.064407460024086
1.588,7.167366003111965,2.7947048219211865,19.4279291951716,18.43377464076184,6.035043063407102,9.010189847453148,10.421555828585042,-6.737796152214287
1.592,5.967755190915341,1.7333415521652569,14.99044081547072,17.92539885567203,4.066113709339334,9.555418026478947,9.272350032057147,-4.337018219866877
1.596,4.514750633883523,1.264953976111201,11.364019220553473,16.663594186624323,3.5327010313453684,9.670373439703326,7.689986719320132,-2.411567041182934
1.6,2.7689662588454667,1.2576742041239868,9.362246057520224,14.435085455766966,4.4173235443408885,9.320489728140274,5.905680942479194,-1.036224791769655
1.604,1.0213937269727467,1.3271407278361949,9.20645709326709,11.624156478138502,6.3895881661501335,8.669853599863927,4.592229948901149,0.1688533394735714
1.608,-0.20883452174894046,1.0231642961953185,10.505617630282359,9.037901599234829,8.964748982735728,7.963014990971715,4.4978763612270996,1.7290420698018352
1.612,-0.3932859771375661,0.05756209886749275,12.485197518524728,7.515657607436879,11.660537240317353,7.39716895721358,5.952271664682485,3.8976904759001627
1.616,0.7876938050903846,-1.5303256962379237,14.354583626658496,7.5470192719039915,14.106755885661187,7.059555082949373,8.560758589104807,6.3934176279090025
1.62,3.339696510327485,-3.338198366956931,15.643266713908815,9.099931336666486,16.098893656419023,6.955001637375972,11.298969736777508,8.47387284454453
1.624,6.976017683144164,-4.732222221714437,16.361737101296967,11.70918841421826,17.599982948629986,7.070898467211009,12.977221852595903,9.30063607377815
1.6280000000000001,11.215588576189475,-5.099799891226212,16.927117467759672,14.726844499529761,18.70204218949948,7.414177661092253,12.824567892783307,8.382585773197206
1.6320000000000001,15.489227020787439,-4.137526392521977,17.892206799217092,17.56832288298483,19.549240383446886,7.99027824382938,10.867599766077547,5.8450080281472765
1.6360000000000001,19.23597448803048,-2.025870566402773,19.62949983132785,19.837555596981474,20.26370403780129,8.748759990876351,7.897071088411394,2.3723766116909246
1.6400000000000001,21.987182781133015,0.5981535319879185,22.11560916421331,21.3103240877208,20.891571763686443,9.54268084764044,5.029152886319935,-1.1391953011443547
1.6440000000000001,23.43865434143663,2.8649011183151742,24.92160488031368,21.86024544384418,21.389368201265825,10.145406399940839,3.1330656876907597,-3.988357841441939
1.6480000000000001,23.512473943301302,4.0139716758458235,27.40273833131323,21.43724685266716,21.665693053842006,10.337714714656613,2.4691549104154547,-5.870732384704752
1.6520000000000001,22.373856102298305,3.695230654892839,28.9723736480355,20.11682482326978,21.62990538689246,10.013843543125404,2.706688797370589,-6.795215707073112
1.6560000000000001,20.367741729678528,2.0874519429453358,29.314850008680878,18.159563018898552,21.222276552332914,9.23155445397424,3.2705203413788695,-6.819307061037762
1.6600000000000001,17.882770320396958,-0.2311697032973825,28.433624692559533,15.985710597939033,20.386214238080356,8.181053908418107,3.760760447994471,-5.813606022974454
1.6640000000000001,15.200982266724168,-2.60308435924253,26.549485760056996,14.030362351470103,18.99606541540288,7.093029256373484,4.176955023911432,-3.44182021481447
1.668,12.42588218491801,-4.621533144621935,23.92865315727795,12.535548424899389,16.82775700575621,6.137477449065045,4.823283649755467,0.6104564457236847
1.672,9.541484369940008,-6.295388431079118,20.76961334866428,11.423642074951204,13.627024426044954,5.395730870224725,5.994115442666953,6.339013702903685
1.676,6.5830860838050285,-7.9401888660104305,17.231437683092736,10.373830148995694,9.305195517916218,4.9163387142907595,7.686698087152763,13.269436086086898
1.68,3.8118813671680982,-9.830615076551112,13.573496102682839,9.096378983291288,4.207520689662488,4.798210917831966,9.549433447587944,20.561595317269166
1.684,1.7387503793470387,-11.849598870257978,10.283750186297766,7.638075653931992,-0.7370708466041833,5.214630008882523,11.10023616118633,27.30513971298751
1.688,0.9256676740624243,-13.377312891068868,8.041768110309931,6.4868183634243906,-4.162785832089867,6.3182104354855255,12.039514313071777,32.79757695401531
1.692,1.6455968887312338,-13.55398164023427,7.479325729178527,6.345569845969294,-4.763754026733295,8.060878979445988,12.429227135931797,36.62571345712422
1.696,3.6148403127699567,-11.794175024299875,8.858230402020126,7.676100147677062,-1.9406734303429403,10.04931660449256,12.610847617555919,38.526838198160476
1.7,6.01090770862902,-8.22281629841018,11.846663129486842,10.291201477603863,3.760108199064234,11.57040041466098,12.921897554722818,38.18439138586018
1.704,7.843818894623837,-3.7318508908774675,15.591133190922847,13.309807456330418,10.730323372226849,11.851292649214884,13.452807548852434,35.21682261716978
1.708,8.531053183705808,0.4558289009537475,19.101889801206198,15.591920639890304,16.978197469253246,10.460028871788381,14.036785471893381,29.460655497596235
1.712,8.321862412056362,3.47216886824026,21.763017251199926,16.43412636429457,21.07803356935983,7.637314765475821,14.480098002584782,21.41798880132683
1.716,8.279490967586753,5.328026078762377,23.665238174531623,16.1013929963965,22.877465466803187,4.339066617290882,14.852477950644243,12.53779575376393
1.72,9.734093839004345,6.920343967970439,25.506786741381802,15.788940007743804,23.516248086305495,1.8810613428813667,15.546221629321735,4.983880941374082
1.724,13.436717978023808,9.438798635554122,28.073047204708928,16.937649449378114,24.658470477354058,1.308176830307275,16.98606886645939,0.8453776483556794
1.728,18.874728783544924,13.47926109634318,31.554364236231777,20.234229549628253,27.315470781303702,2.7983649507204973,19.108764388525742,1.0971096188595766
1.732,24.206445453923152,18.388158173152988,35.118142944033025,24.91041886253879,30.925444164353394,5.450991868490746,20.97831448584475,4.902568579327635
1.736,26.93419513650042,22.28115378331495,37.05278455161897,28.829142895152472,33.29321541880108,7.62398111919174,20.893145637586713,9.747042855677137
1.74,25.05446771338393,22.85239864945197,35.493623540520275,29.434210117075054,31.56477970778451,7.715648412386145,17.07430970502901,12.467790294536826
1.744,18.117178338958183,18.59225283867181,29.41186429278605,25.128608508131947,23.80625275386228,5.018650373711353,8.678253110600053,10.769932749170948
1.748,7.631111299775512,9.777154199294273,19.348115413769847,16.322966861785062,10.363793636784976,0.18861805450796965,-3.406250210775397,4.467734295595619
1.752,-3.457363204268404,-1.3731668690461447,7.441269751510845,5.492634071015345,-5.832066763798139,-4.948094919551295,-16.49250788059726,-4.244232709877906
1.756,-11.985570798620756,-11.5187813800012,-3.3270593587840267,-3.8815120284734803,-20.289879563960312,-8.197622880401468,-26.920335132012042,-11.710063324074326
1.76,-15.879119053312024,-17.600023755188886,-10.344116524174751,-8.95095097241392,-28.84399900090466,-8.015556470505544,-31.47737698753008,-14.515924632190035
1.764,-14.87382370269006,-18.089531644149247,-12.387254574225153,-8.808713638373774,-29.439059340369568,-4.212166860070283,-28.71255081980962,-11.097802782989675
1.768,-10.349849065112721,-13.487989769277192,-9.969672897093915,-4.769603822673162,-22.907057903368695,1.9952019211268635,-19.52061314745879,-2.453093424819599
1.772,-4.425635660227272,-5.8822781771705195,-4.883586615629611,0.5215650974387245,-12.384967152240279,8.604371006145811,-6.725013152346946,8.388283973241414
1.776,1.1510321018740797,2.1405643943835457,0.7875355772157491,4.6311813920965506,-1.7117248193444539,13.777445117935713,6.132488171235309,17.842344662746655
1.78,5.6950322205048,8.625220323374378,5.625169126800756,6.6157484315072,6.328527219076932,16.60601086323004,16.176775573023406,23.39223758222124
1.784,9.531445907472516,12.856412032106164,9.309291990056408,7.323408701558947,11.007214903951535,17.314210384016405,22.120899264889886,24.535301045200868
1.788,13.335500982781014,15.240294415843891,12.358007715194617,8.593768114382328,13.472211643666014,16.848348663572324,24.353543033561436,22.6298809789414
1.792,17.327925160137966,16.648419536567417,15.413729494238396,11.877878231234718,15.607859537342847,16.15222526829166,24.286789475785554,19.83788966835118
1.796,20.864248298010352,17.693239993195675,18.585083349316847,17.16141655298543,18.697344263651758,15.58695124215592,23.432528731626007,17.844272837466633
1.8,22.68268730183263,18.377632057444316,21.250456884596133,22.84370832211789,22.67688304782496,14.828008934324316,22.6848857299683,17.066004633524244
1.804,21.64815475047726,18.25415573862938,22.441417087180525,26.630547426791964,26.340820404929218,13.258276840588223,22.12929466964124,16.727395368207908
1.808,17.531034489002195,16.89821689265318,21.52951345355632,26.86711306174766,28.269915854941246,10.565275093222226,21.354135759404016,15.637903975918562
1.812,11.319936483672791,14.3210451414634,18.75325896700815,23.489337142214936,27.81187125906672,7.13939741809736,19.969301875609744,13.138650142513143
1.816,4.863819751581104,11.055489316728199,15.239291896061331,18.041556617200513,25.50282069334753,4.002714269781791,17.996216782559713,9.639889849881001
1.82,0.03719618351533427,7.898878406614131,12.473473453022962,12.784421629682583,22.722143123857677,2.299336360742018,15.91615015226671,6.448051526102972
1.824,-2.119881845486816,5.495070987307372,11.531266672909624,9.464800328302772,20.844805282871675,2.668575476594924,14.421104804561764,5.037985466329701
1.828,-1.8115894885231683,4.047715417713334,12.516138087915351,8.49229219150402,20.473297426014142,4.871064432834828,14.057872821041201,6.223664625867059
1.832,-0.25218280314038566,3.307158577593782,14.528132723127783,8.957566011676136,21.190283163994536,7.896570047832938,14.96947829106557,9.708248560664288
1.836,1.039177583556011,2.778544607663207,16.161772125862626,9.387200268697597,21.92285659114168,10.494548620617934,16.83478646370986,14.226654711304036
1.84,1.017675838960713,2.0170640716078196,16.229874008471597,8.708243713644151,21.651583428114463,11.811670194507315,18.988532592843512,18.151309717691674
1.844,-0.4511052642737923,0.8182087293102995,14.319640494599298,6.811109487808608,19.9894194504227,11.76165758818388,20.644377643856387,20.19501390182586
1.848,-2.674259065723163,-0.7562899380404815,10.904577837191027,4.426719504594075,17.31569227865748,10.937323608048246,21.123895630055813,19.84956700123894
1.852,-4.6063262969746575,-2.464310850386937,7.00863133731491,2.5003381662500033,14.446170977679685,10.158578244132514,20.040307727522304,17.41684044521662
1.856,-5.420943585693749,-3.996102785124549,3.6677724643996044,1.5313668698081528,12.119009182757509,9.943645986539195,17.405762542594857,13.717553995230446
1.86,-4.864998598468446,-5.030004676460521,1.4958775064296788,1.3236387773749811,10.659947391597143,10.220168830641342,13.645397227409376,9.696421193441438
1.864,-3.2485184474044217,-5.248482239494933,0.5674412447224313,1.2765694882891694,10.002375424476668,10.42925602482319,9.510663041543012,6.1230891880773015
1.868,-1.1697642144899874,-4.3779611162058245,0.6050350401728792,0.9568111244552711,9.98377943604146,9.917884868908914,5.874851798761483,3.47027452443308
1.872,0.8208212616500532,-2.3145192162473904,1.2645623528942451,0.5034132818673243,10.615096867536067,8.355653547469956,3.4416624602135926,1.9173427650493977
1.8760000000000001,2.420389450086077,0.7038721931257896,2.3272477399723357,0.5628867611731039,12.09295925501874,5.921368791946406,2.4921742263213673,1.3849534095597846
1.8800000000000001,3.5751539831817354,4.021834103364654,3.6909099575013897,1.7943290776515823,14.54590288142981,3.172859398266155,2.7935244863374464,1.565286053100408
1.8840000000000001,4.3489479638919875,6.688151517601909,5.224339685308223,4.289076468636722,17.70872246238514,0.7071516144997076,3.7252271556099004,1.9761413476221605
1.8880000000000001,4.797676504316769,7.78213159191364,6.648492429692851,7.310419491504945,20.829105054159754,-1.1649874947806893,4.5716863037550866,2.0746421143021507
1.8920000000000001,4.924960604499574,6.7822891029832135,7.550802252008907,9.560910161454103,22.911309446650193,-2.5250128391917315,4.8463660566831095,1.4494151208109542
1.8960000000000001,4.702057001653884,3.7704669423401356,7.535714120360353,9.828470701510923,23.170694658237153,-3.704787111202677,4.4567230855373055,0.002511685971512634
1.9000000000000001,4.1204410097816435,-0.610034751326566,6.4258674426519065,7.644652623270758,21.44825384640808,-5.0054207613193284,3.6220188380575564,-1.9903564964834004
1.9040000000000001,3.203723019645622,-5.4405773593871345,4.37395575017581,3.5638582973601842,18.30868463613251,-6.472312944494661,2.6243897481699605,-4.003959822264278
1.9080000000000001,1.9857576223475917,-9.876240506854629,1.8109372101025656,-1.0704800244857324,14.767499411302197,-7.868426176364665,1.5649138374292306,-5.522487284194995
1.9120000000000001,0.4857587796050211,-13.38420208071966,-0.7239496821694047,-4.738009215086549,11.793721827169065,-8.8503745146445,0.3020472711450566,-6.295774132879615
1.9160000000000001,-1.2839288444447448,-15.789618731575956,-2.782306429829987,-6.4068027756093215,9.867391395268896,-9.221625374215364,-1.3886158912246174,-6.44125865305341
1.92,-3.2531584376865794,-17.139246402506615,-4.15474183848346,-5.917210035145672,8.847348222976507,-9.090081342459598,-3.5597469174517755,-6.335434332461773
1.924,-5.235758523447657,-17.53306795474964,-4.892559172571055,-3.9401218911257274,8.1887686869145,-8.83528690269759,-5.92133576188553,-6.370783192568069
1.928,-6.943286113383692,-17.055835842487795,-5.230768435594655,-1.6039194739591949,7.351569134496003,-8.918014315313485,-7.902852238668856,-6.74081476667061
1.932,-8.109746228624317,-15.861963771676983,-5.4937070631794995,-0.02504651125809687,6.109609969571011,-9.648910078833978,-8.9595261597824,-7.382402664973597
1.936,-8.66765169779137,-14.311954898764725,-6.000812242708889,0.05010448911161802,4.589922649010077,-11.053560127368655,-8.92901879535384,-8.093332334174193
1.94,-8.82161743281722,-12.975442897355606,-6.971318995456386,-1.591004918548606,3.0875456234261947,-12.89034146846825,-8.193593593474361,-8.720092657278656
1.944,-8.958898561197202,-12.442035030590432,-8.429395795061282,-4.633353862000604,1.81769158907764,-14.780961466498411,-7.506550876889378,-9.251189340888232
1.948,-9.445641114669343,-13.019302875694848,-10.13988808945578,-8.365938636648934,0.7998725970146552,-16.374199409964604,-7.567211256009614,-9.767075342429962
1.952,-10.402434207324404,-14.495426933311137,-11.612743467198015,-11.874264947969095,-0.05315369849631679,-17.457210382165613,-8.569813057504689,-10.274014115334012
1.956,-11.596493418005593,-16.148890135991678,-12.22289595202983,-14.266145077655892,-0.7436657729881517,-17.978982484571134,-10.001954014094736,-10.562562535673806
1.96,-12.539795857325771,-17.04539432549609,-11.465757740364097,-14.919845545453427,-1.0713588075768712,-18.01014294944798,-10.869457984061228,-10.243936619653141
1.964,-12.762216490178616,-16.496164255703206,-9.252553927259214,-13.696227568297218,-0.7158635039895671,-17.691502938760095,-10.255943014363766,-8.970155892515322
1.968,-12.112485595507678,-14.415462540159297,-6.083814682765478,-11.02455811009122,0.5259668881822108,-17.20477824739828,-7.905524836020049,-6.71137825714186
1.972,-10.904713297130002,-11.378398199033654,-2.9616930619431514,-7.793861169966476,2.4903425450738723,-16.749160965718147,-4.480166089094382,-3.895382237522881
1.976,-9.828083308679197,-8.357772549814854,-1.031322553438713,-5.064195483801996,4.5615011526570015,-16.504948244506522,-1.3162807358930877,-1.275640221992262
1.98,-9.66153653357378,-6.271144587719391,-1.1027474217039526,-3.710191811277582,5.852429628828304,-16.570105750382027,0.20581263662279525,0.419855238550781
1.984,-10.913953889143158,-5.587955606471951,-3.2611922239752857,-4.130708616354241,5.573321095512256,-16.883909609009606,-0.6296905596236684,0.8745082525019825
1.988,-13.577955161150385,-6.190325112977007,-6.78516138718669,-6.151689131703733,3.406548760048281,-17.204273439921963,-3.465684799819428,0.3690761871389441
1.992,-17.1211097702826,-7.545817712116332,-10.442267028337938,-9.157493174276624,-0.3368917002512717,-17.18338917932215,-6.998271580212531,-0.3625269651004146
1.996,-20.71262161921095,-9.074474134882621,-13.037463077798748,-12.380646478052313,-4.881436245701025,-16.538983620671388,-9.59579031926387,-0.5502250473757613
2.0,-23.55773092480922,-10.466952245432367,-13.956269936288663,-15.20419806182008,-9.359711012842126,-15.232172398686998,-10.0961245247845,0.15139545418696798
2.004,-25.19238102428426,-11.789402641718425,-13.412456353768448,-17.34072944237323,-13.18487479998521,-13.545548457613222,-8.361739974487136,1.4263596921291537
2.008,-25.59105210197049,-13.316130095646713,-12.273450502488231,-18.82664428438966,-16.20921473315684,-11.9953358247285,-5.3179168647552615,2.4199955610024517
2.012,-25.06820537890053,-15.231399888790747,-11.569186058495688,-19.875151279457896,-18.617570283445275,-11.098039722615795,-2.4691625593450226,2.158304605567082
2.016,-24.065651876131597,-17.407609731006232,-11.94601164149799,-20.683757547335972,-20.653589415144097,-11.103755905124672,-1.1455588364915457,0.04598718301804183
2.02,-22.91127635713474,-19.366297314325948,-13.348853043988584,-21.284550257599676,-22.350411751008778,-11.8322174402374,-1.8740003848542983,-3.8106480635101434
2.024,-21.669216669103662,-20.450819463016614,-15.09360033650637,-21.49050984443511,-23.448571632260837,-12.712279527795545,-4.186222131581417,-8.613015246701252
2.028,-20.119345843661904,-20.08676094544785,-16.25467343866194,-20.924498043281346,-23.508404140490256,-13.017851803057965,-6.918970893711958,-13.17108027588938
2.032,-17.906523244905657,-18.02729105903336,-16.15436225059875,-19.141208840360832,-22.166088549866572,-12.197130745589675,-8.821940307856494,-16.329839397120168
2.036,-14.809487486980288,-14.491090188795852,-14.697181351421932,-15.81911867312192,-19.39109280267712,-10.133430518418209,-9.145699384106592,-17.324730580603273
2.04,-10.959968955565273,-10.118690907048858,-12.392099178319768,-10.95466317904038,-15.576584021878034,-7.196840061133116,-7.921171854053682,-15.946597710476453
2.044,-6.92662051282332,-5.804752403558496,-10.073420930638349,-4.995204340844566,-11.431188895635387,-4.070134800511823,-5.827618844142307,-12.500812984337927
2.048,-3.605914179822321,-2.457151331752584,-8.497693360177891,1.1692367818918683,-7.72503485208631,-1.451017955988391,-3.760126391114227,-7.6390882018317825
2.052,-1.9182144530168443,-0.7461540006638643,-8.02935260240838,6.398543969859929,-5.030554704888345,0.22250151021580677,-2.3560479030120405,-2.161161758791195
2.056,-2.4327900595053507,-0.9233721854368468,-8.551961212564038,9.642422500348403,-3.58285528904662,0.8895127370615228,-1.7286353751878778,3.152632494006639
2.06,-5.085805306689053,-2.741879207098009,-9.623484783401636,10.300378786966348,-3.290354379334758,0.7933189410505292,-1.518340351207371,7.663479152255377
2.064,-9.142901230412008,-5.523837811355406,-10.736650626829942,8.444289632062919,-3.8616652332896138,0.28615274610274355,-1.1733546994637436,10.966214269120883
2.068,-13.46103990539359,-8.37818810040153,-11.528421185821571,4.785635489810602,-4.94391908874718,-0.36871955823608005,-0.27562045035665506,12.941489500932903
2.072,-16.943696359451224,-10.513687569530703,-11.841578262070016,0.38309164778183913,-6.212311703020305,-1.0923832427761226,1.2732931726332026,13.740803231332393
2.076,-18.957546098805324,-11.531108852232137,-11.644175109564458,-3.761407472120254,-7.3961651327899745,-1.9454075226758505,3.28805218296111,13.689413403468507
2.08,-19.495661003858004,-11.547079468241009,-10.919605820149627,-7.029446727056666,-8.265703007198681,-2.9894045727583034,5.481004646019301,13.123507414114101
2.084,-19.01020975280653,-11.080608492806277,-9.630656255856593,-9.279471031580215,-8.633453524439119,-4.158365714805768,7.640213674163533,12.23129725034687
2.088,-18.011259042094935,-10.72863013985102,-7.781715480834464,-10.681091430865536,-8.374775597828375,-5.227766346424687,9.702391200841703,10.983015994865127
2.092,-16.690363691372113,-10.80911686630293,-5.530414048121202,-11.42896792617421,-7.475233546831532,-5.898021300830806,11.680324618756458,9.200854210374928
2.096,-14.814546439817605,-11.18020098386387,-3.2428585816774103,-11.5312401797255,-6.059371738482696,-5.945103164922784,13.534726372763998,6.7452097820773815
2.1,-11.953046365417322,-11.338936949376375,-1.4221794934937861,-10.805309416404725,-4.350870523923959,-5.344309497928407,15.095638156592031,3.7105195848871517
2.104,-7.894981777198609,-10.767167260978113,-0.5096924233507707,-9.062018062533298,-2.574083727009338,-4.283057864330203,16.107984627833957,0.5207919275837867
2.108,-2.9723495329380967,-9.30309464423408,-0.6582035729365998,-6.327226128818211,-0.8313426473523577,-3.0588301682055317,16.366939302190985,-2.154029114398327
2.112,1.9675566374071423,-7.306177231557513,-1.6077807625272271,-2.919740152020495,0.9565682289480719,-1.9172899550944749,15.850872818710286,-3.6338028974527106
2.116,5.966150117519646,-5.501140664284094,-2.749792717888795,0.6897125649043119,2.989458253197654,-0.9175932391658534,14.755635332785914,-3.504857891069719
2.12,8.50304293682484,-4.563239068717849,-3.391890280438929,4.1431915783273325,5.418186385417357,0.0966928442594508,13.377936866175787,-1.815285248859709
2.124,9.83383970326031,-4.698097328535596,-3.0894843675059747,7.393164648574611,8.144808473274225,1.3957414036103728,11.934904619745794,0.9123795858365611
2.128,10.838747534380673,-5.488833005837478,-1.8816710341145608,10.659627062588243,10.717242022327355,3.1770891489045425,10.435462127240953,3.8465753685289883
2.132,12.421056521960054,-6.130065887135288,-0.29677852015583994,14.13820208806169,12.400456416125508,5.395947129661636,8.71234188451217,6.119855002912004
2.136,14.790942112797438,-5.9355453721098,0.8918921972913267,17.632067436832813,12.421522885182185,7.701758387534937,6.611538991295902,7.102201025659269
2.14,17.101492083435005,-4.80119452495444,1.03530955477936,20.367493169262616,10.302311594548314,9.526350479543453,4.210338802409979,6.572834877981904
2.144,17.75381876694246,-3.320001386199465,-0.06421742803763664,21.196981489111522,6.125781846676091,10.30000188392387,1.9128720136568518,4.754815657703034
2.148,15.274636245659622,-2.437478554999643,-2.0291816681015007,19.148731503802992,0.6100885607377222,9.692404830884243,0.32283618031669903,2.2136464676034393
2.152,9.300709391447072,-2.8422139856318154,-4.049108187663023,14.048881645323036,-5.071051435890922,7.772462784228992,-0.06872905263026041,-0.3290124669747456
2.156,1.0805828364846093,-4.463254312416893,-5.217287915394081,6.857571888861912,-9.662137918025678,5.006890770630207,0.7958944141541906,-2.196582129019589
2.16,-6.872968973108527,-6.396817444945555,-4.923089605214727,-0.5426673080484079,-12.243995122953265,2.092002532836432,2.395808634527384,-2.9236751941190278
2.164,-11.869083469038287,-7.349764687726292,-3.1111987878971377,-6.066703418521911,-12.533230059604193,-0.3015905423883396,3.7792748905235385,-2.35304536866488
2.168,-12.316248520110094,-6.349234083175588,-0.2961728185005086,-8.31540346377244,-10.922055698620397,-1.769325074032622,3.9719863812833864,-0.6534519864801496
2.172,-8.485327908321779,-3.292741250617837,2.6755124134338075,-7.171304745166253,-8.255905242841209,-2.290073570342429,2.4560985658695245,1.7473581120810877
2.176,-2.316681821254633,0.9810629886503648,4.995851899167974,-3.7825031241766283,-5.474889196677736,-2.174416255460301,-0.5352170425678651,4.291505427795755
2.18,3.6291520102663526,5.163262812571929,6.2124992687163285,0.052651736579719,-3.2663263502169,-1.878494630234627,-4.079340844971512,6.4387012761176265
2.184,7.502088252572321,8.211430251596653,6.37852345728038,2.7801894750633664,-1.8709584708864213,-1.7733549653237333,-6.956577878729149,7.798801458786329
2.188,9.034924247893287,9.9138696072323,5.985314440831871,3.7941843513439153,-1.0901978971928656,-1.9876982980281355,-8.188054049271386,8.213077127050383
2.192,9.48456080630308,10.936154644309,5.722688864805605,3.5886993109118066,-0.47174348937824107,-2.3976260837084737,-7.460887096153783,7.767081942544564
2.196,10.707223843678321,12.322858728437495,6.193125407391335,3.3153572706467003,0.4263590982743608,-2.7534723672638393,-5.224797591319657,6.749030125691434
2.2,13.92637220549932,14.762722628832535,7.673319223952603,4.024908731723713,1.8061288112276088,-2.856951753620706,-2.4458046509416818,5.568281673712249
2.204,18.91747932502085,18.06674232978662,10.015797531567387,6.0332179398269545,3.5177626211261668,-2.685411459708803,-0.1574754205339559,4.654587446026881
2.208,24.070760664104228,21.205209916145577,12.714019301625967,8.75343107696915,5.118950285774872,-2.3931038188525235,0.9705693619071099,4.35157450687467
2.212,27.259202594137832,22.873231420437833,15.075051141621088,11.042789980834868,6.044575382692756,-2.195481604092265,0.841170670356405,4.8181988754751615
2.216,26.978591596277056,22.23008006565385,16.431984537569633,11.821745082097777,5.811495156235878,-2.217340980797644,-0.16101672760078145,5.972056181061134
2.22,23.116997225419254,19.39140450756281,16.328205708806763,10.596561177366084,4.204294983806108,-2.3993988549632377,-1.4711634558134392,7.4978008994881975
2.224,16.91859776655474,15.35333323928569,14.627626354659697,7.586616488090613,1.3504233211717747,-2.533050005352834,-2.6787936198090847,8.926452531389373
2.228,10.241895711566713,11.424055094752362,11.54643004286595,3.463296991233392,-2.3113625325822795,-2.403654265631303,-3.716753915732852,9.784734340521709
2.232,4.608520619721048,8.517240058534753,7.597303837413165,-1.0771750129733846,-6.1553899359391835,-1.9599368887102173,-4.828837089640729,9.763481700169905
2.236,0.6072496333395065,6.725809466611906,3.4686208197294945,-5.612322275594352,-9.544210254950713,-1.3971727928144446,-6.354553824339746,8.839949909317625
2.24,-2.0369255128268833,5.4370136347315565,-0.14501081158186935,-9.979395470207521,-11.978895125409338,-1.0877903499477952,-8.462032126267786,7.293856349822931
2.244,-3.8743927124851325,3.8779412343980653,-2.72527066236853,-14.010036129276614,-13.190927349517608,-1.3829404910238736,-10.984365733554796,5.5999041424013285
2.248,-5.079792281957452,1.736606622970271,-4.063892408401443,-17.259842050865814,-13.133688954888157,-2.395718527696431,-13.440568066762808,4.240191677653797
2.2520000000000002,-5.209272038171434,-0.5456271034921656,-4.294976724092862,-18.98412460386703,-11.906488947130754,-3.8946828187582696,-15.21479341780423,3.5286562369525427
2.2560000000000002,-3.5300785375575288,-1.998875431635895,-3.7894464272917503,-18.428821527557716,-9.664567264574998,-5.380603158340591,-15.793123720711606,3.526476193822873
2.2600000000000002,0.3226178630261529,-1.7076741632018866,-2.9598950926314274,-15.280998410356744,-6.560784167424572,-6.309879096062446,-14.951678507438146,4.081600451041652
2.2640000000000002,5.817846508846742,0.5922151255935546,-2.075372339835212,-9.998595562573314,-2.7703443460701465,-6.351174871250805,-12.824249166947425,4.9548801727871705
2.2680000000000002,11.540099017389593,4.296250292424247,-1.1605450149266971,-3.762973399080124,1.4518737642800943,-5.537395044006416,-9.822445951538498,5.9603587841142485
2.2720000000000002,15.79267521103884,8.224759140138417,-0.04684818151167747,1.963426916414619,5.7205979415944626,-4.231122838504007,-6.466979657610636,7.046489551079645
2.2760000000000002,17.446187541076597,11.233757033378765,1.4480517819213787,6.051762219437023,9.521983813289069,-2.9328531593891967,-3.234108176470045,8.28337608505268
2.2800000000000002,16.534634470729316,12.791458221642642,3.315303187980021,8.167734576337352,12.31117645134725,-2.035089687718937,-0.48773697422092255,9.77727847363468
2.2840000000000003,14.208228877013426,13.167062724209103,5.246742854035347,8.820989210506468,13.665115285859173,-1.6540541896113155,1.5096791731446615,11.578874037225262
2.2880000000000003,12.05115332865546,13.14256565380731,6.696852253590578,8.977161490975277,13.432297410196213,-1.6266143175040497,2.5363513274674006,13.630786167006306
2.2920000000000003,11.160381199237236,13.438917374451904,7.099126071716626,9.455336489691234,11.794792171061431,-1.65246956806169,2.3766111448047695,15.759948316527868
2.2960000000000003,11.520432995967951,14.216533563929573,6.134483073191291,10.456232029408397,9.20141504648933,-1.4889116460136052,0.8758165514545908,17.712991331396296
2.3000000000000003,12.046813867263154,14.968648780365527,3.8953980528317516,11.464973163987878,6.206296301271777,-1.0798862226429264,-1.9335433018278536,19.204263583294505
2.3040000000000003,11.262216021980635,14.847447883045021,0.8600755116183336,11.547524871253785,3.2717048659710315,-0.5541515442134255,-5.695629684137714,19.960197835793707
2.308,8.246665080692708,13.265050814231955,-2.2839797510371795,9.893056676505552,0.664056953489677,-0.09735465520674325,-9.659334394388054,19.78577015197459
2.312,3.2960715108866907,10.395061249909503,-4.8769547415400325,6.293613496431192,-1.5195912564408331,0.2088801698175189,-12.764377868347992,18.639674866770577
2.316,-2.1123339222731374,7.235874429384211,-6.465138369801593,1.3053822994491782,-3.24696029897234,0.46703645521921544,-13.919187977302613,16.69916294663946
2.32,-6.032377092300862,5.186539933939628,-6.865131720519457,-3.971281500227576,-4.443120643680231,0.9022561976487964,-12.40356913591927,14.364711826346365
2.324,-7.068073773696256,5.316534208775863,-6.143577987540368,-8.373677134448712,-4.9968973031220685,1.693507396995642,-8.24811594827753,12.144001633710815
2.328,-5.1635026182399315,7.704070693670218,-4.606934138051201,-11.194156717478279,-4.917003044422586,2.7800493048459884,-2.443959169376228,10.399703879564527
2.332,-1.7279708513738115,11.20943553456371,-2.8227631917773692,-12.487541518791318,-4.54359385678373,3.75878828628845,3.1643451132836162,9.082911666938173
2.336,0.9892299683933743,13.833259641958591,-1.615389155019841,-13.023560673035774,-4.646824698979003,3.956660062230867,6.359573306298216,7.619696210783076
2.34,0.9521286744632107,13.532703615949174,-1.958090613718582,-13.922907536819253,-6.27818508752739,2.663331122861223,5.259703998046575,5.055245952930846
2.344,-2.6966512221881658,9.142704833577056,-4.684598426251853,-16.119961022770212,-10.36580347791363,-0.5562107813062767,-0.9915709388174037,0.4755740793387133
2.348,-9.206573293521615,1.0056082851951942,-10.06318613520466,-19.86837787520318,-17.171508160864107,-5.597318899287984,-11.793948004252229,-6.4478689059057785
2.352,-16.51684810087488,-8.994433084784248,-17.43259301105519,-24.502258216672715,-25.88607056848781,-11.72248248163146,-25.11849567171157,-15.060846752642618
2.356,-22.136434978733973,-18.056275200580046,-25.151442638410686,-28.576723448202188,-34.64052162659647,-17.69874871246327,-38.04158389517056,-23.73026181322703
2.36,-24.174312878516503,-23.50089520972847,-31.030643739568404,-30.37040976974322,-41.026431350464236,-22.12902221014042,-47.62515523465811,-30.319654357314647
2.364,-22.05259962621119,-23.815012847830815,-33.153406579418515,-28.572280287412298,-42.98180300059636,-23.869822648138438,-51.82295027188786,-32.958190318905
2.368,-16.593662870698722,-19.22740418137272,-30.714342939565086,-22.859017140986793,-39.633482709530256,-22.385522924721272,-50.060666978633435,-30.760689287968376
2.372,-9.524576461250604,-11.581318153781012,-24.452004284548593,-14.123966173619976,-31.691783443383883,-17.92704765853057,-43.27422812685859,-24.15680896835073
2.376,-2.6679446945387326,-3.552768182874786,-16.384156722326225,-4.219333030916118,-21.178133803512935,-11.468575490436024,-33.41144752230514,-14.668534677530033
2.38,2.7751894113306435,2.466066401746957,-8.918795966369544,4.696486483786202,-10.57562564143717,-4.42595949192139,-22.63503637082124,-4.261606453990453
2.384,6.53470725919658,5.306897202272921,-3.7556307128461413,10.920297824168358,-1.8270750956745019,1.7441705625439,-12.587743051823054,5.3833554844557625
2.388,9.101798675088503,5.3856264772313125,-1.1493730367120634,13.758306681078125,4.339480101576328,5.949446413551414,-4.039824288381965,13.324390585838785
2.392,11.204779322237869,4.312709554789649,0.054755913750454965,13.610794858761494,8.420462336289688,7.732432130896996,2.9767360076966725,19.355485104504055
2.396,13.24251766392672,3.955098267736446,1.6367198935081433,11.57957685127252,11.517310193866763,7.323547921196109,8.695593917689735,23.642374856584297
2.4,15.004573475062557,5.442614852137126,4.876473696753578,8.834889743579652,14.473875604231296,5.482775080431566,13.117088332789763,26.287533284714073
2.404,15.791262847312737,8.596143312446088,9.716267497747708,6.07702657709558,17.26113560577255,3.1928228946601394,15.80235368432011,27.129944046523292
2.408,14.855120046091315,12.072850056239872,14.699422406681833,3.3728850864649758,18.996679509796706,1.3231334234766337,16.08172827763451,25.902006468796003
2.412,11.914636724575644,14.14107811894155,17.732186574641673,0.4211725455149349,18.584520446133695,0.39005533230897527,13.561605902218844,22.611375289736316
2.416,7.430885411028385,13.640864893799233,17.252987270921153,-2.9660510373350917,15.559260807508053,0.48047897288074637,8.611616983563863,17.85122034057224
2.42,2.514791057196817,10.63367606507444,13.145542111520513,-6.490572170124437,10.6089641150989,1.3374601854665116,2.4915966758969716,12.772471159956751
2.424,-1.484477343615481,6.390782043118179,6.892465000505581,-9.343777421503887,5.406062928325753,2.5561137661329667,-3.0106310910025513,8.679231392892007
2.428,-3.502975954928843,2.7497250933103032,0.889360744695864,-10.559325902109322,1.8108615068388758,3.7901838956024676,-6.289258831183474,6.457764524525601
2.432,-3.1503625336374625,1.2004781422845099,-2.70581616207312,-9.537956089090358,0.887960710507059,4.878209172132415,-6.614022432794513,6.175193251947007
2.436,-0.7940522079666152,2.188669162621295,-2.962173262421743,-6.420988544829129,2.3088865536690264,5.850086161242984,-4.431424479425232,7.097729695721057
2.44,2.6697207181816793,5.0006364261883505,-0.5079660751985102,-2.0934660250197226,4.511279516094646,6.831961019615392,-1.1258085381712135,8.123118163602442
2.444,6.214537053506319,8.236805481487352,2.9263256877827644,2.191411669156423,5.542613570215281,7.920756936894577,1.6571544916259882,8.379265736910156
2.448,9.045633948067916,10.586163403244711,5.471244350820484,5.3595023109553495,4.143747268746779,9.108748790856225,2.7798325170903126,7.648768417532381
2.452,10.797960145429215,11.473332844076992,6.0532331637167545,6.944474072979347,0.45909156720568944,10.291201949537935,2.072324547318999,6.383211080528838
2.456,11.53051592060092,11.237251928301077,4.834456596062523,7.190134146305468,-4.032638599088614,11.334471330218093,0.27473886381335433,5.33302096851412
2.46,11.56382449950388,10.806419492794475,2.978503865670177,6.792373149492732,-7.317575679282413,12.152504723125958,-1.4647411531977923,5.047772737603964
2.464,11.271905484690933,11.101390285746163,1.9488703637457547,6.453266619665328,-7.934890844482311,12.740436420296191,-2.2227817099698086,5.569104165906879
2.468,10.923993885379105,12.53409607628032,2.7419579710409607,6.510589863923997,-5.7330592740996735,13.141544782587971,-1.7219094093840113,6.48390596451992
2.472,10.625271362180229,14.871085877152211,5.441141815583137,6.832225558382788,-1.8839443441459025,13.387478383263897,-0.343275391555494,7.273101622108641
2.476,10.325402998970276,17.46840240054553,9.271118268081182,6.998500204589391,1.8212252538796747,13.460367883356184,1.2221596299499424,7.70693028390582
2.48,9.883888459168475,19.698229354421755,13.037257796630684,6.633087867788049,3.9748791127119603,13.312708248817444,2.436838824436336,8.001605035455043
2.484,9.174591291588513,21.272513509741998,15.678970463910105,5.678510130107952,4.270805453950061,12.942914744874543,3.207052364194169,8.63888131319925
2.488,8.193024272346975,22.293622638426314,16.665358110839406,4.464644964772788,3.5640557079099153,12.464797703198656,3.8344079763405716,9.977975980126189
2.492,7.122114259045702,23.05340043857791,16.095614262420213,3.550627024777441,3.2847336144035353,12.106852378791928,4.707857346849323,11.933348296186978
2.496,6.313527843828297,23.740393943752792,14.535028145447427,3.4450812879697423,4.570154816089257,12.114482884375548,5.965037766237629,13.947504320250232
2.5,6.170118014134232,24.275708975281646,12.712307412154132,4.352690641931986,7.627368971605506,12.596550833504352,7.340880663767848,15.290581767702122
2.504,6.957643194660022,24.36481234790824,11.221298823524194,6.0715825863250075,11.638169477399401,13.404773372058116,8.296800516192206,15.503047504372603
2.508,8.62958656772048,23.724858237580293,10.333245927232042,8.080662814044558,15.22874862917979,14.134903068548283,8.33594331399786,14.695297635412317
2.512,10.761369222833537,22.31623255765942,9.947717516156331,9.761088972524249,17.190012700920306,14.284428270526405,7.297010250081257,13.49981189493684
2.516,12.64801266880363,20.408164659577892,9.672135338411636,10.640656678721825,17.02950723770141,13.492784276862722,5.452691677972098,12.694903840107145
2.52,13.56101644730893,18.455500827242645,8.987680041716885,10.554033272573975,15.088855847040577,11.746338761097377,3.352992101284144,12.723960647491595
2.524,13.046246460800148,16.849171588523404,7.461299886506367,9.65698123386494,12.211010047942636,9.432152326267214,1.5324760712601346,13.41035205101889
2.528,11.115241830646255,15.710026909551289,4.930494740734957,8.306683955196945,9.218637969096903,7.194585224041475,0.2566561922665187,14.047229774859375
2.532,8.251255477709037,14.877213132833162,1.6005923477314354,6.892588415790215,6.534193856418369,5.665342016290651,-0.5408459250754731,13.812252620419713
2.536,5.203969883208856,14.07604542786089,-1.9846201020491208,5.699880575264274,4.125831847047266,5.195185424752026,-1.1124970937451053,12.25604475082082
2.54,2.6749179778357757,13.153823693689105,-5.125672664156355,4.854677562631537,1.756031241873302,5.720342817787014,-1.6722624565747992,9.577896482320398
2.544,1.0540580507515642,12.211558339577095,-7.230774139698724,4.34602955533569,-0.6918357811354099,6.824890110732213,-2.2243675355175583,6.5320778137974
2.548,0.31401159991992245,11.54107972381155,-8.039946536926891,4.079767444661229,-3.034393728400687,7.95117522823989,-2.5578326894287784,4.019250172538932
2.552,0.09581890938579818,11.406320576341614,-7.701398882598141,3.914552505953452,-4.866071718345324,8.637925191478644,-2.402901124773962,2.606764314651741
2.556,-0.08118981665779756,11.804500741402194,-6.646095705881862,3.6587961003173177,-5.82023218363895,8.664911661793212,-1.6221586445185494,2.2606818534432023
2.56,-0.5814190168980531,12.391035396462371,-5.335903286872735,3.0498409663492794,-5.813138949638187,8.062416666640502,-0.3268817095790837,2.426960140903361
2.564,-1.5015259603958384,12.624670625083695,-4.023668208704521,1.7699183767067552,-5.112092255828088,7.015040617605791,1.1516605636668373,2.3992535320219304
2.568,-2.646284097545049,12.071523799714214,-2.668038380486223,-0.4514391085366469,-4.179269500909527,5.746330124278302,2.4110252933685388,1.749940571541515
2.572,-3.6219210771139387,10.693509729207676,-1.0625050619391914,-3.667845564134268,-3.4043560922892766,4.457424841529701,3.145980910468097,0.5643107088901615
2.576,-4.024277214765789,8.909356924001486,0.8998689023535462,-7.577690680751289,-2.919478493961833,3.3252193516609623,3.2523697347714915,-0.652677014942924
2.58,-3.6405600051039073,7.380814667304776,2.9852402099772917,-11.532968334505199,-2.6086325133130686,2.523034228132701,2.817417847644947,-1.3308209794729464
2.584,-2.5837129443502818,6.6182631106948975,4.572272899268455,-14.750036396564724,-2.319697600113159,2.2066804346272875,2.024694215620457,-1.2320367551776599
2.588,-1.2998614474304304,6.630548888176804,4.867721258808842,-16.652529658897947,-2.11253751991444,2.4404796232024637,1.0413727520008251,-0.6581091414522007
2.592,-0.4133211962225687,6.849117735314849,3.2942225808471903,-17.172654635720278,-2.355936378231945,3.1100118612946517,-0.05464389983262663,-0.3454164872906631
2.596,-0.4390840679752728,6.403080996515996,-0.13606627386934633,-16.81248802411301,-3.579296043182694,3.8956990225503887,-1.2785117057869684,-1.1048280911387565
2.6,-1.4769414972688537,4.625263586386154,-4.691560674145194,-16.38929773130701,-6.135714611665776,4.3605605107547944,-2.7007795272661497,-3.405284504528595
2.604,-3.0503845491730317,1.4980401281819695,-9.136432427205818,-16.569405331045573,-9.893028092731697,4.142530092497509,-4.3884558932361415,-7.115517571744135
2.608,-4.21563458845776,-2.2220447642491763,-12.208735602033812,-17.44762468806698,-14.135885827965694,3.1582511519497984,-6.346943001048885,-11.531976088408669
2.612,-3.9443716273667633,-5.296614347600666,-13.143147725641256,-18.43183969362144,-17.761141091365175,1.7024468860188335,-8.463281885438164,-15.665059459737563
2.616,-1.6491801404026774,-6.597342815706497,-11.975193017489573,-18.540710997792758,-19.695995316692915,0.35660326968377376,-10.462550910217715,-18.631799013690397
2.62,2.4059768917127258,-5.692259944019838,-9.503693317203442,-16.995311456991658,-19.33860605485654,-0.27150154320088404,-11.931637943879423,-19.968222571042247
2.624,7.053546252378055,-3.114279671210511,-6.929022338301138,-13.766668989280788,-16.80983120636131,0.15040358082615057,-12.426326767800674,-19.71877166571187
2.628,10.638070188048005,-0.12699769781795567,-5.327377419198228,-9.721724871361175,-12.88148477934078,1.499964730411648,-11.649141245313558,-18.297938623843947
2.632,11.713497681781064,1.8811409452108592,-5.23411675356374,-6.2615837429164,-8.649174288937388,3.234712604420565,-9.64941098902159,-16.238203914751352
2.636,9.72457211719302,2.072656936021758,-6.493891133024135,-4.597138829424921,-5.120988487353543,4.64076587086447,-6.921602895964725,-13.969873457147628
2.64,5.309661948298981,0.5551146902402024,-8.426961312933827,-5.074461125974722,-2.906881306975265,5.154926375786999,-4.319480880004903,-11.751119009706485
2.644,0.04701507986055731,-1.7206034037106974,-10.193164778640948,-6.952942642335074,-2.1300323629968716,4.600115732620452,-2.7589343172764984,-9.73509721862149
2.648,-4.251143806250184,-3.4954082195354204,-11.160203249947472,-8.796069696539917,-2.538664402592758,3.2098168512966367,-2.829037625373303,-8.089712316377813
2.652,-6.343269396877986,-3.86324426824126,-11.105973935009388,-9.274185051638597,-3.6955513464779415,1.4444168330674074,-4.4869066820767785,-7.0606554807951625
2.656,-6.070152420500108,-2.722753183710438,-10.191406834914687,-7.9244271650195515,-5.136422547004031,-0.28846445220460737,-7.003949394979372,-6.907505623977158
2.66,-4.325576782875942,-0.7735013743076706,-8.777009940651851,-5.4246822154239,-6.431055579513895,-1.845677226593125,-9.2490105256893,-7.745652780982141
2.664,-2.5203598197922474,0.9140052646821459,-7.2047199968421864,-3.2054669441263286,-7.188461583598155,-3.363118653393485,-10.189532116303326,-9.388745088778705
2.668,-1.8471991367987357,1.4973903523814442,-5.673413889821177,-2.620709473295392,-7.075597606704605,-5.079563046565909,-9.361362081128846,-11.326088985562933
2.672,-2.7423810296363627,0.7918634570828544,-4.269762591176004,-4.160754232623503,-5.916341350647144,-7.0890516541098805,-7.085259348818454,-12.90188296779786
2.676,-4.794317369491637,-0.6959720162499252,-3.0823271241631574,-7.1555226196041986,-3.8379845966949233,-9.18342937633497,-4.303072140030054,-13.615874753803837
2.68,-7.09483477409276,-2.1126513445574346,-2.315985153423526,-10.146063533636152,-1.3565618828201877,-10.897746055418793,-2.1268262650205543,-13.395784070514765
2.684,-8.796968581656529,-2.7731674902520353,-2.304514245022119,-11.696526567568526,0.6833023100582523,-11.740915706957821,-1.3269158631655955,-12.671813165558092
2.688,-9.546915937985432,-2.5436579867930504,-3.3846931849748216,-11.169258622198186,1.3593834466369117,-11.48233763983717,-2.032765268159892,-12.193469422623025
2.692,-9.573443133961064,-1.8826899619507458,-5.691892999069978,-9.02818636111283,0.04614737148312997,-10.31742259557177,-3.7736768456243226,-12.650248364079175
2.696,-9.440719897907002,-1.5445158460859147,-8.976706310566442,-6.513595196887991,-3.25989984382727,-8.8099492126521,-5.792610079211499,-14.284699662363437
2.7,-9.639108426898929,-2.106970357558339,-12.554881662062144,-4.906654390763833,-7.826330493846399,-7.627812962618464,-7.436137775878251,-16.70781659115039
2.704,-10.278988624321755,-3.6201570694861402,-15.449478759915337,-4.8377250859052765,-12.388448637865622,-7.218189008096488,-8.3947084085803,-19.034420093371182
2.708,-11.041354204372055,-5.551435727385524,-16.691954893932234,-6.012078517162536,-15.59638938563694,-7.591406191327678,-8.688200272000813,-20.27788359046872
2.712,-11.377882582463371,-7.030318718489525,-15.67600014441041,-7.4691888787383505,-16.515238899477026,-8.329249847098708,-8.458181819824858,-19.80980561561273
2.716,-10.812146116479653,-7.256865824741226,-12.401149659610837,-8.167040356214784,-14.960516651331545,-8.808287866515457,-7.73085443697255,-17.635719896102273
2.72,-9.16445797594588,-5.853763155481829,-7.512243655047769,-7.531896713498554,-11.522136155934277,-8.51078864346664,-6.346547635273964,-14.353966166677765
2.724,-6.6060712213320585,-3.0165998529967055,-2.104872560831609,-5.672563165484689,-7.28894923896496,-7.256846260034763,-4.113076960768012,-10.826051407451587
2.728,-3.554343668401998,0.5939623190618022,2.64618143219559,-3.189627415815721,-3.3972219571680853,-5.247719184512789,-1.0516024243506763,-7.744893442681587
2.732,-0.5114402181748119,4.135537157229237,5.8778373719060255,-0.776870549265368,-0.613236020198201,-2.9273727511740617,2.4490900049472657,-5.337500857648365
2.736,2.054595641092874,6.881947798219471,7.302341870635928,1.106373723092247,0.8633974074558637,-0.7688876856377647,5.69721431713856,-3.3685734897268276
2.74,3.769336584078701,8.437549867908274,7.23608942528017,2.3309526319478664,1.3348183654923105,0.8921778569365415,7.981778978065449,-1.4191194835902934
2.744,4.374159476900786,8.7964537449609,6.382306521094506,2.9795722885692157,1.3315386987322881,1.9087852126285725,8.926293732853992,0.751027855910138
2.748,3.7695006366902817,8.267409558153986,5.472620119636758,3.1712215212371575,1.2962354251510533,2.273016807386739,8.679724540194456,2.9743283048250078
2.7520000000000002,2.107612551996681,7.341307927346975,4.938742251510348,3.005377557153224,1.3956186110575572,2.0513398367284026,7.826485152722626,4.734906877860908
2.7560000000000002,-0.13497213438222389,6.53912632953552,4.7770723439618905,2.6587730714782083,1.5294746708614184,1.3698678056607605,7.0657517924182685,5.4904640306695
2.7600000000000002,-2.2073281410321215,6.273120457460777,4.648592646842644,2.490674518647211,1.5042313704067283,0.44105509691780753,6.818254067189173,5.055914772817346
2.7640000000000002,-3.3012023913893245,6.731165888789633,4.148922764082954,3.004204393408372,1.236146737764443,-0.42635347201985496,7.008760853186914,3.8254958747041883
2.7680000000000002,-2.8534230115956234,7.829236240145747,3.109196530046347,4.625333979199013,0.8758161777425357,-0.8878107019309027,7.1567731064219515,2.6808035371509504
2.7720000000000002,-0.818136582119223,9.245130198535207,1.74312074550744,7.394635686626771,0.7659382175438623,-0.7069549984371406,6.701534965289284,2.5956053498013034
2.7760000000000002,2.258919758981847,10.537161166952956,0.5728196311813463,10.809205018594866,1.2618268526325664,0.08859742864888176,5.385473451044845,4.1532122482980185
2.7800000000000002,5.440933766991748,11.326957014221762,0.16657459080283843,13.97166584504248,2.5326360918461432,1.1588260656753846,3.465944738393773,7.22989375150712
2.7840000000000003,7.7753075794807955,11.442160765482527,0.8244032107713792,15.990440330502679,4.427161669933753,1.975346580691621,1.6125327785612171,11.00414338544681
2.7880000000000003,8.656767980826316,10.946761707883297,2.3839325885098788,16.401192056911896,6.4819907251551285,2.075222475900773,0.538362908152294,14.290705338381827
2.7920000000000003,8.01290738861644,10.054054663345596,4.249571682845271,15.340397141120775,8.07833664460918,1.3170391440621643,0.582156626731603,16.0443585165591
2.7960000000000003,6.241864935791455,8.97047345852934,5.667129616625743,13.356781108354426,8.67675251250057,-0.016582191839461302,1.5055822694969265,15.805592789100842
2.8000000000000003,3.9510700275614,7.766638654868643,6.086381735090981,10.973477458832576,8.026205975189782,-1.3565289250518617,2.6113453023356215,13.869231722297855
2.8040000000000003,1.6715989452295617,6.368214311743827,5.433493522270965,8.31632766095936,6.254340202419144,-2.1529979829556396,3.127035758671582,11.123133505739474
2.8080000000000003,-0.28572162186264904,4.695661306078591,4.16709811436067,5.095854265483467,3.833159003371179,-2.1803912316222522,2.649740043820202,8.653366919269502
2.8120000000000003,-1.7868708877804238,2.866163678176008,3.0786256058679555,0.9844638108761501,1.444536117106395,-1.6497261633744529,1.3999751907608697,7.297990121708153
2.816,-2.7282629925116453,1.3022535844112326,2.941843537587147,-3.8548299285475878,-0.2075608573941281,-1.0594481967959837,0.13501117092960158,7.330545011612799
2.82,-2.923132943714336,0.6544844331700688,4.181911443102081,-8.477995370423969,-0.5678247510342089,-0.8646839439486484,-0.24730740058066658,8.390339719006874
2.824,-2.143738890318218,1.5195252097872753,6.714611165085216,-11.38785417711324,0.6351523052770744,-1.1696024353996108,0.8093050877841961,9.674183247164365
2.828,-0.30636990641460216,4.093018363762553,10.017961653576549,-11.236879408164668,3.311509721274547,-1.6420994828586117,3.202493325412661,10.28751515021554
2.832,2.335275005544645,7.9609737735522685,13.367574007659414,-7.619700001917181,7.005020605445679,-1.709612166485158,6.183008053385947,9.608030254195
2.836,5.140955576015585,12.162880995286855,16.11234865137135,-1.470579361389241,10.958696523997446,-0.9279389431092113,8.700950723471124,7.540729570227768
2.84,7.268358628391979,15.549382655762656,17.865269757189026,5.220665950291163,14.272583317135286,0.6991857676316613,9.90004303801993,4.566780992954477
2.844,8.016643886664042,17.256099709495913,18.533889036663993,10.271097233027945,16.11453608554433,2.65273337203962,9.49818513838909,1.5687128993142778
2.848,7.145800314596158,17.043293833186908,18.211482116669117,12.281640730663696,15.927179339451982,4.126221829496103,7.875961166325055,-0.5123586897253745
2.852,5.002718934426639,15.338716710098424,17.03445890737794,11.201118193101593,13.591447688655649,4.431499125179698,5.839228911587952,-1.0490783064749394
2.856,2.357892105571409,12.946615969068944,15.109028325096006,8.181072045573387,9.47355246636073,3.3575363587619904,4.209687546773694,0.024282793626070998
2.86,0.046596803495731365,10.607178333183697,12.546513001069115,4.843556910058055,4.342968493162857,1.2885818873253356,3.454659777184361,2.204618962010045
2.864,-1.4011142839399326,8.643238920552676,9.557282345688463,2.402785678417672,-0.8382371101231456,-0.978251538169161,3.537653974030718,4.665167392758008
2.868,-1.9364874362488536,6.900504362095376,6.521324582560965,1.151213034068519,-5.175175334322375,-2.6083372187038094,4.030491294570993,6.628727745271931
2.872,-1.9026947972208745,5.0031923827715445,3.94496296309012,0.5546928490767868,-8.057841882957518,-3.087753360325223,4.387291323128011,7.703422858712088
2.876,-1.782025071610633,2.733123499918406,2.3029013676457453,-0.1897689287321782,-9.280772171824879,-2.3914490090944582,4.237698230444039,8.01557919453387
2.88,-1.9212064253374592,0.30490127226232744,1.83842464854024,-1.5273399025982144,-9.017451055212291,-0.9005600095567843,3.550868810203383,8.07492812335181
2.884,-2.3717579961573847,-1.6400124345010454,2.446849000946486,-3.2416286080963346,-7.679833824185721,0.8602158785981828,2.624045149514359,8.461682707134742
2.888,-2.9069898284992632,-2.335614130734598,3.719517986840401,-4.6310529938517675,-5.731809813764357,2.4960398579110006,1.9502979170226808,9.504398859078151
2.892,-3.164629467867144,-1.306543525952975,5.137322899209494,-4.993698964796977,-3.5219657307700345,3.8876976444364573,2.040485773972023,11.122462602046426
2.896,-2.818112742505946,1.3281950037785464,6.316610249390578,-4.06643246699457,-1.2025963660038315,5.156723951884487,3.2735703904361344,12.902491654739038
2.9,-1.6939152490620017,4.846787283270487,7.144160958411135,-2.1428139701566806,1.2366964601188783,6.495909906387851,5.7798579649411295,14.332147861231533
2.904,0.18014692728183945,8.207498708752382,7.730321453153465,0.16031332802549514,3.8382255059351564,7.989211195402049,9.360150097417545,15.049505589325918
2.908,2.5750505377020545,10.474058283501563,8.223474064712263,2.2927827694326197,6.53235290605312,9.52678797913677,13.467718296287103,14.968296803559156
2.912,5.0855733896821675,11.174087613807046,8.61071525486841,4.0354761756061635,9.062565359276277,10.860402944733096,17.28122685720018,14.241333376557407
2.916,7.194264340997279,10.423906991386957,8.67356359819405,5.484821707280048,11.021791322672243,11.749408435444366,19.92839539670922,13.123919163525272
2.92,8.407670556894345,8.816778538705194,8.156958523450953,6.829849917256865,12.021893340916108,12.117479035092629,20.808244215549166,11.866535631728993
2.924,8.43549551114802,7.136586969365908,7.039150596601189,8.119902686089176,11.892104446084545,12.117278202965736,19.900065944617836,10.695987536434473
2.928,7.346965044688432,6.044238366487832,5.697731447715114,9.211152541584283,10.789865976331498,12.054360353039101,17.86381022111584,9.84796783443096
2.932,5.600863976397932,5.861994791185509,4.790498756936813,9.912156087867288,9.140471423919223,12.209376605526359,15.78494531775209,9.55615980792453
2.936,3.8573952803176326,6.485010876674153,4.864443715432003,10.171996068100043,7.397534423506954,12.637850925737894,14.623674298120704,9.920882645495794
2.94,2.6228894448308893,7.416520091819336,5.886922914511729,10.1202797216107,5.744929879156871,13.057937848007441,14.607297776886753,10.689400055136957
2.944,1.9081708110179534,7.890586410747005,7.014303624564263,9.894409551419244,3.90180714411008,12.89926974570426,14.919090080646129,11.115520504665483
2.948,1.116043834783568,7.066365767085927,6.821043248318347,9.37272051134812,1.17615257262878,11.518942646831306,13.93907060150184,10.068163097199601
2.952,-0.7115917559567606,4.291237015774811,3.9562238376452115,8.045617897143813,-3.20247702128529,8.499349706725866,10.004099030983753,6.44906628834741
2.956,-4.352505771503843,-0.6149589217220068,-2.0531476291199624,5.217215946534736,-9.596944503424425,3.907377528717916,2.382270670552998,-0.2008325119750225
2.96,-9.834938047021524,-7.144411290344237,-10.303158370689289,0.4920253858705337,-17.55563831740352,-1.6178563318794659,-8.066911965094278,-9.2252563253179
2.964,-16.16845495929931,-14.084793663794017,-18.64193864321237,-5.728793996092634,-25.73155738993688,-7.004583600629985,-18.94551104136383,-18.807603076773262
2.968,-21.569526700351616,-19.778774428766724,-24.424992212922007,-12.079737478254742,-32.21613784869936,-11.074292002560469,-27.147235538388145,-26.478890307521397
2.972,-24.12531441236763,-22.619035521422745,-25.573564108173628,-16.590486631101726,-35.18217249677957,-12.924806589386549,-30.119072134397584,-30.012458824134683
2.976,-22.593014472354753,-21.616617796539913,-21.41512234271113,-17.4633134110901,-33.57105211440921,-12.206916765668552,-26.923964330537046,-28.313381849081907
2.98,-16.950200838518867,-16.80142201805387,-12.917130820274679,-13.89873580685503,-27.508035757361597,-9.194980897276082,-18.587194587123236,-21.880421558822775
2.984,-8.439823291715811,-9.279695877101688,-2.236963108593386,-6.542974818335381,-18.280587289616733,-4.6373860119765595,-7.568650287934815,-12.597853441485256
2.988,0.9037521537211433,-0.8959935111504933,8.157069126346414,2.6957257197538524,-7.8935337460901565,0.5264673591525479,3.361949595919782,-2.946039885014784
2.992,9.004556175434914,6.377109820565067,16.333758510262726,11.382429645789102,1.599248534491835,5.444908299055442,12.241903348370215,4.974901275587172
2.996,14.412491782264055,11.057975126077565,21.35608839106476,17.48835754864831,8.693203536634599,9.52196491186578,18.472703767616622,10.152219636089114
3.0,16.62972243509489,12.56312041639461,23.240495630246073,20.078876980963628,12.763437625050358,12.44268446006106,22.614421065866054,12.802173905288726
3.004,16.025987328319047,11.258586191610732,22.590804991423965,19.45248357537332,14.0376899868657,14.102437319572118,25.635471666808712,13.944216171358107
3.008,13.49816745142391,8.190650835422048,20.215002542019135,16.754493886866328,13.308290465527193,14.53308719400195,28.118367152627002,14.703986555754568
