Timestamp,O1,Oz,O2,PO3,PO4,TP7,TP8,Fz
0.0,-1.9184653865522705e-13,-1.1937117960769683e-12,9.237055564881302e-13,-2.8421709430404007e-13,-1.5489831639570184e-12,-4.988010005035903e-12,-3.765876499528531e-12,-2.7711166694643907e-12
0.004,70.75918308718336,61.369078279839755,110.86133515656498,69.84020089859318,41.78908282875693,35.90926146651137,60.3092823419138,-22.02262881456319
0.008,121.74402078333564,105.88048155189499,191.72959687243178,120.42582201202092,71.83543549154825,62.2213018424703,104.22936357132312,-38.59677674276979
0.012,142.0086096584247,124.24438214245916,225.950192413786,141.13154824320722,83.75002036293006,73.55370276424513,122.64353375370268,-46.49245641283915
0.016,133.7300272573026,118.38037430220083,216.691291204654,134.1306200478605,79.04902153122939,70.79793850504957,117.2329200968939,-45.86318733538296
0.02,109.9182642945388,99.37664932444719,183.4713536843948,112.09364081953228,65.64876025379925,60.03608964825452,98.57599976225852,-39.85493992148689
0.024,87.01641207380703,81.0859494091352,150.97646793784685,90.90673172856108,53.27375007832392,49.043444667084344,80.05595921956692,-32.90577638267962
0.028,76.62418034867,73.05890600218592,136.57239562122965,81.59825319842135,48.4324190928762,43.38889866136461,71.0873927564403,-28.64923098774247
0.032,80.80746605351314,76.66653486173968,143.24995116911828,85.85304788167,51.721772854893516,44.24184941117099,73.33676659161621,-28.47378826366932
0.036000000000000004,93.10028648551749,86.17206784160447,161.18397517412663,97.14252854484602,58.705598077380856,48.84853840775318,81.63132552291955,-31.36540619174521
0.04,103.90170235878315,93.52683921224161,175.9225088942697,106.12485524328093,63.438255043589145,53.02088640852689,88.4272954913686,-34.95454429316571
0.044,106.5814741910817,93.60755904904588,177.63053792871077,106.65508034631142,62.27257897993126,53.897530901280106,88.74685656727254,-37.02704093143636
0.048,100.7544554689587,86.82363162031449,166.02908600771923,98.89576057591997,55.7231176003514,51.35057121039523,82.69646774061394,-36.674511587083025
0.052000000000000005,91.32055264653297,77.96937528567548,148.91528708903456,88.18196663443695,47.5703517191452,47.47275358248095,74.50605288586702,-34.568474211725615
0.056,84.53907871494769,72.5684710155657,136.18355648444663,80.97613065210385,42.13838705821349,44.81079010148322,69.23002430171695,-32.35153020922926
0.06,83.93408115141133,73.27125320476452,133.56984517840738,80.73773247811417,41.60592520331412,44.641371404395684,69.45723766618636,-31.60682213544822
0.064,88.46055688016583,78.45257771100822,139.7981564828462,86.15452804760659,44.93853699029158,46.340520935927074,73.99456617907367,-32.96993935589637
0.068,93.75228262869855,83.64250490873071,148.36538094126104,92.51361096763742,48.90204664144693,48.0797853278155,79.0906010255446,-35.83721244954395
0.07200000000000001,95.31375552907774,84.63503013791944,152.29861196538712,95.02022617575022,50.32384642271894,48.23372047352778,81.13684412483936,-38.76028491703334
0.076,91.46163148572987,80.18940228120348,148.61217438366288,91.81648417899109,48.09312086042802,46.499485400021186,78.9866787042059,-40.24942785330527
0.08,84.18814879372596,72.6558128991575,139.71634260690809,84.84894559107943,43.67399730372098,44.00498020285549,74.45214098291153,-39.5467983310683
0.084,77.54240602412038,66.23759188561726,131.1719668079981,78.21566374731579,39.923123277794986,42.40432357005996,70.77102161848049,-36.952615125292965
0.088,74.82710850971812,64.19427434571732,127.67786221701884,75.32543929845332,39.12190919898945,42.6615466726311,70.25309172752554,-33.60018534485449
0.092,76.5711113163221,66.87634550470545,130.14636354625168,76.84901364929696,41.571643255868025,44.40905523742354,72.77413899745738,-30.85208249868274
0.096,80.52608775242024,71.78286345322977,135.66582388391538,80.70268135427833,45.606336366826845,46.30394961112889,76.06646903182703,-29.646313220663366
0.1,83.4643768210661,75.41452142192587,139.9885301645073,83.82136292210535,48.85605581798197,47.04309320515481,77.4504092949496,-30.096403054884703
0.10400000000000001,83.34085646530305,75.52130823368573,140.48106715120446,84.28844457433429,49.77937633035647,46.26005328242801,75.66523424127755,-31.465957635391796
0.108,80.41216142119359,72.32225122970674,137.55217751431684,82.39592798484559,48.47161351629319,44.700015222183524,71.59500168152279,-32.51496876210943
0.112,76.76612411503413,68.09099699132628,133.8805682333267,80.11601286516603,46.34412625275395,43.62625818695246,67.544224280918,-32.07464487966453
0.116,74.77935910470006,65.57189058741963,132.287800978144,79.55371232159536,45.03425989177273,43.938290696838976,65.68525696141407,-29.606820253714176
0.12,75.58980335982622,66.30485229835446,133.80993673572902,81.49465366495147,45.31680895143458,45.59525490425383,66.72930647945452,-25.50581218186595
0.124,78.45920678719631,69.79902113165932,137.09647430741606,84.91704104363,46.66571709732191,47.67746333097741,69.57941911933273,-20.95237579973871
0.128,81.34535914862207,73.97105573672991,139.41350472812866,87.71292568121629,47.69541038118873,49.00639569511234,72.11242693867615,-17.37558800002129
0.132,82.26068049639582,76.49602938226138,138.52877643435556,88.10944244662575,47.16706187645078,48.91035344762831,72.55419165549606,-15.783111155052296
0.136,80.54458854298134,76.20850501382077,134.24049557083595,85.86271395261608,44.907333399178384,47.65440324786175,70.58679244372844,-16.281646020626127
0.14,77.27212223575569,73.71870754300068,128.57871772244664,82.47043388974635,42.0510204934331,46.25957150040498,67.5133712936192,-18.022193726783932
0.14400000000000002,74.53661493654374,70.90316396755131,124.51562010837327,80.25105318152956,40.436590403478824,45.834724532588844,65.39027038639352,-19.571562399110555
0.148,74.13499987004717,69.6943580168596,124.10173288394779,80.92353007410779,41.54383601491341,46.86630930213363,65.73899914271705,-19.55723070304618
0.152,76.52975974787981,70.98078017773412,127.29131765809919,84.62496104242089,45.641096602461374,48.93390423309172,68.68527425845254,-17.29801994440342
0.156,80.68476095447784,74.24441775649743,132.1449082082447,89.92908140582503,51.62783010078158,51.014010428739894,73.01558049137807,-13.123264303054562
0.16,84.75032765504554,78.01679351495225,136.1107862419638,94.73204550432148,57.59084832511642,52.11696551374126,76.99563971753068,-8.229944739028987
0.164,87.00980855221825,80.69135523064703,137.37818210976283,97.32283111098664,61.6727322450677,51.80720506652658,79.2886514306956,-4.127520884217908
0.168,86.56388745271695,81.2201913410257,135.54898109396595,97.0438146815044,62.79574960573001,50.32561503565417,79.4629376619861,-1.9611061554132618
0.17200000000000001,83.54156820396847,79.44254177712207,131.49835999139776,94.34379343835704,60.97982014336901,48.33964004148139,77.95326084398997,-2.0587395717654147
0.176,78.87806583890236,76.0071774466295,126.7314684404322,90.35939936544213,57.20471341339595,46.55006473389045,75.6516343479552,-3.912186916331848
0.18,73.85613112706146,72.01372149516914,122.659703496287,86.32787339807678,52.9348415168507,45.39322309291657,73.430342180305,-6.553180800005194
0.184,69.5643314935233,68.50956181806117,120.0288401531602,83.06221902618188,49.503844149445044,44.92608030325487,71.77974824804024,-9.044474420597194
0.188,66.51411313819943,66.07590915348698,118.71050664750958,80.7065407243679,47.620386460342154,44.89084828115256,70.69711405441163,-10.836529105970342
0.192,64.59644410753069,64.70039794316367,117.94839107395192,78.86005054219021,47.203133693950576,44.893985218571785,69.8556862662175,-11.86083026922303
0.196,63.359480779267145,63.966469723435964,116.9164296433058,76.96347951978179,47.58600742628063,44.603183763414364,68.92616887400797,-12.377747796903904
0.2,62.38754651518995,63.392659279835726,115.23153303680238,74.68303452482456,47.92703059667953,43.86199519682219,67.81935754977391,-12.727579397514258
0.20400000000000001,61.48739146018909,62.66399163010272,113.05691299222765,72.03276478702857,47.57951367389429,42.678711721855464,66.6688883910725,-13.103106215526637
0.20800000000000002,60.643730840222716,61.692099854596094,110.84159886263481,69.24601385322458,46.28821559987286,41.146709262283025,65.63215491239367,-13.47327524171438
0.212,59.89393384355638,60.575397466821315,108.9932928908035,66.5881176278692,44.21347555161571,39.394909535528846,64.71563878994637,-13.69193265348321
0.216,59.27647764462641,59.54934437254714,107.7301190087098,64.28031002116651,41.84798945679324,37.60583313654401,63.77996816486856,-13.67322091915085
0.22,58.86657440801481,58.932732250500756,107.1052026058328,62.53203771197758,39.843664357048446,36.0247355190317,62.6826934154785,-13.497552497964488
0.224,58.75650283631164,58.98009643138973,106.99170744593897,61.53007024415137,38.75109544842307,34.86940703933158,61.36617944274636,-13.352091890485262
0.228,59.01616439895237,59.73324346399916,107.08457807388959,61.39397327097521,38.78427431538819,34.1979213366661,59.870519968452186,-13.375560875076118
0.232,59.6692780126023,60.969731521647,106.98878591832217,62.1370210022542,39.722935661251576,33.84840076377678,58.306025463647785,-13.535728345390169
0.23600000000000002,60.6127058431077,62.21884942277248,106.2747952682225,63.58087971333645,40.94928136477796,33.48790575182066,56.75196301993543,-13.6172321397895
0.24,61.58196494627241,62.89908374429754,104.59507172690215,65.32819411852205,41.64279458223123,32.783379560775046,55.19809070396312,-13.368131858926109
0.244,62.23701797022517,62.56242926712655,101.87914751542682,66.86062555713738,41.096666468279956,31.620747281489766,53.597440954373695,-12.722791421291475
0.248,62.29459904617211,61.10196279169118,98.44671133527207,67.6927789465147,39.01073300405723,30.219024452401438,51.95623925006457,-11.938655608813935
0.252,61.577225053460054,58.760016790920645,94.85988429488629,67.45888286848256,35.59216262123673,29.00590954933327,50.337611504161806,-11.526983927576687
0.256,59.99870352995333,55.96517008972594,91.62486184559043,65.95259435008184,31.45268482854737,28.32591861970365,48.797646213483944,-11.98887659539966
0.26,57.61788336746005,53.17566821566797,89.0608340832944,63.234346155654386,27.42212251100928,28.21552835499054,47.391722875574914,-13.522344469997183
0.264,54.70092789747956,50.77117698942491,87.33815428387683,59.728526651801,24.31486505064661,28.368953874841445,46.222217146168376,-15.879140577980511
0.268,51.70280867609774,48.98163689468047,86.54827394273897,56.18971545733695,22.70161675525467,28.30391978463634,45.450556582120896,-18.44393390558465
0.272,49.10082740982982,47.81062791402103,86.6303400536508,53.446621652770034,22.71685107388773,27.61507425825116,45.19022991422637,-20.491120432504424
0.276,47.180916121869934,47.00743252204416,87.23151438791517,52.0405767579824,23.992040781851344,26.188679455347902,45.35375826813964,-21.492320275367284
0.28,45.99164356219332,46.20324603943754,87.77979774408887,52.02611603617186,25.815359261298248,24.306047291314076,45.63919032853143,-21.34337301095937
0.28400000000000003,45.443898130532496,45.13316297829601,87.73762088785702,53.0005488939578,27.43638932182046,22.54818453703318,45.66449062732932,-20.391373818877923
0.28800000000000003,45.418793128198054,43.791230522111924,86.85407724121376,54.29980570536054,28.35240758425902,21.52075968942787,45.15004285918797,-19.237528479004744
0.292,45.7368519410752,42.378954529275696,85.18846114134041,55.20409325021346,28.407948715321208,21.495299096177952,44.006445850939876,-18.421484355846815
0.296,46.04411623808065,41.09756629586002,82.9276879958662,55.10341220207681,27.69786457653461,22.17893702079469,42.29900476429795,-18.173818644368488
0.3,45.84665768665985,40.01120430843079,80.28212739875678,53.689736519719744,26.432029925473348,22.82390386553451,40.21414544487317,-18.397074951568
0.304,44.719938766580064,39.05409335670859,77.49275668429783,51.10161263650106,24.842746463090638,22.6237079160137,38.03276180195018,-18.837987133637526
0.308,42.57232502073208,38.137609713021405,74.85659217429144,47.915236111651566,23.153330650172965,21.17806410781689,36.06940734706676,-19.297231687897657
0.312,39.7509643734214,37.22594338832963,72.62652424219284,44.90532464031982,21.55121999588259,18.737033433473812,34.53615466210529,-19.7229120920532
0.316,36.922558353401044,36.34578190843529,70.84797117694339,42.69253188846538,20.16702797378848,16.09975911325931,33.41756424582551,-20.12974962888539
0.32,34.86097571513548,35.6087792184157,69.3849749302372,41.539318829313785,19.10645423515588,14.25955368585334,32.52028878247557,-20.456178067240707
0.324,34.190038390868565,35.205269265866974,68.09156654384395,41.35200394523105,18.482423334951207,13.95094690399689,31.657272782469832,-20.50148437635074
0.328,35.14123973835902,35.32751062552806,66.96133397236119,41.822789880733225,18.404593546841184,15.317067322164153,30.814237707244445,-20.0162549073739
0.332,37.39327282729527,36.01567940446202,66.08680876953503,42.570643887112475,18.9067365736539,17.830226983852477,30.142629286664086,-18.893946477037545
0.336,40.108079156084415,37.02411832565249,65.47626270822832,43.22753295732478,19.872272161618017,20.517685778239155,29.78901817165236,-17.331069462051943
0.34,42.27545666973833,37.88719719344654,65.01147470413395,43.54990145358836,21.07999649011137,22.44517957252959,29.755196438058874,-15.847614917443302
0.34400000000000003,43.19242100327951,38.15523282470431,64.56832382355145,43.510042521358216,22.339740862032215,23.19591633082394,29.880606875594157,-15.091653986057732
0.34800000000000003,42.77978882573743,37.64005733642179,64.1590060104288,43.28556995015772,23.602748714494552,23.07275854732847,29.937257259775798,-15.50048934213081
0.352,41.50761793387905,36.47953510905087,63.90105101216728,43.09421897820772,24.932281523733153,22.867067211788743,29.744078192497525,-16.993598879381196
0.356,39.99198710252253,34.98972123051935,63.828191836883434,42.9763246015022,26.354350514394774,23.327430761287744,29.234522046969595,-18.904549864761115
0.36,38.606403947385054,33.472489164975634,63.80432724081356,42.74958041267911,27.741337811748934,24.676547678808895,28.51299953166062,-20.267467644765297
0.364,37.34111646697314,32.08760654493568,63.58161240398827,42.15990335703319,28.816293749002234,26.44738022920987,27.84712561914084,-20.316486876094043
0.368,35.94783634972851,30.825623214418165,62.93444903915593,41.11272527460819,29.27573624244694,27.725047155492483,27.54738854866389,-18.898561625407467
0.372,34.204153986695694,29.543305373196134,61.71714298078706,39.784694817884315,28.928474587617018,27.634862061289304,27.73392238236147,-16.55587951386061
0.376,32.134571107423795,28.05500191531179,59.84941030449761,38.54503342228627,27.78231935663557,25.820075160593476,28.147350033285317,-14.220626268928058
0.38,30.12465805491347,26.305674756747834,57.39758427684141,37.79765245470092,26.07193029929768,22.686336910915777,28.215155469383372,-12.717238183305025
0.384,28.826635590424726,24.515129628115737,54.68057821521494,37.80657762733571,24.197980903950953,19.26750487773745,27.35754359235521,-12.350301450412061
0.388,28.847424232638794,23.154232647309293,52.25254226508618,38.55259506584764,22.568698356534668,16.750417517824182,25.33280048804834,-12.803767303397533
0.392,30.331470075956236,22.685548018318322,50.63975792581662,39.645681029270214,21.39116453098579,15.881227852111653,22.3816933804328,-13.383281510409272
0.396,32.70064277628256,23.212671660889562,49.969223115736995,40.3813838444417,20.548457162729484,16.57847943026751,19.09834387715646,-13.434970147105753
0.4,34.83148723484804,24.330918793883747,49.85076605049035,40.03419710658962,19.692709537064456,18.016180887674913,16.171654198966827,-12.714929020144204
0.404,35.60533019638285,25.28738453168226,49.594228729356544,38.24679358222758,18.508343924271692,19.12192676996031,14.14262766048918,-11.48783586883226
0.40800000000000003,34.516832232965925,25.36482344451855,48.61794593057126,35.27993237958016,16.976490492683215,19.19130029268003,13.274655049599934,-10.299163777021521
0.41200000000000003,31.963935445189907,24.25701676097767,46.761890056510026,31.92304828421095,15.448494294905352,18.246497894682964,13.536333809036964,-9.573352027274822
0.41600000000000004,29.05073292346198,22.225091226585192,44.34583139869338,29.10169336256163,14.48207595167865,16.948307259097607,14.675696847275715,-9.295742356046622
0.42,27.084355439439122,20.018557762673716,42.081203927358345,27.471132295225622,14.58045728741308,16.18881399679686,16.4000379615418,-9.002087814995178
0.424,27.000693986129463,18.565726249567625,40.83503038788061,27.187821319959703,15.957380489708102,16.601320950232886,18.529000061981666,-8.093843212613226
0.428,28.9480262548405,18.52437136935238,41.27498166745325,27.922318335049916,18.41703848382241,18.22971633174722,20.989361054934207,-6.278295973188979
0.432,32.18909414529953,19.900195329015908,43.49034020279043,29.057575864546088,21.387572542283664,20.50766171296354,23.649358030991216,-3.8356099963889596
0.436,35.35705652135587,21.947202189989678,46.78251656496976,29.945288834134367,24.087786946183897,22.532978409738707,26.13410363629828,-1.5447200669882037
0.44,37.03965357373473,23.508201616027904,49.89264750246915,30.169133235836235,25.79988914838888,23.50782167557936,27.852824493596618,-0.3226416170415414
0.444,36.413815771481254,23.641463780667234,51.57209850908889,29.689186486804577,26.132996099462307,23.096380717399477,28.258068872734476,-0.7616309025630672
0.448,33.59347805835522,22.16284349865024,51.17080354728755,28.773307921261498,25.142157671327183,21.51898844556281,27.17243667378479,-2.815123631120101
0.452,29.49544567299923,19.751479375229586,48.867604925104686,27.739110548804675,23.231769807006557,19.34863172109809,24.92865721429763,-5.785839191452759
0.456,25.317411354967547,17.54351067157494,45.439206711430906,26.67638068626363,20.907677161263507,17.166409586128168,22.212348841341374,-8.617297056704071
0.46,22.009839564702816,16.50474101819353,41.8443775420256,25.40747940988179,18.561362800262792,15.325032314083865,19.746785598978164,-10.35942272513428
0.464,19.989024152846866,16.9192162877972,38.83514111400782,23.693958385591902,16.377831290946457,13.910319327293001,17.980684885525733,-10.568907249012069
0.468,19.17096776516614,18.267762780197735,36.749613569664,21.53815457884505,14.384558932827325,12.874141062972829,16.944051005632012,-9.44014227429953
0.47200000000000003,19.19193236311051,19.525407519550647,35.48473585467883,19.32092721549872,12.555098323214168,12.17561300128107,16.31476222751094,-7.624372410239613
0.47600000000000003,19.646081729092142,19.713835153122734,34.6223806663947,17.659888834069008,10.896805683930886,11.827189888931132,15.654642570093213,-5.849077901400694
0.48,20.28674067087233,18.476057029665128,33.74943548103441,17.12508701229968,9.53570278138403,11.874874784324092,14.744998712655185,-4.573369440666238
0.484,21.082263980919357,16.325806105920208,32.75934897328864,17.93876758498963,8.732078334718837,12.332195472381862,13.798530966188753,-3.85494518039717
0.488,22.104358152265323,14.391040697055034,31.92698731857869,19.804456294696827,8.787832036691618,13.129762300702174,13.370987167254082,-3.461744333061217
0.492,23.31373699448467,13.754343772066573,31.668527386085035,21.938669075108592,9.864439716647327,14.106691481197853,13.984485140342494,-3.122362118339402
0.496,24.389478178970773,14.757319611219096,32.1349429926989,23.303598708098438,11.794911543602444,15.035855644246341,15.69154883588596,-2.752396693996472
0.5,24.808587742327894,16.748437427459635,33.02935165448781,23.03697219315393,14.058832504374035,15.709211389322428,17.929366514957362,-2.5445193585751174
0.504,24.129282579602567,18.430411332870374,33.7652623035406,20.868346424357963,15.953390448356316,16.034973440299773,19.782932900631756,-2.8679285683739035
0.508,22.285195836123357,18.594519848421942,33.84213084049346,17.293296768983616,16.889455994861464,16.08068434901971,20.502913510328717,-4.026398747168284
0.512,19.664452087911236,16.791695107279416,33.135331056161505,13.364750527247676,16.64028346424632,16.0201319617561,19.938673530310133,-6.022900713390333
0.516,16.905023803489165,13.55308981978583,31.904795305359514,10.192609718489441,15.41281278177042,16.015404366546115,18.609844947751284,-8.459213527041559
0.52,14.602302404868395,10.102334340428495,30.638055844243407,8.478975094705614,13.74993008851409,16.136145218006394,17.416660762685424,-10.663256589347926
0.524,13.089189342457761,7.721884860567421,29.805527474395646,8.305949113447758,12.295951593646713,16.344868227991775,17.144925124242324,-11.996710704902172
0.528,12.388227307184625,7.11740222221935,29.64986528177278,9.245043917635282,11.524727110650156,16.54328982747875,18.030265736043532,-12.16689705477272
0.532,12.295533992431315,8.09187723150568,30.067533009481426,10.66478068408948,11.538763703988472,16.619381465942617,19.604071800859856,-11.365368108215845
0.536,12.52227264231987,9.691699770933255,30.632656861583534,12.05243000003592,12.036884966103752,16.486663658998015,20.918151281292843,-10.13881855187855
0.54,12.865246451271624,10.777808528121696,30.851930519675708,13.239728847470898,12.498549059927912,16.147323236692984,21.073618263537597,-9.097405158615462
0.544,13.299818402493987,10.68753923720422,30.4789069144945,14.418092278762735,12.485385875337283,15.73608317405361,19.747737262224497,-8.608190794505852
0.548,13.936178379691455,9.599151052246613,29.667528095127015,15.939323001644283,11.881675650916591,15.49549873591462,17.393840420309203,-8.638395699103881
0.552,14.840128787364346,8.370763367437325,28.818699142466148,17.979819560969364,10.915978284434944,15.652946005152526,14.954975941503088,-8.845485296293777
0.556,15.841073975302747,7.963311026868455,28.209076563007393,20.265475317785892,9.964521640957862,16.239686747599762,13.271056082241323,-8.831707616808899
0.56,16.554258058596023,8.876199253800278,27.77931341921214,22.12435046256087,9.323858954405672,17.005889767042017,12.614784481976644,-8.426110324723481
0.5640000000000001,16.60410522027268,10.91117587039846,27.220452349993195,22.84648365742707,9.094994622049082,17.50247274434001,12.633596097418351,-7.8182052496813155
0.5680000000000001,15.905878139564237,13.36252653163633,26.29046760296647,22.14575550125066,9.23452133981736,17.315169162439755,12.708011187646434,-7.43688254663986
0.5720000000000001,14.784895252247312,15.455064958349084,25.09389706634179,20.41346572428457,9.688285677658424,16.323281344977115,12.453459163621632,-7.643133022097199
0.5760000000000001,13.800780857506137,16.719461423759217,24.07691501629656,18.552874964589158,10.463353243464542,14.806056550400672,11.994530395162625,-8.448363844371846
0.58,13.42393127613625,17.138672817749054,23.791744098492845,17.51065755014405,11.586100959511377,13.327535677892023,11.859830297957664,-9.485557366594932
0.584,13.700834230141385,16.97129046055059,24.501096736587847,17.70370949554492,12.92366811270348,12.405861060521755,12.51512758062103,-10.298712252688613
0.588,14.093584702146796,16.38727465589365,25.836215695942236,18.639870371296947,13.983141645251935,12.137336025914733,13.815498470632509,-10.784271591128507
0.592,13.589089630622185,15.154371398242397,26.701298456496012,18.949258402839867,13.849006074776025,11.982486216991182,14.725979561706373,-11.488192068996877
0.596,11.064418883733664,12.605722678724366,25.552752371433883,16.888915290699643,11.39988722054022,10.896518853625574,13.562784231323413,-13.492482619415135
0.6,5.854702921714314,8.02109425606228,21.112818519999436,11.21143215102424,5.837442740777052,7.849963772659123,8.795696319320946,-17.880359014561208
0.604,-1.738417806893072,1.2287279902880588,13.185998753883688,1.988910520325173,-2.701885411322939,2.4909286456503703,0.02876226814648275,-25.009912440615867
0.608,-10.288119103802966,-6.940202010327711,3.115331051994178,-9.051356874660428,-12.809232556114784,-4.425728870842924,-11.39155453995622,-33.98832920097743
0.612,-17.607132990532655,-14.681482930190551,-6.486320921857338,-18.95163561702436,-22.027865324041684,-11.141419774370256,-22.563700923795164,-42.69831692284556
0.616,-21.54247366224729,-19.813148998024943,-12.71786009096643,-24.610796192458935,-27.65790592001631,-15.56621903040934,-30.036462580575424,-48.457930209796565
0.62,-20.803354923225353,-20.629663980014453,-13.553963665008949,-24.003816664025912,-27.793030654152954,-16.1869015686717,-31.1564680718906,-49.07905665127071
0.624,-15.46916752996509,-16.624257233491956,-8.677252582828746,-17.000192076733967,-22.127960895695182,-12.753810206757592,-25.142456363093757,-43.84168496137396
0.628,-6.959048224155021,-8.743708435542825,0.3990047138347257,-5.41768989731702,-12.148638746566744,-6.393594238553781,-13.402250878156561,-33.889445068840025
0.632,2.504888882761257,0.9355142741481943,10.936825707250915,7.692587262187674,-0.6001150500518806,0.903311931461702,1.0129228434490534,-21.819825937738784
0.636,10.692042025950785,9.948767680808249,20.00323428688558,19.184704739881504,9.534266326147794,7.158853622485999,14.554297330329877,-10.637460195421415
0.64,16.132733328962203,16.32235923301939,25.56315835569281,26.928093274117145,16.12423369697439,11.222991071819052,24.44836236809553,-2.5948399631766144
0.644,18.527370583002966,19.19848203384612,27.13707443969138,30.408759510257383,18.56661807855791,13.118354893481452,29.541394985027345,1.5384467569840412
0.648,18.622779444667252,18.94422766890098,25.742197090512388,30.586128315903245,17.76496079889879,13.765673551217489,30.39583065343521,2.4753425317245465
0.652,17.635643533695525,16.736277882303895,23.17392932849763,29.132935955341317,15.468228422979402,14.280945879005092,28.677739329654564,1.7638177554332808
0.656,16.53172965685376,13.861130089928233,20.998516020749285,27.477877123597683,13.338390707269046,15.261729719925064,26.19679858642767,0.894365026084607
0.66,15.607557793315621,11.159389940791907,19.87913442457066,26.199903081027365,12.26266544943228,16.494891588802965,24.14558923192287,0.6225344212572086
0.664,14.553888971660248,8.853417335291939,19.517385395707006,25.019654315227058,12.197235884219099,17.209646324291214,22.849600823745888,0.8167536658776067
0.668,12.896800582088801,6.753339342026866,19.130502344323773,23.286357667573895,12.512224179104638,16.673089458188365,22.021881367776402,0.816874845064131
0.672,10.484340522719773,4.6214400730868235,18.08641419497159,20.58776909731948,12.544693145512248,14.721827086726869,21.238132553921286,0.023526659341248646
0.676,7.670213956897406,2.4098628489846625,16.265328993652773,17.077277649467884,11.995242133448405,11.897745423133994,20.27695546664878,-1.6503565321934888
0.68,5.14242715361163,0.284732979744895,14.0594183052056,13.410208348507156,10.99794976066348,9.153235649344348,19.20113652146349,-3.7315111559720044
0.684,3.511762402813395,-1.543235273932157,12.05474329278244,10.369144015428743,9.888624018506903,7.315187556618913,18.186490077417638,-5.513733441354133
0.6880000000000001,2.92908438989412,-3.0335295642063294,10.630461912450608,8.441971442643512,8.881863893738274,6.646289951063448,17.270306116965575,-6.517146581217503
0.6920000000000001,2.9854650379256964,-4.399147918777289,9.722542358602785,7.609198587680787,7.899085259527652,6.769856879461891,16.231224252141697,-6.765975173059607
0.6960000000000001,2.946710016643219,-6.0005200870395115,8.854455782225541,7.43060985961227,6.642865700200024,6.961356964363402,14.679718168875496,-6.71839834125299
0.7000000000000001,2.2410101672764933,-8.062161243746258,7.485410267185235,7.403346455473751,4.883593710447538,6.627910663557532,12.346052516882114,-6.941519073128971
0.704,0.8805560857551289,-10.408320814464334,5.429054486129424,7.331938462700547,2.7441657390150413,5.6709073829326595,9.370859944022442,-7.745654326615649
0.708,-0.4816993973293562,-12.422669024413585,3.0549232464296288,7.45317704276988,0.7598768646507827,4.514934877132969,6.374131647525748,-9.006382151131822
0.712,-0.9491975794240135,-13.318269678965082,1.0944418281609347,8.210808600611632,-0.3779898498700698,3.7790925824049166,4.19585017073768,-10.275349413299256
0.716,-0.022852505407759516,-12.598198701298703,0.13806339666482725,9.815161875169721,-0.26104027563435617,3.805305636319157,3.420677408238615,-11.066108775657641
0.72,1.9749257228615325,-10.388085257641643,0.23088228584097825,11.943287663044732,0.9185643859166488,4.388987322665507,4.005147623020331,-11.140990518330078
0.724,3.9752998297682307,-7.4352095026443985,0.8124898406352878,13.78702493280577,2.3765489017035577,4.88399266320251,5.238056703187048,-10.618139700238105
0.728,4.7330800758482905,-4.751760724446559,1.054735527080875,14.449677620362918,3.101222493556204,4.622607294305186,6.094171164942496,-9.839540773699877
0.732,3.5589311044695373,-3.1070266289783195,0.37588969889535484,13.448328971524791,2.375119161317757,3.3742473731588762,5.781372350497141,-9.101589500139736
0.736,0.7392402302111152,-2.6897267468074215,-1.2354653802548228,10.985072577674279,0.14481664260199167,1.5286536115503053,4.151922113361163,-8.438670579051411
0.74,-2.5596949951898798,-3.0778626483916574,-3.1966663832175053,7.880329429288143,-2.9261572724089904,-0.09399745409706917,1.794453402018509,-7.617570136897975
0.744,-4.871176483231631,-3.5312342200091376,-4.63888017405832,5.187688807122067,-5.752944894921212,-0.705911317219166,-0.25498978608406153,-6.346575889689321
0.748,-5.178045816294851,-3.43465091219051,-4.878227771913499,3.7029415909564385,-7.316785029501203,-0.020970131382323398,-1.0443302904387215,-4.555468937307676
0.752,-3.42576691524942,-2.6392272909360615,-3.8052779182477527,3.6203229740397287,-7.1097025286567135,1.5416043084793896,-0.20966226094652463,-2.5565212227140113
0.756,-0.5565783772493988,-1.546523463105382,-2.0255011312261693,4.469071807872917,-5.351967670965391,3.03468181348586,1.7913448171703172,-0.9708791423493484
0.76,1.9941399785048342,-0.8541807096475231,-0.5848116636354965,5.394580114332874,-2.8645274487119528,3.480280974976328,3.883087118558049,-0.4613078211581443
0.764,3.039555927237827,-1.121394997474324,-0.4370847158204332,5.608857033286048,-0.6808894415680273,2.4077810255876364,4.906998923811951,-1.4056350370708257
0.768,2.19737007802976,-2.4232282313034483,-1.9476692443459762,4.758262515014682,0.3939340534601885,0.13111662668900914,4.201095809793919,-3.6977687504080503
0.772,-0.029180434846226344,-4.295213175413063,-4.7095446329766695,3.028245435493054,0.06895350071738915,-2.387328417809721,1.9108094139215184,-6.780363892132144
0.776,-2.663951632080571,-6.003576175322432,-7.792024200316208,0.9530177320066233,-1.4143666569322977,-4.026143572962958,-1.1381970672815265,-9.872883371400388
0.78,-4.817102754493995,-6.9274063573887315,-10.192400868107343,-0.874352376224917,-3.4654352943457396,-4.053583104956407,-3.8707973433545426,-12.29344456543577
0.784,-6.060991988103149,-6.836116877833779,-11.259794211300285,-2.0309243153403145,-5.409387007532718,-2.454724792607907,-5.471704603625634,-13.707868316764454
0.788,-6.455671289860556,-5.93073882677077,-10.900189128741667,-2.3488139500122625,-6.722914052691381,0.11131156277337184,-5.717431048156002,-14.197249916211709
0.792,-6.306642188659419,-4.680997753136289,-9.533428504327274,-1.8904281578429745,-7.180580788297279,2.6586631467198787,-5.009501120967813,-14.143351385645413
0.796,-5.910914175988614,-3.6140547226304527,-7.916988354143825,-0.9143861009961741,-6.906869672700611,4.3034697264642805,-4.1536980235127245,-14.006965523894998
0.8,-5.432845120901608,-3.143657917238771,-6.862814317325954,0.17746476447293236,-6.310466389036695,4.587160830137786,-3.9873668508349693,-14.141576092269542
0.804,-4.961288238637012,-3.503377277341358,-6.964572231967217,0.9157843345443193,-5.927674318062448,3.5624847070333803,-5.028594822085342,-14.716923784797164
0.808,-4.641383420625356,-4.757077615878965,-8.414801301592103,0.8848011695030245,-6.222429190278522,1.6606001908607115,-7.287930569245523,-15.748670211606516
0.812,-4.737274248580835,-6.83754833755745,-10.97259727313085,-0.1349523950081526,-7.420392070273959,-0.5589543325062614,-10.312401109257538,-17.174424567965488
0.8160000000000001,-5.559692494310399,-9.579107784698401,-14.110477276225538,-2.078712485773327,-9.438089866510282,-2.6463629139004725,-13.418127196265297,-18.886062047604774
0.8200000000000001,-7.245296167785762,-12.691200368673233,-17.186801242023996,-4.574719037615065,-11.901563963883738,-4.359448754948815,-15.944786379791957,-20.710477632542773
0.8240000000000001,-9.563622377160192,-15.742011459898109,-19.615350065556818,-7.049555943684254,-14.26708742826875,-5.636820398849038,-17.444710228695946,-22.380530720021984
0.8280000000000001,-11.915912121064043,-18.21413704844581,-20.987900785621353,-8.932922751941494,-15.995202667653318,-6.4998082020360926,-17.762283223091615,-23.540971113335097
0.8320000000000001,-13.576897776787083,-19.658685424767373,-21.152098208441316,-9.88497311293345,-16.729786848177994,-6.975243514572983,-17.028440061108014,-23.836169279090605
0.836,-14.089918587656866,-19.91650331403792,-20.29065421725841,-9.95932664984082,-16.442142807004533,-7.100406611273787,-15.628556571863498,-23.058999315232537
0.84,-13.519482635672329,-19.224688947048328,-18.875261122216887,-9.552195061914576,-15.446060020983772,-6.956053823325203,-14.109492049045832,-21.303840484870356
0.844,-12.403152686499958,-18.123525757000092,-17.51124700259747,-9.172879400815976,-14.27871098180648,-6.684054150960469,-13.041595264813202,-19.026289049354144
0.848,-11.417701075230253,-17.184882763708366,-16.70750282271622,-9.152682256267044,-13.483700370654264,-6.4501870270165975,-12.839759636850884,-16.940731139511804
0.852,-10.9603299830666,-16.69305788131239,-16.662445917824794,-9.453836656925354,-13.371685747991066,-6.366687759258577,-13.601266695126096,-15.764854527507477
0.856,-10.951446941775947,-16.493052900437515,-17.225827087310893,-9.730429723568239,-13.88031035931366,-6.449121378937387,-15.067300476815953,-15.908003271554165
0.86,-10.928150601913556,-16.063716335943656,-17.967661452848215,-9.553264344760091,-14.562101971361942,-6.605555879846043,-16.69532894570319,-17.265483326634648
0.864,-10.372776274993578,-14.79594079959421,-18.33614476519111,-8.665195383531694,-14.724936562662892,-6.665066783240988,-17.840883795943533,-19.224498122928267
0.868,-9.062688794483458,-12.332664065657003,-17.846650299507537,-7.12646893473461,-13.691877110889848,-6.435330356935194,-17.98509278479491,-20.901591210975134
0.872,-7.235919430819428,-8.80566458046469,-16.255880970411717,-5.295014336962114,-11.111303020459687,-5.785672017973289,-16.932270899253652,-21.520180319089885
0.876,-5.501015727625743,-4.8608149210394975,-13.71732850031233,-3.690920946151921,-7.2058211211666565,-4.7332228125450175,-14.910084764089065,-20.73046938697347
0.88,-4.506115858355013,-1.405017334250163,-10.765580939368688,-2.774106626594553,-2.7920080201769335,-3.4670072905815883,-12.465884657717378,-18.729013613712375
0.884,-4.582889841989012,0.7965178784838662,-8.138189600792396,-2.756101885779457,0.9710005751295765,-2.29792991967276,-10.206963658092448,-16.1200840171904
0.888,-5.56507712152057,1.4834997353181412,-6.477410857398181,-3.5066507923381707,3.0442624583237325,-1.5390304461428523,-8.499404123173166,-13.58971034930764
0.892,-6.878046095931964,1.0365304337582923,-6.039075064253366,-4.591450629465555,2.986528704658993,-1.3621375183447268,-7.277537647941361,-11.558831175081561
0.896,-7.871958890889481,0.279090149300821,-6.604799672416176,-5.45672093007772,1.1904762872287973,-1.7080992811117097,-6.1069849669696605,-9.986705682681091
0.9,-8.14911466040986,0.0810615469695648,-7.577978674614749,-5.641085015476041,-1.2402654339056638,-2.2721620272959018,-4.447861574087062,-8.43211998259794
0.904,-7.72740865635726,0.937176488029154,-8.259678729705035,-4.97300600397472,-2.975712692785797,-2.6196776246332325,-2.008064827749729,-6.347089075804895
0.908,-6.972215140547463,2.720452224690508,-8.18376779550259,-3.6828350775872636,-3.096641642299395,-2.4062986575605745,0.9946060776427292,-3.4425684696066012
0.912,-6.352356343838171,4.746673745595509,-7.339884569528022,-2.356644866219429,-1.5545984695861694,-1.5868143903784224,3.8314222226914456,0.08868743412277569
0.916,-6.2234973487738365,6.08009262009138,-6.227714272422786,-1.7654965547766626,0.7715603399171276,-0.5211936985063986,5.516965871882184,3.6146588183728117
0.92,-6.705241317132796,5.975838495773765,-5.624002846024847,-2.5575788930258936,2.5040381235665987,0.13357822402311226,5.259444008251877,6.343509144869607
0.924,-7.6826763230125765,4.2504744414967455,-6.175359906490078,-4.927833571609549,2.4793513277250403,-0.2681458160332526,2.8951862228999676,7.684879456459347
0.928,-8.883096503146799,1.410109305832286,-8.006370000450657,-8.417645732483493,0.38882898509291497,-1.9836521078351703,-0.9103110990912944,7.504678582782921
0.932,-9.961766174360083,-1.5291385522958327,-10.558121103693733,-11.980609406309913,-3.008389372248898,-4.645288727871381,-4.832978649242632,6.14199136737486
0.936,-10.607699472666642,-3.491716012814908,-12.831450118102442,-14.379549362249644,-6.253336360891169,-7.347974954744293,-7.421383772837059,4.194070048421277
0.9400000000000001,-10.605614420005324,-3.813463688142595,-13.856143755475479,-14.71088372539639,-7.913064382221522,-9.036761174799915,-7.720365997221032,2.2041487089336407
0.9440000000000001,-9.878343636616755,-2.51733412980826,-13.161793108492294,-12.816658505454122,-7.288172157037575,-9.0241869508409,-5.694008545451272,0.43030457448572257
0.9480000000000001,-8.510792446441334,-0.26459792210325084,-10.991549009215909,-9.360531894838545,-4.71903584210073,-7.358815361370994,-2.232327661034505,-1.1862912333184878
0.9520000000000001,-6.737671580084188,1.9882160875068289,-8.13818654366517,-5.506799120336604,-1.3305578162712566,-4.8322584584885355,1.269907282256069,-2.8555695623418362
0.9560000000000001,-4.9142844516693485,3.419989119145937,-5.564078925120356,-2.3986145321650163,1.599684356235263,-2.6094734242778856,3.5260789210568237,-4.684916029821417
0.96,-3.4222510361151586,3.684188207246912,-3.9585674196247993,-0.6772838474843076,3.3052669919724127,-1.6368213342963687,3.901369715345581,-6.512711415207438
0.964,-2.5334660479576927,2.996300788956468,-3.4716895033420627,-0.29113915537276647,3.8573797362225957,-2.1546616766234794,2.6235626739033595,-7.9295297868906225
0.968,-2.299980470989989,1.9460297254269643,-3.7450432276578107,-0.6760122492021428,3.9905601829843795,-3.5824077243685357,0.5854902807439322,-8.4835300951176
0.972,-2.523157205045396,1.1632893933253396,-4.182239119833652,-1.1714358469488544,4.5624880452789505,-4.838931320868193,-1.126768542460348,-7.9402769372456135
0.976,-2.8724751084453026,0.9822107661375044,-4.3537168546322915,-1.4525402412151127,5.951161647584258,-4.953567169754481,-1.7608446726532172,-6.428729943445304
0.98,-3.060213176602984,1.3036627037617685,-4.243384452656642,-1.6885495668517203,7.76397860355187,-3.6077131483061162,-1.185019761257795,-4.397377425626859
0.984,-2.9792766700558424,1.7022492673987113,-4.218419550836611,-2.3604245513452065,9.009617242565323,-1.3122254783028975,0.16373709145259596,-2.409324697172794
0.988,-2.718120857972467,1.7032101969605318,-4.753114305762949,-3.8657924900522156,8.626789473497574,0.8833752728770645,1.6009606070593594,-0.8971247783403946
0.992,-2.4400020703509333,1.0784996136657783,-6.077615851538088,-6.160758282609166,6.070303587400559,1.9908757986911723,2.584375213369884,-0.006022023020737288
0.996,-2.262243982480382,-0.038746646562546116,-8.03361698126917,-8.716946473705558,1.6076168981621861,1.6156141502300638,2.907192182452321,0.39975340303143136
1.0,-2.1841806566049122,-1.241638933702041,-10.156312698103093,-10.788703125584247,-3.7946414746839325,0.14307467535243035,2.662825849666701,0.5853871422213812
1.004,-2.109181384729812,-2.071259032624729,-11.9234275249532,-11.819181959426228,-8.90016824309193,-1.5184125257965135,2.0483322435612514,0.7594937537681901
1.008,-1.9440124407371338,-2.2423303954852596,-13.001609309964506,-11.727006882066483,-12.691890202107418,-2.473437611937171,1.182919115059546,0.9644820245303052
1.012,-1.6878578875672208,-1.74569454829453,-13.32807135316048,-10.896567281502131,-14.672695083241793,-2.3336910487421596,0.08521219387420942,1.1022937281361411
1.016,-1.4805232892837346,-0.8247827299703303,-13.062729062864204,-9.93465418928387,-14.901400127898082,-1.420016243859969,-1.2278862110495972,1.0720719908419873
1.02,-1.5379465949158786,0.1647461770510068,-12.42395360965501,-9.330438155700055,-13.801737628884267,-0.5460486305506977,-2.5948864604144237,0.9085189679125687
1.024,-1.9957476839847252,0.9345662942017339,-11.530124782747858,-9.222042478059322,-11.894701626200401,-0.5247001568282754,-3.650288732747538,0.8352730913131774
1.028,-2.7651063888991576,1.396415596940579,-10.342141500975766,-9.393040614210818,-9.605205840622602,-1.6830355198969589,-3.9308048040697523,1.187850788370603
1.032,-3.500763299978292,1.6862922477736042,-8.728958645065354,-9.479601414289439,-7.209144874267876,-3.6673664424140737,-3.108743789629713,2.2225258814759625
1.036,-3.754009131102226,2.0537367191120524,-6.66463290799423,-9.264507499678462,-4.905370995188164,-5.65711706785334,-1.2526428644268766,3.93316466031194
1.04,-3.226010541591954,2.7005569522201434,-4.377471654637883,-8.833368066215984,-2.900831295342707,-6.836234059007144,1.0862172159496204,5.969474236330819
1.044,-1.9788650077665668,3.645194982045651,-2.348228703791495,-8.504191816226593,-1.4278742973238838,-6.8400721660645445,3.0406845385922594,7.713585408884913
1.048,-0.4678055448384324,4.6770277340552235,-1.137618618459948,-8.589633955052179,-0.6849806575552613,-5.9221509226943,3.787558414866366,8.491512292929492
1.052,0.6513405113698321,5.430292954543135,-1.1156861414135069,-9.141644841418085,-0.7482811840000245,-4.761190751699445,2.9328626161566405,7.835946119183509
1.056,0.8159997513160064,5.509911401444993,-2.2991074798736655,-9.882906430320652,-1.5420155684190266,-4.053124845284652,0.7001709013224966,5.714292754110107
1.06,-0.16388038272985384,4.648007670004928,-4.334158205613717,-10.350989492808178,-2.8714186441059937,-4.121072214841622,-2.156126465327306,2.611283980022157
1.064,-1.9866465205896464,2.831786069994836,-6.63603973078535,-10.170319386065284,-4.4892520977561325,-4.762989083462866,-4.6681437538611705,-0.5804049542406
1.068,-3.9706623178712768,0.3489992711963191,-8.603223358440427,-9.281956874953194,-6.147054171231764,-5.4053366147879345,-6.038229250941201,-2.8378094819759623
1.072,-5.3538006522403645,-2.281369212213631,-9.805620157442203,-7.992194507029394,-7.6121623555819085,-5.466309905425738,-5.9141663076677,-3.3778179457335913
1.076,-5.680253211910269,-4.518141959614164,-10.143755410847005,-6.855830223054005,-8.693182611649492,-4.7208853209180175,-4.488646889630154,-1.965756482205029
1.08,-5.044722703361961,-6.024968266915518,-9.86039597231555,-6.420114862689676,-9.270003952367873,-3.426508091375953,-2.3738784147797833,0.9665919917856372
1.084,-4.069317688866128,-6.819329426642096,-9.420372583145467,-6.974809321046528,-9.341963097667271,-2.158698841988322,-0.3387121767618986,4.450684681287905
1.088,-3.594697268129792,-7.243638041092763,-9.290425049057394,-8.418413563830697,-9.053986092605951,-1.4562908852314909,0.9848432649474597,7.337596456526094
1.092,-4.226655395318153,-7.751667857071347,-9.702609594701787,-10.296375509789229,-8.665420193793764,-1.494385399084333,1.3170132128785195,8.730068221060744
1.096,-6.004183951718076,-8.643418986995478,-10.564931254427673,-12.02069480519616,-8.471191637725909,-2.0036212513055696,0.7726632470868562,8.329977360748117
1.1,-8.321342635684701,-9.853393484653228,-11.497728256609623,-13.109751194118829,-8.66642497777653,-2.4509087876189044,-0.2335684173005932,6.5456328913491975
1.104,-10.163470427315021,-10.925698523652537,-11.998634743628767,-13.342491934187027,-9.223734865736791,-2.3741610018021033,-1.1759702333007342,4.311355810493483
1.108,-10.553472900296915,-11.210299557112416,-11.660835178361914,-12.769716919342432,-9.864532405528255,-1.6633023852315003,-1.6246168029555454,2.689850653320667
1.112,-8.984186673024428,-10.183734298557729,-10.330764376537417,-11.589795074278692,-10.157797018774666,-0.6056252597741327,-1.390142725583651,2.426221210942669
1.116,-5.6745415774066235,-7.764506957724673,-8.198797108827732,-10.014689835394535,-9.72667260969502,0.3063212957625483,-0.5993532535280532,3.670223915676491
1.12,-1.4966390201114734,-4.424946683775264,-5.732520574407982,-8.181645507595366,-8.438276985554518,0.6969289354166135,0.3513371045766658,5.970213735374298
1.124,2.386601401452822,-1.0328257567842614,-3.491649446218201,-6.164951498522404,-6.488697740007442,0.5437454211709577,0.9499489376375594,8.512261732724143
1.1280000000000001,5.008744947564439,1.5244133382580207,-1.8898162930695621,-4.052189263166337,-4.322400733034647,0.18881027317671917,0.7873649393903162,10.485873583610491
1.1320000000000001,5.994878577328783,2.7569982100537587,-0.9998986065924735,-2.0040927856337314,-2.4146771443363715,0.12794963968828132,-0.24137765308948533,11.394411177962471
1.1360000000000001,5.641515767534572,2.7728097486897125,-0.5724206115112085,-0.2775604610718032,-1.0649759985760028,0.6917964809534882,-1.8804821268972987,11.202164387497541
1.1400000000000001,4.688357961995933,2.174092539344349,-0.2161965928308116,0.8435670989403024,-0.2952649557524336,1.8360792711815304,-3.6069528111381217,10.280066670214747
1.1440000000000001,3.8972410520644845,1.6955517446989279,0.344468701751629,1.1752483520827814,0.091447410439075,3.1593518333571886,-4.859964970048737,9.202535216015308
1.1480000000000001,3.665636529430154,1.7856171215037375,1.090856253970264,0.7446898999290354,0.34002643876095406,4.14453424784288,-5.290435221855035,8.500174667564725
1.1520000000000001,3.890036493498671,2.377312890940945,1.7368902952207899,-0.1775223579826113,0.575011912027998,4.486234535894949,-4.897269076717869,8.472117007304963
1.156,4.0782138569790884,2.9311458866334945,1.869968023765674,-1.215498224420688,0.7053376795100146,4.2712420744199315,-4.025138287031368,9.119142255330242
1.16,3.657279850208326,2.7475858705736282,1.1686917269231336,-2.1048058018162994,0.4719248546514492,3.9135063291074523,-3.2073217041682818,10.181303124318656
1.164,2.301164584930267,1.3645645068937915,-0.4355006933674995,-2.8725936064353927,-0.3992472005865312,3.87411935529283,-2.930857788067486,11.24422509480517
1.168,0.11117969026071872,-1.1710539025549322,-2.719867384214022,-3.850956327094261,-2.0130669603103293,4.359646002850125,-3.4236730167266165,11.882611925054686
1.172,-2.414777703795779,-4.2820892006081275,-5.235079933434956,-5.464088193447797,-4.176960405182404,5.194292592715152,-4.5374403461519925,11.794393394158014
1.176,-4.63061925192525,-7.1320757476448975,-7.489540299862882,-7.935372302736439,-6.426114153193394,5.918342639363655,-5.810334059859285,10.917811185114145
1.18,-6.044737476691515,-9.017637231575833,-9.10990093852166,-11.062656898212605,-8.178978400705748,6.063116353785684,-6.663568482069273,9.479604711801304
1.184,-6.52155224669786,-9.670292838976682,-9.916210001194036,-14.208079632415341,-8.95453175663544,5.432188203103134,-6.641258659843988,7.941344574859449
1.188,-6.2710012096624315,-9.30335853067818,-9.888124965291485,-16.52746393159613,-8.54134453450363,4.226523852066013,-5.584989003064347,6.8482470675813225
1.192,-5.647397271393158,-8.392812050127633,-9.063783795109622,-17.328367596603854,-7.045426261931908,2.9372312537435326,-3.6776168069673596,6.607620055027512
1.196,-4.9429028258000205,-7.379875119295194,-7.539356438482167,-16.418425433810985,-4.8438607439767845,2.0478118898972495,-1.3910081913425385,7.296692552058676
1.2,-4.274625137598138,-6.454161756692636,-5.532398168960956,-14.223635565043846,-2.4543617348425064,1.7561922824628713,0.6569319348914302,8.593683637975996
1.204,-3.6260483823743184,-5.5466048112498285,-3.4576006746082015,-11.611799927362497,-0.38915880624894417,1.870024637589613,1.8802442602365073,9.886398608381016
1.208,-2.9810753384809083,-4.501611536077618,-1.8931482975218765,-9.497758513923696,0.9671903464781586,1.9414701062097364,1.8952893125315526,10.53413170362867
1.212,-2.4079197943423956,-3.2646981404712183,-1.3613465079176783,-8.41055383415342,1.442198038607784,1.567622031441653,0.6663894833285173,10.169124561859453
1.216,-2.0569825837366595,-1.9845147350624561,-2.0759288320641573,-8.293091831045167,1.0793590138718017,0.6537624821366435,-1.4668431109471944,8.909296296860076
1.22,-2.035407172061305,-0.9337073857526634,-3.7605132491939286,-8.6046983502653,0.0884614098318357,-0.5067360734707844,-3.876485896635282,7.357697968591449
1.224,-2.249525795484572,-0.30445081276846064,-5.694299723270375,-8.656927155811413,-1.2406699772854077,-1.3972323217221305,-5.8349459357281654,6.356915302440011
1.228,-2.336991300755734,-0.019661553668222087,-6.994110484435993,-7.978847331467269,-2.614339650362842,-1.5787576512461234,-6.740513090588647,6.602606636342227
1.232,-1.7582987143838786,0.30887503572617137,-6.994104997139528,-6.495487797609732,-3.773117104763962,-0.9411165782833044,-6.2856704239743015,8.289066790401208
1.236,-0.08632050777716693,1.1733874791195378,-5.607979050907689,-4.493145339693287,-4.5288286835524225,0.21044014312457482,-4.56270478871269,10.971987612541863
1.24,2.6748739290544705,2.835510729489305,-3.426343950486123,-2.4133401782392174,-4.793994997897938,1.2969160388068577,-2.043535548614276,13.71845835084033
1.244,5.925747078043955,5.059967742529793,-1.482920968762774,-0.6389020464375501,-4.607011154105396,1.751185773205898,0.5621761352901729,15.486620898717332
1.248,8.611280873002272,7.106401767359815,-0.7727358693362261,0.6105064202756711,-4.1304804234373185,1.299951043511176,2.5272655387594005,15.563721775920136
1.252,9.668192932820386,8.058479878214953,-1.7248788170346323,1.2583855925813916,-3.5945537610528557,0.10526936696705924,3.35343520473398,13.854391839201256
1.256,8.511719004334942,7.288301307999354,-3.997202492338829,1.234987262369586,-3.231153773281714,-1.348876476523434,2.9029758824073735,10.889822199038486
1.26,5.345700721990431,4.835255298227848,-6.660986069190598,0.40136013592521547,-3.187851530066962,-2.5332098315199474,1.4001165051694917,7.555814955089639
1.264,1.121074300876951,1.4795201458759157,-8.675568114011885,-1.3864954418598874,-3.449468889445841,-3.1602720753215774,-0.6832539392567183,4.680800446285639
1.268,-2.8477090175888176,-1.5598540557515717,-9.390480575189738,-4.093244980060493,-3.8116100513774365,-3.322201634060533,-2.8019858130168163,2.686301433000714
1.272,-5.408442685168577,-3.150151037774174,-8.7823131558734,-7.316788142655042,-3.928975924199165,-3.402545492226897,-4.490163219102931,1.4532823701710447
1.276,-6.02838976106882,-2.7753256957715307,-7.388293908531549,-10.303593136026244,-3.462295884641378,-3.825448774556013,-5.483327711221197,0.48649288701898763
1.28,-4.953823823299063,-0.7925279030289252,-5.975996670144682,-12.207176237169985,-2.2663317326064174,-4.772812567471792,-5.762191925786521,-0.736661467734451
1.284,-3.0149204196008963,1.7238651722212603,-5.153989767543303,-12.490116377073427,-0.5306767861221555,-6.041168694355564,-5.517569580823158,-2.4183199066208654
1.288,-1.1962621722105748,3.4815311532839655,-5.124604231078498,-11.24700921248071,1.2171586962709537,-7.116485072247405,-5.052564472236137,-4.283439371826518
1.292,-0.17680958685185444,3.5875281293867873,-5.647654616718431,-9.219395807869951,2.2880801605249923,-7.42268958542139,-4.63287059157073,-5.704729694632237
1.296,-0.09735039798923673,1.9504586183585462,-6.250581621161209,-7.490149724263273,2.1124339945640584,-6.636787465161333,-4.379306357857535,-6.020639185669967
1.3,-0.6165303602969106,-0.7004570235921996,-6.504627530585975,-6.975661192949486,0.5142845018023334,-4.884504038117119,-4.225052360013178,-4.881728718025359
1.304,-1.192496847611972,-3.177915217179846,-6.222035201297424,-7.991994406682698,-2.1707842559130004,-2.723015461536201,-3.9560213230620414,-2.443935709683897
1.308,-1.4061221146202494,-4.393374829897708,-5.48117270283444,-10.124314671197634,-5.20382117328279,-0.8955832075402086,-3.3300149560780974,0.6889388848978408
1.312,-1.1457527717923255,-3.8318132593523604,-4.4912718003477465,-12.465887897030736,-7.739182147547769,0.019073228476349735,-2.2118579425629497,3.71645883638439
1.316,-0.6319507893500984,-1.7677044800206037,-3.4874882847156314,-14.131216995216512,-9.200659023510863,-0.1500119128717876,-0.6936993162347986,5.974276471076353
1.32,-0.28216464300237076,0.8760842204404373,-2.688135034605735,-14.725384727884334,-9.530600166839125,-1.1314770674696835,0.8800572311735357,7.1792553139165625
1.324,-0.48876907250604384,2.955387268427827,-2.2979533429906227,-14.487512364127227,-9.167297958591593,-2.3811227038925336,2.032926671110547,7.4933892124363295
1.328,-1.416406848651454,3.617581741109515,-2.4827999795887687,-14.02232092952822,-8.745730996700456,-3.3462093190438784,2.3975906983819133,7.3990076431125
1.332,-2.8709574520034673,2.6937023168597807,-3.2497515228658367,-13.768576189919646,-8.668772694708258,-3.6577986428967155,1.984086563960115,7.466941631352865
1.336,-4.34521899441857,0.7490176393276844,-4.367445673107815,-13.605764750594311,-8.826937195244458,-3.201645215889125,1.2731409332712669,8.13678708732655
1.34,-5.2127641469365,-1.2123590711196313,-5.383248129662639,-12.86167695144216,-8.639270820006997,-2.0584149990437144,1.0524621942432775,9.575512877808315
1.344,-4.998973112097327,-2.243791214145813,-5.798183450918803,-10.750673416992758,-7.423695812638266,-0.3992699702464835,2.0216136486779135,11.638373260393774
1.348,-3.611415378374339,-1.905341538884242,-5.335696194907046,-6.978927772532917,-4.8862122071956104,1.5680887709887363,4.361518629969863,13.924331932957262
1.352,-1.3968578497522075,-0.4258821957397769,-4.115191104071096,-2.1039838682201935,-1.4188886957934077,3.593446110997849,7.540886084499685,15.883999111537308
1.356,0.9813823586281205,1.469978445164457,-2.6560553066247876,2.5916792564162043,1.985067057102115,5.341465198260902,10.47805239322317,16.98863545770077
1.36,2.8446865822140452,3.0067570882815056,-1.6133152341844907,5.724592646331595,4.225494431293818,6.421246057150961,12.053357301274623,16.930840167248295
1.364,3.8424728117929283,3.829789774978197,-1.368662187822193,6.586603948348662,4.73924432060479,6.525052288492063,11.726994651905272,15.78973033495843
1.368,4.159588997842859,4.238337070279751,-1.720695060612596,5.6096957449017,3.913138933841558,5.619317276266941,9.915360382895361,14.068876696515005
1.372,4.463047831539097,5.034928145618729,-1.8764794357277783,4.2017336409727175,2.976745796274047,4.063826721048226,7.863010975542639,12.51495799794821
1.3760000000000001,5.521971595811038,6.999217829509391,-0.896919020893246,3.940287767502849,3.333497884975759,2.5054359144199423,6.9609202494301545,11.76302212694139
1.3800000000000001,7.6811500491165265,10.267272796763118,1.626531478050131,5.563040918204845,5.658552248949533,1.5460657290005415,7.843956572523615,11.925720399148497
1.3840000000000001,10.470917718746499,13.967733595563965,5.052788905134747,8.33891828550807,9.27412040492992,1.3347554330985485,9.767334579632397,12.34601275281306
1.3880000000000001,12.628360733046524,16.385992784332114,7.711220336762001,10.248071839869244,12.216652792389144,1.3493114299103734,10.700506045955436,11.713722521329117
1.3920000000000001,12.638211144121055,15.687381682113793,7.611869763045642,8.98427174203779,12.085694249739309,0.5762271110075807,8.246785279785733,8.580621785237561
1.3960000000000001,9.522364014538175,10.839092644722227,3.4757389502028775,3.239035740983903,7.277632422423867,-1.9718937700403956,0.9576061777520399,2.118541536296832
1.4000000000000001,3.5014378871547565,2.2890568539861205,-4.417026278191542,-6.399325673346369,-2.011628229717396,-6.613998845383781,-10.615968786923844,-7.236816198551394
1.4040000000000001,-3.844254756402721,-7.970626008995216,-14.055193461785294,-17.4330485053264,-13.563495771716656,-12.588635006559862,-23.746179329573636,-17.608795640276835
1.408,-10.062655543291724,-17.041091929173497,-22.358896845941896,-26.37521533707246,-23.874792046923723,-18.14489117061393,-34.412945579216895,-26.146480473794078
1.412,-12.764328347890288,-22.176405820052793,-26.368235179783188,-30.146544992071718,-29.526070427724004,-21.158054793513756,-38.89474011321149,-30.015639272673493
1.416,-10.640367772872015,-21.84275842871721,-24.490763242826663,-27.3332183982145,-28.579304692441067,-20.041664143400958,-35.366760838315585,-27.50001657152184
1.42,-4.060364329161529,-16.288378995318354,-17.178064961028678,-18.707001758988504,-21.345614611863176,-14.50753611660856,-24.717795763307624,-18.73080025805804
1.424,5.044127618113437,-7.372980182105151,-6.707585984070271,-6.811607716630111,-10.175526164710394,-5.791254135262557,-10.185887387840294,-5.705704377586686
1.428,13.950687880745388,2.230516763129274,3.8050771387367224,5.118906050074573,1.5883911820812662,3.785600789022243,4.012644737195254,8.414594853070584
1.432,20.240774565881942,10.095123443681445,11.712177261054958,14.398554347677509,10.984517466802766,11.732698591586745,14.406834855476022,20.417581994445257
1.436,22.675577386008143,14.848442081634097,15.771041985210575,19.702418108302503,16.467870973287155,16.344392374953962,19.497362267834255,28.10146731129356
1.44,21.48834696109129,16.42558891261924,16.342148933779573,21.196318676886072,18.1970882120761,17.25683485676578,19.968610350166358,30.848395904074923
1.444,18.030823067255245,15.750032085891272,14.85330913247119,20.06656422840341,17.55422537040858,15.382075535340643,17.904002479843754,29.524785661855056
1.448,14.026084194293682,14.094159000632645,12.903448705773778,17.789916811704202,16.251232892585186,12.318142431157515,15.524781000965692,25.85731140495839
1.452,10.841331234249413,12.48801938615248,11.53337730520374,15.528730103521855,15.517418808102347,9.570025697602905,14.156046334901154,21.608468945753238
1.456,9.051952107828718,11.393626715356586,10.917359625203032,13.816703033671299,15.69142713624829,7.936110253742904,13.86538360997681,17.93808320696264
1.46,8.439413302786297,10.728912583603433,10.560095067618757,12.574797871541584,16.31847753481089,7.329533591126074,13.83177348325119,15.17572315554717
1.464,8.329868645432919,10.12906606878614,9.786386982707281,11.348503490241946,16.587352111898205,7.044688869817148,13.1132795009501,13.017545873625624
1.468,8.052936176536148,9.265318513313238,8.220283197552867,9.634271020528509,15.839050039683029,6.289742890934117,11.331728130776444,10.97151868162721
1.472,7.313271203050042,8.075009283550088,6.052787042097324,7.1985846865747,13.913254953509835,4.709982289566542,8.92629627912214,8.784877980496084
1.476,6.26792812174166,6.766939829157802,3.91728449854617,4.233194055195569,11.17954324643193,2.598956215177323,6.856662108473134,6.651256222702598
1.48,5.358604327917467,5.671887660450218,2.5211024931958983,1.332687829730309,8.3227934406179,0.739716691860535,6.017137458530057,5.120574222603025
1.484,5.022256502592348,5.052710574440937,2.258727106160782,-0.7007943730846263,6.026474484961282,-0.021380000537874477,6.735671979268869,4.794080831282708
1.488,5.440701969437737,4.976845025942281,3.011116600775209,-1.170310200208776,4.703051233563016,0.7673758158436812,8.626147703218194,5.969558416722254
1.492,6.469332764736639,5.320942122265236,4.25133045968494,0.2151357567507579,4.374797020970975,2.914964433760476,10.832330939139993,8.388518914359015
1.496,7.712264386380278,5.841631096981443,5.30192577431311,3.1512070872212505,4.699751364403617,5.641680062637702,12.453665927361184,11.237032967045515
1.5,8.70282026499505,6.275425522257753,5.631745590787645,6.793898396184737,5.128559629278852,7.9157383789514455,12.928423718249075,13.415382139845876
1.504,9.109171938967147,6.431136159139308,5.06649100546185,10.079582907412721,5.141118518274537,8.90929948109835,12.203110600303148,13.974944098410964
1.508,8.86482875082741,6.240175896623898,3.8328899563365573,12.17188200599512,4.4780622286047205,8.357718167282044,10.666073283382222,12.521488167848528
1.512,8.202090186003371,5.7816723822014895,2.481411809732565,12.844390124529333,3.2936220950777004,6.664436095048654,8.953898510766662,9.393721595266774
1.516,7.522478523704861,5.23704992839778,1.6507622597448086,12.549456404066099,2.1277761660171355,4.665577980663692,7.6992479483256275,5.546894956990006
1.52,7.179837640628108,4.803360187252441,1.7859920805437246,12.128045690601283,1.6957981530597588,3.1885677919780635,7.317017317096983,2.1663260641919733
1.524,7.285112786418408,4.6123703172659605,2.936462568702628,12.32289432447716,2.5758104962160777,2.6355910284647988,7.8797800094556205,0.18918795854122972
1.528,7.62623882772068,4.678570450681855,4.714143802295793,13.36059689319963,4.931136832222236,2.7977864092956364,9.083435648698735,-0.059887676126072265
1.532,7.78340107401979,4.930225649367447,6.485125785991977,14.866859759367069,8.422414741649359,3.017521370419722,10.338991100672207,1.0438137892675101
1.536,7.347602825163472,5.278195867627201,7.651104172846403,16.118516035054046,12.340858799590142,2.597372003747664,10.957995121927938,2.671225635194298
1.54,6.139196402255436,5.683017104549862,7.90864364011735,16.47053191510271,15.895195368854363,1.2288518193393703,10.400336221240957,3.962737072312943
1.544,4.3143772544870735,6.186373156824477,7.373330545549228,15.701634090611702,18.51221160293381,-0.8015311651357724,8.510721737014487,4.413313167296817
1.548,2.3018087127561984,6.885065901242638,6.502761659060599,14.082740650825034,20.00712460317956,-2.744830414762898,5.6329824992279525,4.039050418103248
1.552,0.6196132189259815,7.863873779241354,5.8811172270979615,12.16209555095435,20.549300404585054,-3.792905249209815,2.529650330171307,3.2462468641956406
1.556,-0.3679034105512047,9.088046434797265,5.90336812518429,10.38437222472317,20.440794919463983,-3.5419486737814028,0.07592254690095723,2.529252689565735
1.56,-0.618556373943572,10.331033290248559,6.541432893599506,8.819762631291102,19.865364517286608,-2.2388562479207623,-1.1405283007876017,2.1883506648094366
1.564,-0.41522413997828034,11.193866492577952,7.309962664208385,7.174323652122485,18.754448964821986,-0.661927535605912,-1.113716923017905,2.213449674699649
1.568,-0.20753227433722454,11.233573569041987,7.46480916419977,5.063155908260934,16.846068399875506,0.2991139874233619,-0.43848255570496253,2.38015827970315
1.572,-0.35664461364662037,10.170060288090472,6.381841305399596,2.377098957380942,13.9054129548323,0.14081747951699697,-0.009238472232115047,2.4437308507256508
1.576,-0.9723263083204845,8.03028130461575,3.8479881133010947,-0.5575190649265571,9.940010198138198,-0.9960032103502883,-0.590070341182743,2.2984426930539477
1.58,-1.8996696378783584,5.170596203266333,0.1535072495051759,-3.117342251446499,5.288952691148989,-2.444003955404641,-2.4550376268646463,2.0025860461545983
1.584,-2.8338802823760023,2.158306080328183,-4.042397501210685,-4.730169816889809,0.5362240651014272,-3.4286398404083,-5.275441933732591,1.6684667326946
1.588,-3.4819973900918537,-0.4359152596780329,-7.982111822805688,-5.201273638390862,-3.6842375975998785,-3.524009280917349,-8.295023146774152,1.3391303077605201
1.592,-3.653617907230088,-2.221833051059351,-11.030516754029087,-4.77773096700337,-6.868532158648778,-2.8506424828515624,-10.65928064319476,0.9481417606075011
1.596,-3.2940088525282967,-3.113130681608985,-12.825350557401862,-3.96090932509567,-8.755273613733149,-1.930284368536247,-11.75671367462067,0.41586758797479995
1.6,-2.469182699096371,-3.323414021643528,-13.29878053890954,-3.1885533405772293,-9.336161260283408,-1.2972127334321912,-11.40153826690673,-0.1913069773941638
1.604,-1.351047811475559,-3.2476984233925554,-12.613767677630278,-2.610932146880752,-8.802403796171557,-1.1403461220127105,-9.812028462324854,-0.5901352521938712
1.608,-0.22312629415831386,-3.300291303045654,-11.0924675629966,-2.116445923474387,-7.492782469459259,-1.214206246179216,-7.45894243932924,-0.40039449560173024
1.612,0.5437980333442063,-3.7558503893011084,-9.123034625876306,-1.5531479127567576,-5.844909710999657,-1.0625493417211267,-4.874675411502709,0.5735604189346977
1.616,0.5375438728612845,-4.688590335399523,-7.126541218412164,-1.0046652524881827,-4.353450816438329,-0.4204533747548469,-2.550030356595121,2.0837255177049294
1.62,-0.5812932265836754,-6.005397260860437,-5.521200135966973,-0.8903642676936161,-3.4912488773380908,0.5008514282830787,-0.914119663231249,3.3865776288628835
1.624,-2.909668176623763,-7.525746633999882,-4.626139674530311,-1.7731993011861849,-3.5718615078509517,1.05950299634311,-0.3235762789171537,3.495478276216002
1.6280000000000001,-6.164910861768523,-9.054168800902847,-4.529259835579063,-3.972416015418648,-4.596806383372623,0.5625913579948096,-0.9923259511213641,1.6568005987315721
1.6320000000000001,-9.665055575210685,-10.39522404925795,-4.969125241478292,-7.210585916776688,-6.1770187452212815,-1.2371360301065577,-2.8624209061551453,-2.2083649037199415
1.6360000000000001,-12.520107430392674,-11.351817248728839,-5.391662305670744,-10.578678620246581,-7.624290065983079,-3.876542841133449,-5.531359211452944,-7.322200439156397
1.6400000000000001,-13.971480162829705,-11.734354147602897,-5.186854882244335,-12.88634966229111,-8.213473139118507,-6.342355400808528,-8.322349098899391,-12.277050262477596
1.6440000000000001,-13.709630463829345,-11.396045945333675,-3.9992971918663125,-13.220744485625646,-7.502628071058803,-7.58135478355805,-10.503355973166316,-15.588604492697591
1.6480000000000001,-11.997861206896955,-10.286553588115101,-1.9418914520725892,-11.392414723978808,-5.542569025306889,-7.059853320723816,-11.571151956492887,-16.303300380557417
1.6520000000000001,-9.507134015841046,-8.477891983256459,0.4653065439237958,-7.991811553917014,-2.8454905355749087,-5.032434909655029,-11.432598721937191,-14.383550994928424
1.6560000000000001,-7.001166010277279,-6.184935981309833,2.5311118839004063,-4.076412476091239,-0.15426803146779244,-2.390658775234896,-10.429043699735386,-10.682884689327839
1.6600000000000001,-5.0092767316928075,-3.7323595311254336,3.7409521821194884,-0.6405648348289978,1.8900300397564695,-0.16267298168641453,-9.14690612694157,-6.547556618537943
1.6640000000000001,-3.6677619875797776,-1.480836002357907,4.006731849526677,1.8047936300656455,2.995053951732353,1.015945508338591,-8.124000876227399,-3.259538563932946
1.668,-2.8429056188155295,0.22391154405078106,3.620989814621194,3.282526036063306,3.2314907941497095,1.1326590553083045,-7.644186662970688,-1.573724565885188
1.672,-2.3666677232330686,1.1181220263633578,3.034915180953715,4.093843608841405,2.8712716757502994,0.6533278211584939,-7.668745983671039,-1.5409993813658112
1.676,-2.2206759113771652,1.0812054252435763,2.569731846539719,4.446722699537088,2.171134840977054,0.13150437372922452,-7.9256931694822015,-2.617046513874774
1.68,-2.5329298115544643,0.1792331053714431,2.262034455290087,4.255571151721752,1.258209033914265,-0.14226994096551238,-8.08217668751039,-3.954076999059051
1.684,-3.398797070531403,-1.3233705022073656,1.913458238799189,3.235943812332764,0.1725917809434125,-0.23144767450611603,-7.891981012900884,-4.720379098578734
1.688,-4.673454940007035,-3.000306062038382,1.297490119103747,1.2147576992045046,-0.9778607984854715,-0.35254698002540863,-7.2482150002653185,-4.32825714254165
1.692,-5.879269113556629,-4.329788313779339,0.4296124832387971,-1.5447127816880095,-1.8774993849564194,-0.5491389639157331,-6.134925902437936,-2.566705879067557
1.696,-6.3794255014962955,-4.8330663802410685,-0.3464693604945639,-4.30291541411707,-2.045182228617289,-0.5382597068718527,-4.575897833935573,0.3513687963739498
1.7,-5.746563318378376,-4.246580561959348,-0.5163480894488455,-6.15287455993977,-1.0627698493020663,0.14209892679723346,-2.638635663392713,3.821296109478607
1.704,-4.1188584066853595,-2.6693860582544326,0.26055639976176737,-6.5322679252268845,1.1118693248079028,1.741727436136494,-0.5192720843341636,6.966043594008561
1.708,-2.2884166351423363,-0.5965163944706511,1.8507378848179683,-5.609002807456053,3.9721935377704787,3.955725908109745,1.3890512780962734,8.87136250685341
1.712,-1.3613687401987669,1.2584027053398525,3.6718361831745634,-4.230895194412602,6.61331787670362,5.918031254661589,2.578594194112405,8.889349964896535
1.716,-2.1640535175754554,2.2736345346738815,5.004353571025831,-3.461649396769617,8.147320273058428,6.56727943354347,2.6404146355160716,6.906962538359654
1.72,-4.711632723808494,2.2318777246530814,5.43021419133318,-3.947082345001628,8.185561947158261,5.232001931580177,1.514553978871799,3.4386969918470687
1.724,-8.095392099561073,1.4313265433808855,5.076368665200082,-5.533455669495275,7.0693366607840815,2.0598260246753437,-0.40395884061369003,-0.5418341071279915
1.728,-10.900008286744324,0.5088038017151977,4.495247673231656,-7.382191822768742,5.69366698748623,-1.9781977027089388,-2.4112423746643383,-3.972520106218502
1.732,-11.904726449914785,0.08949165391641056,4.31091892551523,-8.476129280118798,5.01997745785283,-5.509393611129779,-3.807716742925705,-6.132086753153046
1.736,-10.717490129628022,0.4197343511549987,4.8048525348255025,-8.243404948736258,5.521978531375205,-7.408560743266412,-4.235694670640474,-6.902317311763884
1.74,-7.967777231230709,1.2041854034664672,5.734826843551028,-6.895452145987554,6.900286246639612,-7.29623306887282,-3.8411952607542084,-6.719790555830543
1.744,-4.958488628785092,1.7446896132841232,6.483388245853184,-5.287457280204238,8.22729741087089,-5.645259433322342,-3.1579933732049117,-6.25468671116367
1.748,-2.977506865354485,1.3206193070953969,6.436360303457512,-4.395035230020561,8.45353855350021,-3.4660615462580466,-2.778210976175643,-5.991758801222117
1.752,-2.6147353450475324,-0.36643931270594,5.405465261847395,-4.707814777708052,7.003091459977808,-1.7651601474079524,-2.9845386933344926,-5.978023557502741
1.756,-3.517511354152414,-2.9922556798129425,3.7436388389322337,-5.974393797254251,4.072871271295995,-1.1175572163145127,-3.6097569614473572,-5.887979767983757
1.76,-4.695536269946253,-5.772408654519838,2.0901510909738428,-7.4368863482800975,0.484753749386968,-1.5314154542222278,-4.196829577628953,-5.343324461777709
1.764,-5.176105306920365,-7.909659379493676,0.8911427835643859,-8.406397383914204,-2.817483867044663,-2.6309581211104387,-4.364412423147328,-4.270811764435264
1.768,-4.618696865428458,-9.075626024618504,0.013317852620925219,-8.795877685073055,-5.3089925840657415,-3.963018586845761,-4.138100740425308,-3.0443359202799236
1.772,-3.472171265702208,-9.587364553879897,-1.1891047434608648,-9.18993563455973,-7.091130045796745,-5.18500200912913,-3.9605418270119745,-2.306621710702051
1.776,-2.623756103417687,-10.17941221227103,-3.4036603767256355,-10.415289534366265,-8.662858096891751,-6.070977710926169,-4.373888158887146,-2.55895463604071
1.78,-2.7825304419042185,-11.499835294027445,-6.7559853792765,-12.879775562162981,-10.418066470512352,-6.4041453779952455,-5.574006884136047,-3.783563278007657
1.784,-4.007999345197929,-13.646829237010904,-10.510131166457256,-16.14705066066142,-12.232501118539567,-5.945764669035996,-7.157831283250372,-5.3596956916890655
1.788,-5.699793089936385,-16.058129323602447,-13.339182603182941,-19.07203590250581,-13.451275397900144,-4.56682579329884,-8.295471799824337,-6.357865893879929
1.792,-6.999973092411419,-17.796169890132468,-13.999454974329353,-20.41018385261813,-13.284040962823882,-2.44445090017779,-8.22499722549856,-6.081137924114186
1.796,-7.345758701848535,-18.075073615485085,-12.064749118695094,-19.558109443503923,-11.362728875509337,-0.1661140187814083,-6.777695857322132,-4.514094010917791
1.8,-6.824746775050034,-16.723855628171506,-8.260999638280488,-16.959137558560066,-8.098014594756345,1.4101302024865152,-4.5972905358577965,-2.4155206727433183
1.804,-6.097149536465912,-14.3002756787367,-4.1782848611532835,-13.90417974574661,-4.573783602703831,1.5271369345757606,-2.868205247050655,-0.9732748544005929
1.808,-5.946286101356991,-11.797039358361957,-1.4928198598480593,-11.830766379482267,-2.00746144212539,-0.04636259067012094,-2.671940234044431,-1.1831005847387392
1.812,-6.721264603267786,-10.090393620467388,-1.0745088454908296,-11.498490155004546,-1.0782001780236863,-2.784915364067679,-4.326966672489029,-3.3149093168080297
1.816,-8.055962934757147,-9.486344425448198,-2.5373725061343118,-12.566720025236622,-1.5591043003718266,-5.565791031892312,-7.13980434547006,-6.757144383468257
1.82,-9.034918342394084,-9.614906619837996,-4.472394877403992,-13.813652191873313,-2.477683445164968,-7.151452915079217,-9.745437621905674,-10.321061988812605
1.824,-8.718632248557789,-9.719143815954228,-5.2595804519162215,-13.86892641399946,-2.7239993293366673,-6.7725638910563815,-10.868472346853576,-12.831932521458661
1.828,-6.710910323023892,-9.150576147922223,-4.001448064389045,-12.014250278602784,-1.7296213071113602,-4.49352224907981,-10.06234089023109,-13.6609404170527
1.832,-3.3872681164297878,-7.726334267141629,-0.9822805892677158,-8.546260115823255,0.22378242169254747,-1.138390933174867,-7.942206827184011,-12.940508814323838
1.836,0.31684197651215085,-5.764233328905554,2.54633574325804,-4.53244785796981,2.2390212728018692,2.150422650546605,-5.7816692483644285,-11.363167479972612
1.84,3.419619016913666,-3.8056187516863518,5.126808169656553,-1.1320766690095951,3.4359458913780188,4.478997409565864,-4.703631081220732,-9.71036369804848
1.844,5.368577618307041,-2.2523532189940965,5.907333062459365,1.0477300390647386,3.539083742801693,5.556137443528051,-4.984900026293509,-8.418242960614549
1.848,6.183803275307341,-1.1813983703171664,5.012402682991526,2.159703890860789,3.0302143670095045,5.666482200022154,-5.922943943311811,-7.409147363419361
1.852,6.269603957036782,-0.3963825484575594,3.3608931064360728,2.8446241148304736,2.7925924583933694,5.355891387278516,-6.30608603261452,-6.266517738902341
1.856,6.029736032531072,0.3249344448653071,2.0374564492747895,3.6705772958836596,3.46031197422845,5.0232590231440675,-5.224774065246261,-4.6087321820502964
1.86,5.568062377320567,0.9913477461379687,1.6402902852331307,4.691409662687786,4.9214152393937916,4.6975493890176,-2.701693149389575,-2.399506468386774
1.864,4.677382684183615,1.3572856650808176,1.9910937573609893,5.420239762190423,6.318754879145044,4.10956025647382,0.2700196615690418,-0.0004444008367103791
1.868,3.0890550248483475,1.1025349671762195,2.339882432667106,5.207963275650322,6.570173653576758,2.97684993743388,2.2972629930552286,2.0588333369407064
1.872,0.8339174589138958,0.14299882410627207,1.9571715753349483,3.7995872034682807,5.116660757440141,1.3133773822146635,2.456303984687592,3.4211144337313257
1.8760000000000001,-1.581610412165265,-1.175583673350697,0.6824792725418858,1.654988617686573,2.3982902829122126,-0.465077477422859,0.9019343993147153,4.133085587493106
1.8800000000000001,-3.3137050895065006,-2.1459756914057477,-0.8917911290588867,-0.17694936237807468,-0.25471069679638436,-1.6871977962407518,-1.1610041144296095,4.626854363784388
1.8840000000000001,-3.5851376905499714,-2.026267677974615,-1.7365376855095773,-0.5850695594118007,-1.3038507932986247,-1.762418294134337,-2.143196971806808,5.453815079070403
1.8880000000000001,-2.1356398403996018,-0.4522527424495255,-1.0181939902621888,0.981100666667059,0.1276311128816987,-0.5153902386475835,-0.9913169034486984,6.942280891952171
1.8920000000000001,0.599069376352845,2.3460714622549617,1.4022108327463911,4.202951530451704,3.735197105766108,1.6914996205116068,2.223371335414498,8.973928862801989
1.8960000000000001,3.6595863939753537,5.628581492792389,4.846659397240511,8.044987126975421,8.15567847992576,4.085759444610657,6.366885281165025,11.01416279418509
1.9000000000000001,5.99159852570701,8.487544273368842,8.151951881187365,11.275990396012336,11.67830714336029,5.807413901730005,9.89962246299493,12.372446486179626
1.9040000000000001,6.895811858885486,10.25325959020207,10.236623656580775,13.039115196562882,13.121191688402277,6.254304087310954,11.709974124728427,12.541906936213795
1.9080000000000001,6.264014917227724,10.738606905130876,10.568601199374907,13.159175891191023,12.380181963820176,5.301039787288753,11.627143198642397,11.459346320122902
1.9120000000000001,4.5579757062603985,10.262632444579559,9.368513550602403,12.104414849028647,10.397599010449255,3.332014418329849,10.379843581456807,9.544795288572194
1.9160000000000001,2.5583685233512616,9.45072322484969,7.429410065073312,10.649384674102706,8.57470971458088,1.0740360166886695,9.054975289093681,7.517979743727256
1.92,1.0405858858137553,8.934438302946138,5.701830578597312,9.474800080273994,7.997192455626578,-0.6848413241035596,8.423760198456613,6.10090153620623
1.924,0.5227961411021278,9.104220782647612,4.864302925934399,8.908035414313826,8.905678559669717,-1.3911597879318673,8.55950384142173,5.7490101898550545
1.928,1.1387575862755739,9.983280568715678,5.057275999366807,8.882031678378443,10.665772350829036,-0.9291893548005836,8.925730476369537,6.530651932606901
1.932,2.6651110273091865,11.274420864380183,5.931651457599017,9.102256041332062,12.214744915171591,0.36292416671091665,8.852887808626297,8.15640050315082
1.936,4.610371388432158,12.498751940249623,6.881201277164825,9.245397882140722,12.666735455793267,1.8494212595453625,8.037193289359298,10.1178168468323
1.94,6.342823143542925,13.167318738554249,7.338796436834189,9.096135525439799,11.749092923807902,2.8916401781394345,6.741165415008734,11.873842256215422
1.944,7.241348320237341,12.93410631633342,6.976944706432919,8.576595239922748,9.843456462426394,3.1373425497346554,5.587048454536189,13.011794979347336
1.948,6.853307385195049,11.693074527336124,5.741061399210157,7.701960158337727,7.673535743863696,2.6719019930092136,5.10555557163112,13.365663006867964
1.952,5.0866168982611555,9.644846808304207,3.829174192331756,6.576118902234484,5.901425168658349,1.979365178018825,5.4000288902935,13.055915707426408
1.956,2.319174715520713,7.271530550362625,1.6103957121161727,5.397023292231452,4.8451049528262775,1.6859223763333793,6.128485919360795,12.439410798206765
1.96,-0.6666108264066573,5.1980425770694705,-0.4640634717976564,4.440291993094931,4.447242015433488,2.2073943909123157,6.7961933497448515,11.977148767028202
1.964,-2.953449879959944,3.964544130076165,-1.966153035128091,3.971584749136486,4.442025892135419,3.478452642125008,7.132314418662689,12.047867509306418
1.968,-3.8947946350246028,3.773207449225355,-2.632566249897925,4.083529590979893,4.555706155988208,4.920082659133857,7.256766028354228,12.779350466882725
1.972,-3.4177052572887288,4.376678730503423,-2.4335182152601433,4.594135509370551,4.630171583538287,5.72025534515782,7.555312062147068,13.952986938078336
1.976,-2.072649762998589,5.1663762280642,-1.5859397367122234,5.066431176195229,4.609221002415624,5.259200392614037,8.330267774476706,15.061035980628537
1.98,-0.7605157109745546,5.461953681030277,-0.4573817898405821,4.99542412392138,4.461972512184749,3.4830108058962743,9.491848999024944,15.519757104008914
1.984,-0.271631679926414,4.8547291288375884,0.5927959067844206,4.068932629215945,4.125401143474762,0.9913163253390187,10.527221153006087,14.937521651725753
1.988,-0.8869715237610691,3.4177419056588265,1.3438864251604707,2.3520012033669935,3.5232283105931064,-1.2367172714226329,10.778201799597948,13.323083637685318
1.992,-2.210928844290591,1.7130414583892373,1.8306497386815188,0.32516264764265834,2.678826807438198,-2.3117859989802803,9.896437004289847,11.108773316380226
1.996,-3.378910241684642,0.5328971836157841,2.313090740884901,-1.3148137242711115,1.791096275089274,-1.890747437681462,8.139661040369777,8.945495272149191
2.0,-3.5158805268897786,0.5124765483846181,3.133703048800463,-1.976468497979095,1.2144263377143614,-0.34169807312833456,6.309280620397884,7.381825950734035
2.004,-2.209008935000457,1.8065706811025108,4.517971627306871,-1.4524448590842698,1.318414745565323,1.4639272491234214,5.333355936963187,6.593395341848925
2.008,0.23805545253469362,3.984555613207971,6.394324784633037,-0.0170614447637063,2.2860888939426562,2.6086592278705423,5.724117872053005,6.33077884678457
2.012,2.9488173390792287,6.244581731435707,8.406048245215734,1.7516414974185157,3.9984112600673485,2.6070118939285596,7.275220102383744,6.112648685806567
2.016,4.89772010578765,7.805509290750511,10.060535337697075,3.2920588562414923,6.053007445134027,1.6192883535135105,9.161726838836884,5.5499418060021215
2.02,5.395802786866556,8.279735369434597,10.955891124319358,4.353310957268726,7.922047810888674,0.31026485326887254,10.397397254981843,4.617301389468533
2.024,4.384790998198222,7.83848323576758,10.957386876494224,5.096693372067573,9.16072962045617,-0.5633890525741112,10.377357067297263,3.695570099760057
2.028,2.386338294332815,7.069476182237024,10.198935148434005,5.940905859078414,9.544120099184509,-0.5952119517537895,9.168604981516854,3.3483278749482857
2.032,0.2103153812127767,6.64409843089733,8.982615514953572,7.28336190021979,9.093260133914235,0.084890652341574,7.417141503590866,3.948159323286815
2.036,-1.4291746430158612,6.942532717269353,7.591684001189427,9.231214102939798,7.975098212804228,0.9435750604947064,5.919776900542104,5.378992035901205
2.04,-2.1931691454754993,7.826385885613371,6.136749180528829,11.489933117262467,6.357483954621384,1.4115502909306523,5.133533821464186,7.004630372160701
2.044,-2.176538822706242,8.681536281537166,4.514140208273923,13.458790843909128,4.312832688426371,1.247754659147452,4.91970609915413,7.949679259837027
2.048,-1.7902700608187514,8.683970693526483,2.4684163939185613,14.458724469966977,1.816459191796107,0.6657671135255403,4.649116186150671,7.567159688645022
2.052,-1.5275134029549768,7.196113666772002,-0.21290597034925174,14.022847963287504,-1.1359044513998775,0.18410806212941644,3.6216833917289897,5.81970242525604
2.056,-1.745425664090452,4.096284411413023,-3.508458518706237,12.100499035980894,-4.3803365616140795,0.2950581734558786,1.5407389142753016,3.3600679015881907
2.06,-2.554094237361272,-0.11459434326696183,-7.063091779436991,9.094433580600798,-7.501098854946975,1.1606272775840916,-1.2444862306692288,1.2484369496600243
2.064,-3.8177839621532446,-4.473958294834803,-10.247013419693426,5.73377399187396,-9.887133356512104,2.515500258274256,-3.8707665790915193,0.4355664538987343
2.068,-5.247656307927746,-7.9321340049031805,-12.383745189879091,2.8179472527562233,-10.93398578529821,3.8100115471323237,-5.399764526725859,1.29044418353091
2.072,-6.491969550432336,-9.73891839256816,-12.987629014336019,0.9672135459189717,-10.285039713684057,4.517226199643111,-5.2916511315937935,3.401604020013998
2.076,-7.222222861489381,-9.687398468588242,-11.956365490435683,0.4378842235707021,-8.01438674224682,4.402720643639949,-3.6770641630892875,5.759124652665113
2.08,-7.204577830255148,-8.107074999589162,-9.606992817620316,1.0806235585196347,-4.6363590605026195,3.6261861770566313,-1.2872563332153097,7.231694859915756
2.084,-6.359888921455872,-5.633763232076846,-6.555326759026554,2.4392961616229307,-0.936628099010699,2.6229570072484174,0.8964742426313115,7.089627981054582
2.088,-4.81940208742557,-2.904784309687392,-3.5233024628495575,3.926549610540875,2.301213662752439,1.852489086907416,2.065867761183732,5.328476949719809
2.092,-2.9011057848871746,-0.3001014443645462,-1.0838142784221767,5.055198894259547,4.579439361661528,1.5921197703421497,1.9128377356577828,2.643634618591416
2.096,-1.021328336012905,2.126333017067128,0.5002635707625362,5.605032738802251,5.827780877146116,1.8523951930323883,0.6985264664711972,0.09127365190039827
2.1,0.4452530014980245,4.518769754959951,1.2999647689129237,5.667127986611607,6.34932174340196,2.4415368713856185,-0.9331655698683479,-1.382598564326193
2.104,1.293589908873856,6.98599650130466,1.5925006782300501,5.539837114097421,6.592624283872435,3.0909137982885824,-2.2820059468985994,-1.3357326732549963
2.108,1.5266297866343472,9.40066609038609,1.6353225219277938,5.5204862525355916,6.872876445489763,3.552662868400415,-2.9031926763385054,0.033525741429156763
2.112,1.3293328965086202,11.399143520321397,1.532659746071669,5.743992043937495,7.215179850323954,3.660697473244917,-2.737330240509065,2.0284739426125378
2.116,0.9714555065786232,12.558645156938072,1.2155787512928806,6.125169556288586,7.376670428750984,3.3423034466162624,-2.052877857436215,3.78876367813406
2.12,0.7084751097425528,12.663332503139799,0.567666345201248,6.448532910433867,7.049765950822386,2.6389700432850827,-1.2376675119283589,4.671514973532535
2.124,0.7146083251844324,11.882528247368,-0.4004674894566893,6.537287966315754,6.109138210174316,1.7325551066886846,-0.568018039018511,4.503057708798903
2.128,1.029273353343974,10.704201648183798,-1.492816198733553,6.364716396896449,4.727435391055469,0.934875567609009,-0.09603261670606233,3.6162424031391462
2.132,1.5715642221176676,9.682673144390433,-2.377088294477433,6.073683313011418,3.309648718855781,0.6266656627309106,0.3347894642712801,2.6622041616436642
2.136,2.1793420105504926,9.122345599028883,-2.7734050386080136,5.863391398370675,2.2627101674526284,1.104474343429414,0.9434938532564685,2.2914348552977812
2.14,2.6423881932832365,8.886612347247445,-2.660932409532894,5.826337577596499,1.7378279875040357,2.4009536953676904,1.823915637904276,2.8400284264071822
2.144,2.7502495769030664,8.47674619115255,-2.3539466839321244,5.858444027841175,1.5198557297940785,4.1812242069049645,2.8431077027445895,4.154942507325952
2.148,2.354783840668983,7.350373198971507,-2.3884842571620553,5.710078697590074,1.150495337866167,5.813738305229826,3.6813909819345056,5.664647665956061
2.152,1.4733789966475133,5.337249891478384,-3.1861919209258893,5.195206439824871,0.2543872521527989,6.645155083996475,4.034389347270617,6.650364942417624
2.156,0.3510991930272893,2.883544351923249,-4.712117814872,4.403166404583754,-1.1350533282745667,6.330584067771406,3.8555454494214034,6.601110665071668
2.16,-0.5688129924418543,0.9552708169543007,-6.320605389830064,3.7714270106534813,-2.450065937331882,5.047676973665304,3.487066578536419,5.484869564486929
2.164,-0.7980221034479209,0.6036437523316938,-6.943212133854139,3.915010077829084,-2.7915214382417624,3.4382743611107234,3.5552003383588415,3.75601969479185
2.168,-0.08252048593697836,2.3557098532990253,-5.633500607423437,5.2324764251240055,-1.4235256647277175,2.2500551109224043,4.600443078233202,2.0747295192448663
2.172,1.36361581100629,5.78155803716755,-2.1585098405436156,7.529394686867189,1.7003086500861175,1.871586516959923,6.625685811889163,0.854133510302995
2.176,2.792049590531249,9.474839690682842,2.639784648214518,9.860898226599723,5.653747245130408,2.0012903646956826,8.805530910336454,-0.12395021421704677
2.18,3.12167431931036,11.526796520112281,6.987011594977853,10.768705617372424,8.723191251160817,1.6816026467251657,9.588887043996227,-1.759156611461905
2.184,1.3815734892372873,10.32489043586366,8.845035350072123,8.871884157199903,9.045789487699231,-0.2673680524166613,7.265832994509174,-5.244320309269751
2.188,-2.810147944708451,5.303340584663294,6.8095299974284345,3.5498450677848483,5.432769491978574,-4.606289919195645,0.7961154878717709,-11.36389352679875
2.192,-8.910262730769027,-2.665510839774073,0.8908161974647335,-4.563991149405944,-1.9617315125448933,-11.121886795837568,-9.43453347753866,-19.823010197496117
2.196,-15.466437522940828,-11.456264691933521,-7.262381279169345,-13.573796279773651,-11.472443124377167,-18.49735556806228,-21.352759217835242,-28.9814235084743
2.2,-20.539545131512497,-18.413567432347943,-14.863337718955517,-20.869402704219112,-20.388636251509485,-24.699420933278578,-31.66050880075668,-36.22769559142178
2.204,-22.37990064124883,-21.314393672788636,-19.041371488955235,-24.039721980420346,-25.895625622293025,-27.741119792544843,-36.92550969543208,-38.91389130500893
2.208,-20.121174964824963,-19.20283978140588,-18.039666283776807,-21.819123680603226,-26.134974168890587,-26.50985473447948,-34.903013178941386,-35.460628729632376
2.212,-14.148850202298807,-12.720174221380296,-11.95293967043095,-14.61274971257044,-20.913553437395056,-21.254941417541506,-25.48682251554525,-26.115795091620214
2.216,-5.997186870947196,-3.821320935910013,-2.699767109295424,-4.3834787642923185,-11.773084908756186,-13.521667682823972,-10.858648672368696,-12.96686514489798
2.22,2.198831233391222,4.989347148293101,6.7819145772640015,6.074747857180554,-1.3866741669451166,-5.540554335727244,5.267395054357166,0.8398264516213807
2.224,8.47249091138479,11.574455434922488,13.744653985431935,14.174972664497814,7.452544427009082,0.646652897628301,18.99817676625454,12.313067170450221
2.228,11.680035086326615,14.835722106504482,16.65087163536066,18.428792098545095,12.806241115403722,3.925476211302948,27.60222398660185,19.71019273753287
2.232,11.818908139613722,14.926553744236283,15.620194291499399,18.86323347195668,14.154539144054997,4.429200304494976,30.2990010987033,22.989518685226912
2.236,9.880977783727397,12.960128330439684,12.116807193946457,16.792282343188,12.347048659620263,3.3155580392554174,28.2083204400613,23.458782488064788
2.24,7.3400311908770695,10.404786744370545,8.112847625594053,14.093535825199854,9.038216126468463,2.150851219378023,23.56777764243242,22.867680889730213
2.244,5.516253218942093,8.469982379164204,5.184762709228513,12.346900005426743,5.9074451732457,2.1782759092161226,18.660141392961574,22.44701384881924
2.248,5.060231216169807,7.715963722662139,3.9354966460795717,12.204054955639577,4.018285835326155,3.7857002389935084,14.938719869245542,22.396283716419024
2.2520000000000002,5.808946477806922,8.0418958787775,4.032950974128852,13.292949304560656,3.6018287885555393,6.414904470681984,12.737734673062578,22.033996751645866
2.2560000000000002,7.006557070638552,8.94803434082599,4.69107188878428,14.610457913814324,4.253453068047241,8.887712950379882,11.55563178602549,20.450761647024677
2.2600000000000002,7.762062368558997,9.888612849480847,5.268930817995331,15.172064091615209,5.366734978108656,9.99515960729003,10.646772845350569,17.243669973891947
2.2640000000000002,7.522163515824382,10.533864557308876,5.635536900461391,14.561480761834627,6.526406969845636,9.067169857159326,9.558026973739542,12.879081959171726
2.2680000000000002,6.310011955304889,10.816362066680679,6.086547413326632,13.081356794949045,7.643163874147943,6.264871460082196,8.321709898066317,8.50681876443932
2.2720000000000002,4.676783325795948,10.834367324201223,6.987814165243206,11.504698053098242,8.832578014716512,2.4980887116706296,7.304111879107229,5.355122832264737
2.2760000000000002,3.386040017116959,10.702919200774078,8.373092895409648,10.567902519845326,10.149941740390275,-1.0004299211833878,6.8672612153972645,4.073524449085763
2.2800000000000002,3.0067685286683936,10.461928414794642,9.792813697813136,10.523173229918015,11.39931413032776,-3.224223483166946,7.0884066408805175,4.4089403171948565
2.2840000000000003,3.6250725808378963,10.083988819719867,10.522184996827376,11.010836574531698,12.158291550129572,-3.822112528303534,7.7027139542364935,5.37915840461849
2.2880000000000003,4.782014825945266,9.513466082351817,9.946991963189525,11.274716318579411,11.986925630787216,-3.222593861085183,8.246417987377022,5.822990255654181
2.2920000000000003,5.696635236182342,8.707445434599478,7.9416890390911,10.620209216799969,10.707335112321317,-2.3769257589168684,8.301488828561189,4.998482128975102
2.2960000000000003,5.650485292132939,7.637682882638298,4.9722926847754865,8.834196808595134,8.563831366735041,-2.26062726324176,7.6809586814998525,2.9182792071704027
2.3000000000000003,4.332926588548225,6.257157835305745,1.8669534072939453,6.32348256846143,6.1493904091985305,-3.3740012418768117,6.465903358240451,0.26638987816428283
2.3040000000000003,1.9958516789993421,4.49064957342585,-0.6032570190880819,3.899203951565835,4.122863661706212,-5.494021381972056,4.90852603429718,-2.0135525315591805
2.308,-0.6589617605824021,2.281895696404917,-2.111681803860683,2.3328684019405177,2.8810600040273173,-7.7982306250786415,3.2938436313835933,-3.178533544057187
2.312,-2.7773351668961634,-0.3002397428993744,-2.864890045918286,1.9603830090790835,2.389805229045174,-9.284742561920506,1.8652782351506731,-2.9724340679080865
2.316,-3.7142992523012937,-2.987619118043044,-3.410460015530383,2.521497747148552,2.249068412304573,-9.294343105082973,0.8049499388071832,-1.633943741932046
2.32,-3.2916532830228693,-5.34544957165475,-4.271534888004343,3.315166872656458,1.9670245578463215,-7.843508527289254,0.2440257216802355,0.3133894703638487
2.324,-1.8389123766364435,-6.918834095618076,-5.614345992474501,3.5688137279332826,1.2836718159786011,-5.598345137737898,0.2573116705595737,2.307090625828436
2.328,-0.03553121194582065,-7.445105161909839,-7.169254379145508,2.792256246264847,0.3511005549677195,-3.5150716994043254,0.806877497793943,3.909712738348699
2.332,1.3964432506443938,-6.983209507106992,-8.363470394462084,0.9657167433199869,-0.3109508622447459,-2.3267753698978897,1.719280262032565,4.834835968260932
2.336,1.9933628692333767,-5.888012404554452,-8.607102698280467,-1.5271735098098347,-0.07356848953576023,-2.1878685875202635,2.71959233930425,4.902028533579312
2.34,1.7292296093801758,-4.626777997685279,-7.5563909864534216,-4.127025289218127,1.4744396463501046,-2.6543100728711675,3.540482775494747,4.027895500319162
2.344,1.0137466703575377,-3.5374863950879787,-5.234686420365411,-6.336990770552109,4.294186639042947,-3.0067417416768807,4.049368896920915,2.272069249911238
2.348,0.47232375038996555,-2.7089611865044114,-2.0377125373123954,-7.884544270836182,7.841232714762879,-2.748046436081868,4.270578551377266,-0.10462247367858035
2.352,0.6434496498086135,-2.035332656733549,1.3994967888170042,-8.718762080314223,11.219940257838314,-1.9445314980502264,4.304468677099491,-2.6582153334827168
2.356,1.7046571670182562,-1.4241813566673174,4.360908392487514,-8.925928293434682,13.458883119317012,-1.2241828079590122,4.168912309109755,-4.905570740478883
2.36,3.349788411263643,-1.0065765785537208,6.206925659125233,-8.644487384033532,13.80714808699647,-1.4146145303963655,3.678738867028415,-6.54686871642161
2.364,4.885698731005466,-1.186388858970961,6.525660430343601,-8.033978291302297,11.951355424995665,-3.032495617256668,2.4766737623512425,-7.64729055660322
2.368,5.510533172457653,-2.471707118927827,5.23744513788099,-7.299798931647747,8.101332841837396,-5.923224994456426,0.22651142825107373,-8.620738782822844
2.372,4.705366044921998,-5.129353583336375,2.6932144650785004,-6.6736822111994565,2.966562247000597,-9.248234556768455,-3.1007278442498043,-9.993770327446947
2.376,2.536283171210048,-8.887198581859849,-0.35467864749571176,-6.346169866508532,-2.3915313669337337,-11.859233279259715,-7.059295733350233,-12.058518713001462
2.38,-0.28228076992402373,-12.878799743995277,-2.93811022371383,-6.3528021889387105,-6.794889922646778,-12.829697717345226,-10.799774868715518,-14.591511537512815
2.384,-2.609529740367031,-15.90401338183095,-4.178223557331801,-6.4857729933913095,-9.234114693147625,-11.85660132697066,-13.386559148178359,-16.837307012329624
2.388,-3.363139280456425,-16.94048497123708,-3.6560111065617686,-6.357202051138179,-9.173048451518923,-9.348965765839594,-14.24342861057471,-17.800851634338876
2.392,-2.0319337824418238,-15.63116285601751,-1.6198886181119585,-5.582941874617147,-6.751865386410191,-6.159032906029324,-13.443765418351617,-16.723591674509912
2.396,1.0023718851048677,-12.51804806976916,1.051324841996653,-4.034467447124593,-2.8169728673367507,-3.1718900108577346,-11.6953883030065,-13.51025428535006
2.4,4.520248985671094,-8.878685940751694,3.1708189074844872,-2.0065854199910618,1.2914310795028925,-0.9805710986503526,-10.002194769020678,-8.862202018957595
2.404,6.935750933222429,-6.210167758452698,3.7391523380195313,-0.16649396223189328,4.163603358939258,0.20053503991796795,-9.161248782630521,-4.040496082745578
2.408,6.953554120786114,-5.631635377413772,2.3350595212669374,0.6871831031951583,4.791922021107746,0.38518335917296254,-9.407474603197981,-0.3662783100600455
2.412,4.156878816324993,-7.4480751772026395,-0.7157397854409719,-0.009286528084284207,2.933011492653976,-0.3737008814440821,-10.367594270307173,1.291096814880551
2.416,-0.7666742350679012,-11.069704890757311,-4.499292729201894,-2.2934436538960794,-0.8075261052805338,-2.0549720858071163,-11.34955817930907,0.7948983826034222
2.42,-6.280409520599781,-15.293727578085116,-7.89605168172573,-5.607511329895984,-5.2078934564295345,-4.551408568209804,-11.784636994590056,-1.3117032199055063
2.424,-10.613528157904293,-18.790906546097258,-9.993130483054738,-8.994907820085453,-8.897605155474665,-7.480663426811512,-11.563063038284273,-4.15208387604269
2.428,-12.502679704131133,-20.61139792370043,-10.395201911870581,-11.505177055805014,-10.880814919779507,-10.141916065487475,-11.087023170858753,-6.9466302166633245
2.432,-11.67474137266681,-20.4726095823998,-9.268512252154784,-12.566249226313829,-10.86980479205882,-11.705823159890919,-10.993217291747872,-9.304042805018153
2.436,-8.863838843983771,-18.751198151796928,-7.174257720447278,-12.163693471342144,-9.307333090638307,-11.600617739860361,-11.739808035758294,-11.249577380354589
2.44,-5.3846598667225205,-16.232300225077687,-4.792557125210553,-10.749975210675833,-7.0839527632759385,-9.866907050749145,-13.299507822131957,-13.021274877735506
2.444,-2.464915600461188,-13.735933194399442,-2.653694632561672,-8.93296629809145,-5.096774627151967,-7.23543117644134,-15.126257828730303,-14.796496587624503
2.448,-0.7007847275170818,-11.807693642027093,-1.0230409006020915,-7.14659150251177,-3.8773038713025825,-4.836728326869855,-16.4292129954802,-16.511699476948916
2.452,0.12571897074314275,-10.569180197400888,0.10904972349471542,-5.4594955165133285,-3.4341296892744886,-3.6432426359136465,-16.56426472742752,-17.884519648529132
2.456,0.7910323440558034,-9.768150158574539,0.9302893596883202,-3.6303023389871982,-3.375263499949293,-3.9628292904930884,-15.34062945285699,-18.598755243093965
2.46,2.08201648555165,-8.98951172883084,1.659845186148388,-1.3639558542905208,-3.2213151641857767,-5.280300741242988,-13.095964004144271,-18.525084288405964
2.464,4.2835688505959055,-7.908569752178007,2.4310762775125863,1.389810303788284,-2.725951587435052,-6.562254850260313,-10.507062083453025,-17.8433474235601
2.468,6.942662766066759,-6.49620081078315,3.1914998265894337,4.2465539570979445,-2.0474034345228684,-6.87938162349535,-8.278671407611315,-16.968580225503
2.472,9.067547375369191,-5.0527832221691735,3.714063523381677,6.467895276126863,-1.664986104839734,-5.958863092895876,-6.851772160884469,-16.331425305281066
2.476,9.643746870585062,-4.069000051340133,3.685034550470638,7.267048591086038,-2.1094231060497695,-4.356941588216145,-6.269109884144106,-16.134599264157725
2.48,8.192928255955485,-3.9801430076534454,2.85442236424932,6.200770082911726,-3.649559497186977,-3.1326145189836696,-6.23392440446286,-16.215216896700205
2.484,5.100843959793161,-4.911170387834472,1.211358792975604,3.466393226318775,-6.09823012323449,-3.2061278395882526,-6.286450892423168,-16.100110317618586
2.488,1.506872154779436,-6.5664487004442265,-0.946553186149143,-0.08686068206573472,-8.848633955554426,-4.790427293624602,-6.017431705970688,-15.215055620455862
2.492,-1.1785595738032173,-8.317665975427895,-3.0616418286874314,-3.2404539701521755,-11.11223405546436,-7.209948866343294,-5.221608430156162,-13.156211429642797
2.496,-1.9059739276215417,-9.466594171357523,-4.513867579633764,-4.881694870712169,-12.246708392883152,-9.227125810212396,-3.962620168968063,-9.886420316781471
2.5,-0.4544650360112952,-9.55150814856862,-4.875104048657702,-4.4481649762611095,-12.002792766680168,-9.671703819836626,-2.534126465709003,-5.760866854422943
2.504,2.5005458267457996,-8.537155056866142,-4.0814731713464445,-2.1361063829323155,-10.58560576021809,-8.027351296099429,-1.3355861751447584,-1.4037610301577468
2.508,5.71442382569667,-6.81555579963976,-2.479681014188051,1.1958128076889811,-8.534386759725766,-4.67802864956131,-0.7330487668236316,2.5082358238126887
2.512,7.9648623231315145,-4.983106886128127,-0.6525885869258437,4.420994250539653,-6.469112050198273,-0.6790647621125592,-0.8929646198008943,5.451780461976094
2.516,8.603378910613586,-3.527020256794373,0.8538426181765315,6.620056650825019,-4.848841762015932,2.7683376799676633,-1.666271019566201,7.175988507041404
2.52,7.808874507818858,-2.584239179698882,1.772983708204246,7.420385767873082,-3.8345322813973457,4.853303692765732,-2.5853173506668865,7.714423014524904
2.524,6.4566956744096675,-1.8823725092039587,2.231987259191928,7.063685145056139,-3.2844017569331467,5.434700354642286,-2.9876896079246755,7.305892713232318
2.528,5.652565064435898,-0.9236567036609284,2.6318583501534576,6.163428003135407,-2.8875009056465624,4.949720991952924,-2.2811364989210654,6.286864057858033
2.532,6.198305267792236,0.7099502393578487,3.411946209221765,5.326076438799523,-2.3438045655464785,4.087855712022211,-0.23668898419320872,4.9847506999579085
2.536,8.22624917166346,3.076827641029,4.7957021128582396,4.8202357117930354,-1.5211327926529696,3.421967523760596,2.818301209161876,3.6398524381292505
2.54,11.159449336804025,5.7677146521540825,6.6581287195700725,4.472428066156862,-0.5268866103760073,3.205851340198437,6.0364422170495295,2.379626693483206
2.544,14.015436312913163,8.045878049068339,8.592703211585219,3.839088069251618,0.3247631934202566,3.3946212991426856,8.34431984514721,1.2241739588534166
2.548,15.85834338097111,9.146661081660678,10.079432773422077,2.514013177109886,0.6347348400285875,3.7924237573946264,8.872465856337744,0.1419085399726665
2.552,16.21197642139144,8.624716021168462,10.716713103496296,0.42368390727384675,0.11541072331192392,4.223256056503811,7.364518373206937,-0.8736436190444046
2.556,15.228766682301702,6.570964661945036,10.366386741005748,-2.0821988458237364,-1.2416751857721136,4.600435873065457,4.333851948903656,-1.744062927977264
2.56,13.555485214682328,3.599403478603215,9.164463669320346,-4.390038430192179,-3.097203991581318,4.893372068178093,0.882016171967615,-2.284412449564516
2.564,12.003296319167948,0.6265183088628099,7.446335938121276,-5.919817563122839,-4.837774816954709,5.062200961564768,-1.7360560096460527,-2.258277231523505
2.568,11.159012699796822,-1.4852817562387086,5.588785256650505,-6.423512509234838,-5.814938452335161,5.0181218565390555,-2.6382352391734556,-1.4970367992709808
2.572,11.142344350281398,-2.2534771802183333,3.8971633974683497,-6.085674035737265,-5.646479672162643,4.663513690250017,-1.6651775893101983,-0.03978579048369624
2.576,11.602725799899979,-1.7449133333924831,2.5445307641471357,-5.388430880483699,-4.453355072459685,3.965845343099872,0.5991816192229571,1.787822084461193
2.58,11.937278027246286,-0.5232295333041945,1.5696776081209345,-4.824773281282157,-2.8810039260438867,3.0112523449453263,3.1361548007555364,3.4277626664111276
2.584,11.633280307754758,0.6190793281473399,0.9441424806927783,-4.607461942344538,-1.8422106912910379,2.0001182245259956,4.9937609096404225,4.275299150030417
2.588,10.528404942022892,0.9985442635551061,0.6190587622841051,-4.570152514051911,-2.0942850314056938,1.1682475647584072,5.7023080074823325,3.933151982616025
2.592,8.903537637864167,0.33710997574930346,0.5957321731287708,-4.280601948856948,-3.821573983756066,0.701831939134629,5.444960220923704,2.406975253189571
2.596,7.34964040986166,-1.1260122627659719,0.9502204324782859,-3.324860788648767,-6.469802727424117,0.6651380127008695,4.893757936533443,0.1300117205544118
2.6,6.4657249972327,-2.7617795422408626,1.80263042027331,-1.6011940728519765,-8.951535871159514,0.985444454681347,4.803451377210735,-2.213726777120868
2.604,6.568095817737111,-3.842300558633937,3.2692745936743943,0.5642301574536974,-10.136802859194038,1.4976302211033254,5.599170059417928,-3.9977451769380528
2.608,7.526438019417064,-3.8853631002429623,5.35840947681505,2.521987557699095,-9.406506092669503,1.9944618343062532,7.136147665317644,-4.926068494246826
2.612,8.837696798716056,-2.8616763254119437,7.909392562930124,3.609202128815088,-6.95440328650971,2.2937962875089775,8.771873283787812,-5.136482507259502
2.616,9.891237901079023,-1.1727954803960055,10.591264535879777,3.490475006253436,-3.6834774359886087,2.284466110050267,9.695246769030451,-5.075122512338702
2.62,10.279379805302575,0.5733591324872673,12.976882761240491,2.3426427608788227,-0.7459001307711155,1.9556203296884487,9.337123521237395,-5.214577900979741
2.624,10.010772544435437,1.8868344457176658,14.700338113514553,0.8011705355715684,1.0326262391008925,1.4084082491573722,7.682662084197193,-5.785962917329588
2.628,9.48554831663211,2.624474316722049,15.585927690103551,-0.33576798583444045,1.518218644450819,0.8305452186066189,5.303735972082906,-6.656973550996554
2.632,9.256345155479156,3.010025888953688,15.716377734698163,-0.4853085867534235,1.237885884238164,0.44610496918727893,3.116338873906053,-7.440875813441689
2.636,9.691036893667372,3.4247443408299216,15.356892744592269,0.42543170355894144,0.9647053304015589,0.421118395088949,1.9618261014277127,-7.766315046943971
2.64,10.722946862669618,4.096220612216314,14.784723888975108,1.907470298277107,1.1919205854047519,0.7776175191678449,2.2114764321189426,-7.5212439241699105
2.644,11.853867003173026,4.896698269628233,14.137668377431938,3.149254078649178,1.81474093568165,1.362853907949717,3.5995312345496506,-6.930910383844039
2.648,12.381451683017263,5.347112198264532,13.3119472786452,3.3967647236258065,2.1789017097852224,1.8786170386463912,5.326586112080593,-6.4111689249023325
2.652,11.765709086780802,4.867704534355034,12.02528589671763,2.328414925546028,1.4808164791176512,1.9951216415586979,6.408346949253994,-6.287656852810635
2.656,9.925755024295448,3.1237695120868136,9.984466305921298,0.22267353454507877,-0.7404251898115461,1.4778153288368987,6.094400827212957,-6.558516930912019
2.66,7.303441938362525,0.26599605060871934,7.076523081745709,-2.155279100714168,-4.299940391743304,0.2837324508984391,4.179778691722543,-6.841680006296668
2.664,4.67752979313072,-3.0598975292069586,3.5057148434903835,-3.884410751449183,-8.413005015714173,-1.4033629703504316,1.0901623188163878,-6.567363022033126
2.668,2.797174391902717,-5.985265436553469,-0.24653595251157867,-4.311501029524816,-12.06200542550101,-3.2283136244961685,-2.308617509443742,-5.305826031349668
2.672,2.055552711917227,-7.805394792341858,-3.5681968745805985,-3.3257979083363125,-14.441927903318657,-4.757428151735488,-5.057744146847109,-3.0484215131068257
2.676,2.344758482475504,-8.288769624607884,-5.93438014206618,-1.3845447798547994,-15.258238920086363,-5.607428899098501,-6.479175572342864,-0.28302031633698643
2.68,3.152020377949677,-7.742310467785515,-7.080050443314594,0.722660952873273,-14.728922228677995,-5.5504940098007856,-6.402492149329679,2.201515108383841
2.684,3.839079876010473,-6.792323413910212,-7.032613640234817,2.251858891216136,-13.340339933098129,-4.576012260192752,-5.159223624877424,3.6653557108773898
2.688,3.9113133025376268,-6.042786825182868,-6.067211545781033,2.8033831940447476,-11.56808914509192,-2.9274443318344097,-3.3997654502029526,3.747889855608836
2.692,3.177871093549643,-5.771873400397501,-4.569543567965227,2.4322447798819313,-9.70512831129101,-1.063130351113812,-1.7976357806770045,2.6057980147723594
2.696,1.7423159904902024,-5.836531274241814,-2.9068501796217143,1.515130386193154,-7.876131630902421,0.44916360946721223,-0.7906113598476381,0.8004761167768049
2.7,-0.12188588186350291,-5.816071713387276,-1.3495494057937112,0.47645999193669475,-6.162087030683239,1.1002211841819909,-0.45533103163506183,-0.984918351590303
2.704,-2.0821751858331647,-5.268289793730029,-0.014176028572337351,-0.43499806537421914,-4.685052262796042,0.6334159187402797,-0.533364302331889,-2.2471285675053787
2.708,-3.8269904872796348,-3.9908575222923197,1.1069623031754912,-1.2350570935091412,-3.592670688973704,-0.8363482762501651,-0.6088412689535909,-2.8330064898174063
2.712,-5.07860012535653,-2.1218529110214965,2.1123078706310165,-2.088855067634973,-2.935970489601093,-2.8142527387672804,-0.315471038540319,-2.9108880815416973
2.716,-5.606514779915969,-0.06593577446656051,3.1267400762093254,-3.1094906117815446,-2.5786717839258824,-4.586293939117451,0.4962102580118972,-2.8025936838985035
2.72,-5.299548194660574,1.6817371491588229,4.2117018919658396,-4.22074395119135,-2.244630836906021,-5.495902094863571,1.6873175348571707,-2.7875050665636443
2.724,-4.241211796307343,2.7329823700432208,5.320329008698768,-5.15512253156298,-1.6935846833898456,-5.21010782037467,2.9046801680807155,-2.9920214752245355
2.728,-2.7490933059945517,2.9177871128772326,6.271924347226694,-5.613017360177093,-0.9300668006071398,-3.859772126377777,3.7318946972908917,-3.378925721950614
2.732,-1.296883712252322,2.296770960925897,6.806699030260225,-5.460385040986128,-0.2787851715179297,-1.9672527958348978,3.8696419549889884,-3.817823539014347
2.736,-0.32673712580810643,1.0869173373519403,6.680112106833791,-4.849586415281489,-0.25754966304489013,-0.21082422384669997,3.2513006871481567,-4.174325382798927
2.74,-0.032538895992561434,-0.44286852770041896,5.764843235602726,-4.163062809950478,-1.2870036980902602,0.8817136758872128,2.0521138409613666,-4.343807450272217
2.744,-0.23114481910150797,-2.044462126520263,4.1396545239210685,-3.7922408998324073,-3.4026499989956704,1.1608241976921174,0.6118103726500701,-4.240921036616777
2.748,-0.4683748520113846,-3.5604647537105953,2.0502757172116235,-3.9294407357704046,-6.194295150934513,0.8611743960983499,-0.7362285364262058,-3.781526858257499
2.7520000000000002,-0.28291641972919934,-4.942469997672886,-0.18233589811053585,-4.458751625696943,-8.99813746428073,0.4438302913797447,-1.8124841695669835,-2.888089125382456
2.7560000000000002,0.507185092993143,-6.222050282248231,-2.2726782431883095,-5.027837154087329,-11.239391787740795,0.35076726477742315,-2.644871731960877,-1.5306475361356195
2.7600000000000002,1.6581905852717145,-7.452719056095949,-4.047068326653342,-5.263878814236166,-12.716446554487243,0.8046178196281115,-3.4171144186997022,0.22017748484704514
2.7640000000000002,2.6286356601085656,-8.622912475377632,-5.4098211476682945,-4.97873345351815,-13.621342517255023,1.7517939693675852,-4.315063255889738,2.154335435502409
2.7680000000000002,2.889840863743351,-9.607466113050016,-6.283589735674182,-4.26966147125603,-14.292733482271125,2.9285318153660276,-5.380702201338689,3.943319958153243
2.7720000000000002,2.2665969433526847,-10.163993189809077,-6.531469213900327,-3.4280980987065406,-14.83656521120419,4.015388904641917,-6.432069036319769,5.223121837925161
2.7760000000000002,1.0783828483669657,-10.007678717749585,-5.968751682747602,-2.7466272098456224,-14.899318828891252,4.760903312227953,-7.113351475285686,5.707224556745455
2.7800000000000002,-0.03358487625431916,-8.949579418611515,-4.482110459513863,-2.3580705792308,-13.783278563821334,5.032664141912287,-7.0664693129169125,5.28430068038986
2.7840000000000003,-0.4674624482227676,-6.999903844240272,-2.145864953692141,-2.17742223950577,-10.859200718314012,4.821616375575093,-6.100226759927727,4.056513956865915
2.7880000000000003,-0.011727409100227515,-4.389160410630039,0.704950188722792,-1.9969747373761861,-6.05698039094805,4.213583185711322,-4.294565043391849,2.328101094678319
2.7920000000000003,1.0457404052559593,-1.4761844204821428,3.5542824938313498,-1.642585674248629,-0.11151561456089754,3.378536902865216,-1.9711971282207692,0.5294125425434202
2.7960000000000003,2.111932702599068,1.3933913098281048,5.893726834841465,-1.0950041286683172,5.619374478376816,2.5545133069664354,0.4455424356592014,-0.9051820088620466
2.8000000000000003,2.6642810660273994,3.986879418615091,7.424899161364664,-0.5008678664046218,9.712902443365916,2.0009359662305477,2.5950715296757543,-1.6718820531590994
2.8040000000000003,2.588182491622621,6.200610313688113,8.187993669140456,-0.06015946052221244,11.340703635565632,1.9031696630562966,4.291229564120057,-1.7191572872457241
2.8080000000000003,2.2277930590854593,7.96471115927097,8.486317630802905,0.09885194487081295,10.650868409018031,2.2410581392724866,5.514020739926222,-1.282454102647598
2.8120000000000003,2.1414189965148784,9.13609891045019,8.690362993139928,-0.005909000723268054,8.665288750506274,2.734129776516052,6.332019951392496,-0.807070169493362
2.816,2.71741904318276,9.48324989560258,9.010898206759578,-0.23653392679292673,6.734646170558307,2.9153792120265423,6.810241123917926,-0.7639649765226162
2.82,3.8849647605563904,8.795861953586977,9.365474742507814,-0.4391533058113848,5.843155672536481,2.3470612852515167,6.962310601216313,-1.4190596424581832
2.824,5.136787342488086,7.084300192320667,9.449034560666218,-0.5245527391158555,6.152689634507848,0.8966054763457301,6.796794071586801,-2.668645025208729
2.828,5.818348392694388,4.69653447325792,8.905523331820763,-0.5036846604295175,6.995022959432296,-1.1023224295075715,6.371440461002594,-4.040072089713192
2.832,5.523554184997142,2.25317892589832,7.538067658943947,-0.4461534508055278,7.305766117207483,-2.904925732954667,5.798369884320593,-4.896434334728139
2.836,4.334045246374444,0.38174165237046664,5.412113862036992,-0.418254460295274,6.2303259202171635,-3.657247494797915,5.183043135324451,-4.758471615381829
2.84,2.754724661893118,-0.6152963642371323,2.809486500447881,-0.4432915748510764,3.5752787654764404,-2.8025963714877316,4.525146106723668,-3.5678370665241603
2.844,1.4162376441034874,-0.9327164403918473,0.122062159459567,-0.4931896967177689,-0.1000123577747396,-0.3831209405816015,3.682018322885832,-1.7519068557465025
2.848,0.7233136361168112,-1.1514121249263938,-2.2788097464706274,-0.5205347175100936,-3.7640309833014745,2.9222519079640854,2.4445142521347862,-0.007636276708235634
2.852,0.6839381321303106,-1.8633949456323713,-4.093345075699762,-0.4767245397106352,-6.371853358755804,6.076722778244655,0.7140412003543481,1.0736764299924126
2.856,0.9839985544253324,-3.2676474228177197,-5.10694491167202,-0.3309554180669041,-7.277539504345014,8.111238045771035,-1.3457278907759544,1.3106698646464228
2.86,1.2227516068954154,-4.998393509500857,-5.215545527645389,-0.0903297515581789,-6.418697180694711,8.491199764086463,-3.3066809329585585,0.9914971151265148
2.864,1.1686308502931977,-6.289807934107501,-4.447154161763435,0.20288950725256605,-4.221773403237835,7.272439161078013,-4.636544363936411,0.6459920443823943
2.868,0.8403464941569933,-6.430289436750932,-3.026445043550967,0.45281228656849004,-1.356384651294238,4.976170181396054,-4.975435040261801,0.6805868357492812
2.872,0.4094310864747863,-5.209934661453479,-1.3625919198047565,0.5195957443680017,1.5348232331050338,2.3101458170860356,-4.345008868452597,1.1044702000529993
2.876,0.024357439730217312,-3.0824084078633405,0.06659726977321334,0.2658659623236086,4.0064464648953155,-0.11582726023014356,-3.148079600493702,1.5343322573771037
2.88,-0.3056795680540927,-0.9324809110454741,0.907090365525461,-0.3686669923095143,5.853385348396934,-1.9344385000185993,-1.951515033402665,1.4861061778718327
2.884,-0.6600050186373276,0.4400475133838735,1.1404645644951947,-1.2775915130536681,7.072933596779395,-2.9941050662833506,-1.1479694586075468,0.7485728150765107
2.888,-1.0831620072715102,0.7682882646312964,1.106474554693718,-2.1939156022118986,7.762374684400822,-3.283797922816812,-0.7515604446467834,-0.4229340043285328
2.892,-1.4854490250115115,0.4320005279076059,1.3237934924705406,-2.7918905246569343,8.023692530411719,-2.880490157677097,-0.45064935033969444,-1.4444224354971607
2.896,-1.682894210808676,0.15208260551697173,2.1576639920902267,-2.8713235984754473,7.888935576819615,-1.977220770726868,0.11020465227385579,-1.8138667186890567
2.9,-1.5585976922735556,0.4697486605505692,3.531376463647261,-2.5038112911394093,7.301740504382643,-0.9163812378128051,1.0146787333138012,-1.497610918869808
2.904,-1.190892747912323,1.3844536572832116,4.919502793304124,-1.9983351720678693,6.180934971670759,-0.12135645555391333,1.9734085779368131,-1.0165612913506539
2.908,-0.8591016389731534,2.3584582642498724,5.605966343000351,-1.7185029123919995,4.522017559593177,0.06845092212455761,2.508419215206859,-1.130261340431264
2.912,-0.8617950051967158,2.71110423825795,5.120635462509681,-1.8160707827569973,2.502260768344261,-0.38180031609946896,2.336117882360294,-2.2877757706128334
2.916,-1.290788426174755,2.1087819905922354,3.5447870897670057,-2.0874122406512994,0.4805062499276609,-1.1070551221794451,1.6560422783028188,-4.220240879564598
2.92,-1.9353696650551169,0.807559647912319,1.4729180283821988,-2.077903533087166,-1.133893113036239,-1.469579554961879,1.1098494155440326,-5.961934390624451
2.924,-2.4022778772442,-0.510508313785869,-0.3406544851563025,-1.3953839843487947,-2.0950943676686067,-0.8905131176566328,1.4056031706748877,-6.364534814676597
2.928,-2.4288935566092444,-1.2173138387115237,-1.4817847550711507,-0.06849821890724828,-2.5132393862694307,0.7644407816202041,2.8020651989145455,-4.797842391179041
2.932,-2.1284522266765227,-1.160484456806357,-2.1242539004103906,1.3572725877109808,-2.834452185599128,3.0205169823494504,4.846691600409618,-1.5757427555685002
2.936,-1.9797285354233725,-0.7295672797182196,-2.8564646190055125,2.092543745052352,-3.581809639836566,4.960474492696413,6.585452259479872,2.1838308786478215
2.94,-2.5260633163574795,-0.514982304354052,-4.180741407621179,1.6179512008681605,-4.971183817079046,5.6781292300333455,7.157113957048504,5.221592206536298
2.944,-3.9118974761675576,-0.7604500024019951,-5.961969710243466,0.16347089926876368,-6.613789148564568,4.80137640997815,6.4397210502494,6.919059338682512
2.948,-5.635660702598166,-1.0672497340890708,-7.3101476489353505,-1.258663269399178,-7.5852516613412675,2.7270207424542314,5.249016957932172,7.66624807106064
2.952,-6.7335186587820735,-0.6071812529932825,-7.029457885305774,-1.3740168120889247,-6.902943542699496,0.418584949912734,4.890989057427889,8.52342321228289
2.956,-6.368444866859798,1.2312027437314024,-4.447616297563965,0.5084912426186072,-4.2104937370144,-1.1542289298171124,6.260091911394505,10.342708190839454
2.96,-4.515896558211974,4.157773492638366,-0.14433134247406398,3.807267295837986,-0.2814369180367904,-1.619385417843355,9.001402386449719,12.897608315777532
2.964,-2.261914838101153,6.789196887880069,3.9828426744509526,6.648276330150269,3.046680462633517,-1.4701508667920877,11.339287044200614,14.621159863996
2.968,-1.4607932887935222,7.168132440708101,5.441217457274753,6.6280618300059775,3.587734734791727,-1.832727586673401,10.790843588642174,13.247461153121755
2.972,-3.807340423309057,3.828779797899876,2.4135074903076212,2.082675069536696,-0.08946233085771382,-3.8044977165598484,5.507616581960612,7.103032147950096
2.976,-9.788088582858478,-3.1772301082663787,-5.111473991216157,-6.815271897278051,-7.747008622925926,-7.739446090384591,-4.473417209549355,-3.662560518690129
2.98,-18.139764890976103,-11.948582943807263,-15.025884884179083,-17.794036998287325,-17.28698310982751,-12.897510273469383,-16.818427853391768,-16.636550815122302
2.984,-26.156575552490246,-19.35831309552242,-23.82668418827732,-27.264391544464175,-25.46696291096375,-17.663753134232095,-27.6269176020409,-27.86390686021892
2.988,-30.806418304276022,-22.41162655556103,-28.131615080340772,-31.853957449087204,-29.258233044961088,-20.264864189692332,-33.05109101994786,-33.445875231006696
2.992,-30.104137058032777,-19.642293877375085,-26.207556647039475,-29.91590072718286,-27.178387213444303,-19.593406177392563,-30.998768475576398,-31.246982701390237
2.996,-24.04885683279043,-11.828216718406251,-18.76359918730741,-22.2629011422174,-19.945373278375225,-15.723249423578437,-22.072210489189857,-21.865308312443343
3.0,-14.641509745047781,-1.6464592375838945,-8.615477423462067,-11.754713421322899,-10.120750661170913,-9.84939070415049,-9.28399867872991,-8.372710744608552
3.004,-4.948442466003751,7.570934257180479,0.6302329819328598,-1.944647257524863,-0.9215147081434059,-3.7000159140880147,3.316742913779198,5.018940380216101
3.008,2.260009615832376,13.293124511887715,6.133057405463274,4.4706836644095205,5.16855960520877,1.2290277480615819,12.368935339693136,14.696447394953822
3.012,5.632083946219159,14.751771963879573,6.902731766145123,6.66110922168373,7.323296059796118,4.253009246086259,16.447081535646404,18.95582607207097
3.016,5.588199512792473,12.97438471500632,3.92376462273437,5.686428448042205,6.423273140009037,5.601250120383079,16.28170277799743,18.32985018620788
3.02,3.7887480981833717,9.966266151678573,-0.6383035220887088,3.6323263258529304,4.307449576586514,6.057077963597235,13.960810607473244,14.92237019787886
