Timestamp,O1,Oz,O2,PO3,PO4,TP7,TP8,Fz
0.0,5.684341886080802e-14,2.4442670110147446e-12,3.467448550509289e-12,2.7284841053187847e-12,1.7053025658242404e-12,6.821210263296962e-12,2.5011104298755527e-12,-2.8421709430404007e-13
0.004,16.275581398948077,35.2926794945858,22.8783305883955,13.55005120523515,31.753371707332406,11.358129998994968,7.753838133268573,5.811093852806209
0.008,27.466071613002953,61.006616873590474,38.768153219715316,23.01167544337659,55.0709441133713,19.906423633170448,13.136473541541704,9.519918906607415
0.012,30.98817322161068,71.8388536147562,43.95998401935958,26.367899045198897,65.44213910664126,24.052509334907654,14.895122116446373,10.062210141971661
0.016,27.90820287580152,68.86021042746563,39.60036727146513,24.59091555702173,64.1337063906413,23.990512927868735,13.397038418666739,7.882165215347754
0.02,22.102215007989344,58.385460923169774,30.751223852889552,20.887712964328216,57.00235698665125,21.34089985611115,10.240033761096129,4.571210237023479
0.024,17.982944988619067,48.39260528228556,23.557251420133127,18.776034617936375,51.07434514002847,18.134433360573553,7.264279658113992,1.9268544177257354
0.028,18.115068463845944,44.49929658828057,22.111600353168058,20.11652810186149,50.85380270536575,15.76333862511035,5.58195223282803,0.9935711856446687
0.032,22.051386649937683,47.65640381175359,26.722019798790257,24.230769790890804,56.408409850808084,14.492323136692107,5.1789827963170865,1.6255482673070674
0.036000000000000004,26.96973016499146,54.61091308819954,34.37163864707742,28.549413316661344,64.12263878302213,13.742708274624079,5.256933212533227,2.7703089206503364
0.04,29.578060519319763,60.50841546438477,40.85281663646589,30.284747136204032,69.36209199205092,12.8381993058415,5.015980385691364,3.240805673211355
0.044,28.076644317252033,61.9247455454269,43.21756266302924,28.07870866618009,69.31901341821896,11.64649164991431,4.31394008523057,2.462261002707976
0.048,23.04186367668649,58.568002881162215,41.13964009439104,22.67117007353329,64.36406502118439,10.695000438999614,3.7568156925668745,0.7482081003788039
0.052000000000000005,16.850192792802773,52.92588234910778,36.61294071419201,16.318670924646312,57.354800168320054,10.720468887491961,4.208504621608483,-1.0133944514668656
0.056,12.139844724366924,48.40358754060736,32.43404577209529,11.445146174846343,51.62444396459742,12.012298644164048,6.111685720423679,-2.0041510302081065
0.06,10.317522928382687,47.23244727106919,30.506464851903132,9.387266747985109,49.0039216647306,14.04795206996721,9.086090135395182,-2.004302865967361
0.064,10.995724329831546,49.40271500368783,30.975951104503878,9.956778951159379,49.06050898338526,15.702992857479444,12.095680072272216,-1.4767357183077365
0.068,12.5575123848555,53.05010148546381,32.53318011833832,11.92685552193683,49.80212220460979,15.912796694252734,14.066080089265881,-1.1907390654146184
0.07200000000000001,13.380648818836733,55.865541215682185,33.5259695099852,14.013913793159759,49.23136729690992,14.367525714835324,14.53813602972258,-1.6544352143990864
0.076,12.918465741710577,56.55932992575754,33.102717981799344,15.680249949822326,46.69107656912203,11.77600437173885,13.937424913714267,-2.7445268956773248
0.08,11.964824705162783,55.46388810883366,31.65402619838946,17.256759682118513,43.14749241268231,9.492450553365643,13.258042402825765,-3.7856018665857505
0.084,12.00615889775824,54.04529309191702,30.38951235043359,19.418024283611032,40.37160475565938,8.71394928413622,13.381895726749065,-4.021716159358505
0.088,14.13073801950415,53.764794222776686,30.42505156314371,22.450864610374367,39.66643005741119,9.737456362967691,14.487341187454945,-3.1665757223256605
0.092,18.23887708141143,55.12648476021826,32.04352355035394,25.878300017981132,41.0490598966488,11.75506062024209,15.925624810639363,-1.6761072559523882
0.096,23.05088334578295,57.49950227099799,34.60050840539046,28.712516743457286,43.406991429503734,13.321186139040037,16.65532708293125,-0.5498543858415417
0.1,26.840003346625195,59.668205613607114,37.028489709751454,30.115596484411924,45.388910302847904,13.207034118417539,15.95291973979704,-0.7700569822753209
0.10400000000000001,28.388931242060124,60.642089469625716,38.538174214807384,29.982231258352044,46.35257161677907,11.128310557561974,13.925853276548708,-2.726729633506494
0.108,27.589579772885543,60.151529200476034,39.02320681093002,29.00987190776516,46.69781418275929,7.90446749966361,11.486263924277921,-5.974990495489834
0.112,25.396794718886298,58.62784196008883,38.98502917873577,28.221571503307587,47.4526587711851,4.9793675525023104,9.820376980626577,-9.439027779660591
0.116,23.240322742650733,56.81932748173284,39.121001398876786,28.27917667091009,49.47465735755438,3.609840182503376,9.705681384541833,-11.925980170928995
0.12,22.251582493706252,55.31449739560844,39.84436864218807,29.022210038466596,52.781160696583896,4.185263493599621,11.079949669584039,-12.657466153205263
0.124,22.742860550696776,54.282686701941174,41.04511493987172,29.552402841146773,56.44428324413323,6.061285441650568,13.112709695173123,-11.533091471551273
0.128,24.159094350250427,53.508297326584625,42.179119911090595,28.80994809366888,59.05894591550296,7.971744603629929,14.706915392793917,-9.020538107476625
0.132,25.455220567834886,52.64734658075321,42.60018632932437,26.281323491937655,59.490389664842894,8.756174884834081,15.115322188985544,-5.792982953340328
0.136,25.648566937324034,51.51050391151398,41.926289591379145,22.391265593907633,57.46563399450861,7.980016616283592,14.314498550294559,-2.3698487246164177
0.14,24.237635156329333,50.15825087117503,40.19838218459665,18.319401178201815,53.64254803065282,6.1051763697507795,12.927144683476058,1.0204016691413926
0.14400000000000002,21.3360052004777,48.80194902189908,37.78854123883619,15.354934083736794,49.17649661459001,4.139125689373145,11.769265636675755,4.300434956907225
0.148,17.52746447210285,47.59815471182759,35.13375101201609,14.169456829393084,45.05907132605043,3.0017195779288386,11.322647352611853,7.2788697960741615
0.152,13.604461475695189,46.5364581206573,32.520952696810866,14.482184491120847,41.677042587031906,3.0034471499894835,11.489060960355516,9.507628573521686
0.156,10.323429566751884,45.48806855412272,30.043391246382697,15.317593877687102,38.81956975042118,3.723332421776149,11.736374052232236,10.401056935601105
0.16,8.214442869130949,44.295822090219474,27.662060243881285,15.649327669436275,35.99857350389101,4.322140686001376,11.494073071314517,9.56832822491765
0.164,7.47746811079827,42.85405957610175,25.32867221549509,15.054400673071427,32.8666347208071,4.082040906269754,10.551450587125032,7.153409363866729
0.168,7.93655455046445,41.10167858195217,23.044270614132472,13.956535780067952,29.440372038304986,2.841561607468293,9.180199825132945,3.919795263800154
0.17200000000000001,9.098724046073357,39.02312576774983,20.871149055100318,13.339693090112632,26.084323646736607,1.0888833691684567,7.931407462719903,0.980456520303278
0.176,10.338468146129685,36.727939164189024,18.937587423843752,14.133222276630022,23.35250575424294,-0.3151526657152317,7.25608471653095,-0.7162397152894187
0.18,11.157287888503447,34.51565873164316,17.405873185892858,16.6296805778735,21.751036107246705,-0.6171242681263038,7.187649427279439,-0.880372230172668
0.184,11.391806510110825,32.84471676876433,16.418530452241498,20.280658969049,21.54584570973401,0.40264773019930544,7.295939535208845,-0.06733382427944434
0.188,11.212049053040005,32.12066719966549,16.013158154138466,23.948894247381304,22.653400935998548,2.291281774305162,6.928151403368702,0.5724718787040501
0.192,10.95251907051329,32.45060100232433,16.074966266864692,26.488687860804475,24.69061029432072,4.153562416729528,5.6081840182762335,-0.11446331976816282
0.196,10.87078701734265,33.54341926069003,16.380561709854078,27.328386307452206,27.18119847753087,5.116324868160291,3.3799293751255846,-2.6470632863976675
0.2,10.94174422197284,34.802658819067574,16.687697939435225,26.696764043904636,29.767630905805845,4.757251311578102,0.8722273776227212,-6.57314247956117
0.20400000000000001,10.841652844015016,35.613195431648364,16.834957942127573,25.400661036977,32.33815556212488,3.2720996247434186,-0.9629982943580444,-10.62781564759132
0.20800000000000002,10.135659148637842,35.65326413184823,16.785776032973104,24.303446642412382,34.9911401743463,1.3136136788273234,-1.302150958744619,-13.296838089150128
0.212,8.601869578896526,35.10172379545463,16.64272849059114,23.871265713665252,37.91796560297507,-0.3620005247116751,0.15749870285878842,-13.469202230305541
0.216,6.505423534981219,34.6095900800467,16.630162352601133,24.05588087176784,41.27007838271993,-1.2314726391575732,3.0685025298729443,-10.861930925890192
0.22,4.6006027774492395,34.95461431833189,16.994234852041245,24.51410043562771,44.999872398869456,-1.1576299853318233,6.601138449323457,-6.0431337899036635
0.224,3.8137793648500065,36.56033512367287,17.869329197820093,24.980128412110503,48.75046100671938,-0.3194058181886703,9.801930366561237,-0.10876011315076539
0.228,4.744354127096244,39.1476588875812,19.1592731173983,25.495311465674604,51.85154097664497,0.9790974530828862,11.945144558012885,5.761940941771172
0.232,7.265422009439362,41.7714945960081,20.511730648326193,26.336408746873076,53.48037191374681,2.478202168195139,12.737981987739772,10.64052522956922
0.23600000000000002,10.443827496897597,43.22840888055555,21.390860492666036,27.679249176451094,52.92387888090451,3.9968694890119423,12.304155750298492,13.951022089787443
0.24,12.864888004231602,42.634022791604025,21.238299654491925,29.256091627393516,49.85409484408325,5.352427430661692,11.023805393863995,15.413357100516805
0.244,13.266786984752002,39.9269974866354,19.718207819958366,30.324475710036268,44.56105620563335,6.291764431498905,9.373020455206643,14.997184352492695
0.248,11.153721572209406,35.98409911267379,16.926045074974695,30.019980247561307,37.984058902899164,6.530272764617166,7.836636449133493,12.970719005695855
0.252,7.068982322129045,32.25442854984033,13.442187991221203,27.902943333902385,31.467824646871122,5.916331536372809,6.88079343160166,9.99584078645205
0.256,2.3780535060429884,30.099457622466502,10.17876374871014,24.35081458708396,26.31546500328875,4.60658197889552,6.906391403314274,7.102091884196966
0.26,-1.3417353034062671,30.184969584357532,8.059585866908378,20.50295481098169,23.321562840445495,3.0925898372024676,8.127636046708858,5.396318161341355
0.264,-3.0034639851749034,32.224335029922145,7.640493400052492,17.71630732256199,22.491857036091574,2.003289393929208,10.377149818965336,5.53365957031167
0.268,-2.5261590548094546,35.09869150468057,8.788049145946388,16.76393916292932,23.019593093389403,1.7227222787018945,12.932768368116058,7.194023120758743
0.272,-0.9172975881202774,37.26416048647445,10.592873583694768,17.253760836432548,23.54968123285812,2.0390673136087116,14.537373360564516,8.920250059723344
0.276,0.1482961411747965,37.29596549721339,11.647385311045696,17.677099285370332,22.696535142972152,2.087006968165497,13.738276948897237,8.562686465711636
0.28,-0.8952512849795085,34.41862852106226,10.659255583384038,16.17182772427759,19.669327182031907,0.7197117940841053,9.508754418773378,4.274645561486068
0.28400000000000003,-4.702410626422761,28.879098868412143,7.18537319955135,11.648348836181867,14.769254818145669,-2.817509687053871,1.9076995875602734,-4.381355657413906
0.28800000000000003,-10.588194535171624,21.98163520852495,2.0834879194084124,4.6315139369887675,9.458103002079497,-8.283674090579552,-7.579854634765297,-15.812516493288854
0.292,-16.68374159702762,15.72616061385338,-2.637949358978517,-2.697772919883164,5.868190459778361,-14.289940360662513,-16.306015033811946,-26.695562636628893
0.296,-20.639012752506005,12.153679509872518,-4.579224959421367,-7.362865596068104,5.934591328177248,-18.74876882444414,-21.316712582343598,-33.185787488027586
0.3,-20.577273052487726,12.628442734421924,-2.006262843357149,-6.951631894748516,10.537865017614877,-19.759364481330294,-20.47879900456428,-32.51338525138226
0.304,-15.898822011097877,17.326609278597516,5.287940171790638,-0.7892453067688621,19.056983852469784,-16.499504240237457,-13.392709531752189,-24.220771827981366
0.308,-7.604447222142085,25.102576258544104,15.729257374128565,9.66264573700255,29.521543323964465,-9.66986453683694,-1.6528435006330255,-10.427876572450145
0.312,2.0202505003255737,33.818208117263,26.475297849653657,21.39581575835632,39.30343574973995,-1.2426122943372775,11.704265704742738,5.026066170316767
0.316,10.244817106291976,41.05893199741104,34.48652040917227,31.13290952870875,46.053776705120185,6.369998582187691,23.3300178870561,18.153244921955775
0.32,14.932873627691833,45.00929000394353,37.71069351189476,36.672081266341365,48.51572690840476,11.321879391691255,30.785566498776006,26.360548695570287
0.324,15.350400187594232,45.13670898522514,35.84934378745379,37.66444456846216,46.8898896304122,13.026817033145562,33.32643490436044,29.253832587948637
0.328,12.37899062876636,42.33250792163108,30.345503817323674,35.475908981414705,42.58062315130314,12.215538053711953,31.913243261557227,28.39541433653244
0.332,8.035564712040355,38.407857717664456,23.619705397380585,32.279999931923385,37.45792165938008,10.377718274634844,28.502668444890105,26.236420893841682
0.336,4.541125742689587,35.203777806088965,17.97353694686683,29.916272867052157,33.02976871354599,8.938796931007346,25.041522172283067,24.83349367793221
0.34,3.368956109432702,33.76226883694926,14.702615695353074,29.101381844584694,29.930543716333432,8.621282826001561,22.664857800453092,25.00232783929914
0.34400000000000003,4.718510338354122,33.990302370616746,13.815463007925246,29.350457262475402,27.942245639470457,9.293397711970101,21.453912285651768,26.25052782550074
0.34800000000000003,7.620271819148115,34.928383800397796,14.377242860704769,29.53415947466806,26.42460384914591,10.2990437642693,20.772529088628744,27.38978111761844
0.352,10.561281720981242,35.40485779962853,15.182190094514795,28.678816220985937,24.83699805511253,10.986298880190361,19.87455372920408,27.37205133536827
0.356,12.290747493339836,34.706272770877604,15.3765976089569,26.557992392790993,23.065483704548797,11.092501395468389,18.415784050937418,25.86747170335775
0.36,12.401866698879303,32.92629224888856,14.760632347721753,23.79307780670024,21.43785681866848,10.796354252346191,16.616038605593758,23.333542525508392
0.364,11.439208210076913,30.863156702712104,13.724162272343847,21.482662285035985,20.50911766706929,10.45839611278734,15.042847363307828,20.63235833365343
0.368,10.500089715320087,29.528615912296118,12.916529864208883,20.59324295815918,20.739802483059634,10.256860104870157,14.20175127294442,18.491732303715708
0.372,10.55333789059273,29.547641249443814,12.867167501973654,21.443615245568253,22.242531763859688,9.984282287611677,14.20325328476224,17.14235058319332
0.376,11.880973205330292,30.80986304570706,13.754899174546495,23.544328274945883,24.725494153528075,9.14497589425173,14.706679561160627,16.305385043688602
0.38,13.956836328244663,32.56947560261028,15.404388043070185,25.8578945513093,27.64365047937099,7.299455228325769,15.143161895680578,15.492800074126762
0.384,15.810986741421402,33.921364188403004,17.457968818301993,27.321817801152747,30.460791599424738,4.446898116941611,15.062100507240302,14.396848379521089
0.388,16.62930958380025,34.30752133008309,19.547470530560645,27.344521845253894,32.826013148755464,1.1947298772597605,14.373929809740275,13.1199664145704
0.392,16.206308295165172,33.72517671165156,21.35198716215973,26.031316960653157,34.56492193937993,-1.4275451555931795,13.347495209263116,12.123689015425498
0.396,15.018847682554679,32.56753927011982,22.58001143584238,24.06664772505792,35.5565481278378,-2.4393151151812162,12.393757092022042,11.947942416919204
0.4,13.91194289767509,31.257080076589318,22.96674181129754,22.345212343953108,35.63524470585446,-1.408500833753351,11.80125513150324,12.887115295916828
0.404,13.612137295583125,29.953109513502795,22.351233258685397,21.548880655994253,34.63240988535097,1.2944577858488628,11.582217514295053,14.804340116785397
0.40800000000000003,14.34065262686795,28.484542405384218,20.774718775318888,21.836706847603637,32.49909323165252,4.618713501356524,11.498664676665157,17.154424523692796
0.41200000000000003,15.738964188985392,26.521319309848195,18.51966295056627,22.770036564843394,29.399230984120436,7.2769795449571575,11.222589873265406,19.194975886317934
0.41600000000000004,17.124782267240334,23.856675922456816,16.036222331352292,23.493273833499188,25.691352721678413,8.301392600077634,10.51035058788716,20.2694614292991
0.42,17.90104699273934,20.60840594684737,13.764003199999479,23.090275215108477,21.794430692188826,7.444198948402573,9.284626016608172,20.030114813998807
0.424,17.88384929396102,17.237478161174977,11.96763848544515,20.991180271356143,18.047818006712873,5.2424769205913435,7.611865167727501,18.537724746562162
0.428,17.348455540444775,14.337580767034751,10.647688607303849,17.246368837219734,14.618690759492324,2.716992505070266,5.603626373094812,16.209215499061884
0.432,16.799317284110657,12.325679868816678,9.586903307482544,12.555578274275831,11.51514620778903,0.8679183286753869,3.3312155728290236,13.647922527544551
0.436,16.637138667861564,11.233211233386555,8.51328975324509,8.03746135952315,8.712516524503599,0.2204022146152056,0.8359656233328678,11.432198618271741
0.44,16.95444392662921,10.734375571365945,7.293220442754091,4.833343231139224,6.3223103626739885,0.6480827880986908,-1.7954825825599983,9.929012990039155
0.444,17.5682561316155,10.396615953531182,6.054473840006494,3.6936428745548255,4.6893420683695695,1.5400514283010125,-4.3550962241097295,9.18307069796083
0.448,18.21127872490706,9.952673913059243,5.134536145895936,4.6798212943404,4.288371681739818,2.1914241593503903,-6.512542607000796,8.919951294676139
0.452,18.708479366124948,9.413253776514921,4.87125981578879,7.109167004291976,5.4385488255004475,2.1895922362296005,-7.923025861106453,8.656472268360403
0.456,18.998672450429467,8.961365287504123,5.3652269909885035,9.76985341440377,8.003824868047559,1.5778075039802388,-8.405759375581965,7.878178782599207
0.46,19.028053862323304,8.739216840091558,6.378891708483252,11.355734340415893,11.29456432431698,0.7387916647567181,-8.08694121485405,6.2353979591130155
0.464,18.648434945134568,8.719357737407336,7.4647050846772345,10.97642223772391,14.301032148530794,0.09458059731014146,-7.400112564975643,3.684377946747418
0.468,17.6389266502365,8.72439033005503,8.226671547381784,8.523215369493755,16.140006716969538,-0.17763246364802399,-6.928288261165562,0.523078736705429
0.47200000000000003,15.88419743051827,8.56159211112572,8.553652621541232,4.722225365124359,16.464306442652514,-0.2381682681352686,-7.148221823730637,-2.696464255520368
0.47600000000000003,13.584500458396633,8.175511041731397,8.680800368358405,0.834907917064811,15.608587684498843,-0.4373643411258854,-8.203242942999168,-5.356080538348124
0.48,11.322733843428978,7.713187501746461,9.033052273255407,-1.866236965344342,14.384810518540235,-1.0181436213806592,-9.819302477522342,-6.977419323726963
0.484,9.894914679944577,7.4690286709706015,9.942539798560347,-2.608917251226103,13.643434367478221,-1.8785137527402185,-11.410471560728183,-7.3653312546309735
0.488,9.883524010540214,7.693709303980313,11.377555344167035,-1.4350552947612414,13.803453915424825,-2.5710902644068483,-12.32980015893213,-6.6361337488867775
0.492,11.220430441145254,8.39053554530551,12.845494982013179,0.8378056943392949,14.606208684008266,-2.54506413723675,-12.164244252200888,-5.130188805518856
0.496,13.033855760921142,9.239179748161632,13.545263773914598,2.988756087520869,15.232855264223645,-1.4944057334782883,-10.92969747721122,-3.2697488871917813
0.5,13.941942353247896,9.712010126311498,12.715934365437874,3.912657471952798,14.734155025397627,0.40707235978106837,-9.068617593542058,-1.4200729023571057
0.504,12.71879506450864,9.35152916326524,10.031274162243449,3.064653762791295,12.558980306521562,2.5471719829379253,-7.257176993311305,0.19512950606167578
0.508,9.000598860829314,8.025143561110326,5.8158246259826,0.6357902448853565,8.859614651920197,4.182259969121787,-6.112108522934932,1.5037972298539444
0.512,3.61366003573562,5.9977108245677755,0.9596304740445021,-2.611172940906272,4.393942730150229,4.823350479500277,-5.939006620236341,2.5220890063146726
0.516,-1.6961369173388903,3.7935752126018087,-3.427719851698839,-5.720708535458698,0.10236832987686739,4.469721780191776,-6.635418691529139,3.2656347381366686
0.52,-5.006459760462803,1.9577795826742204,-6.440211551085213,-7.91710094052678,-3.3621823584343247,3.5648393837664116,-7.766286684270426,3.696016759112581
0.524,-5.061336083920878,0.8709860790318089,-7.6628639938937795,-8.793856092397391,-5.860311424185738,2.716673311451814,-8.768275989998529,3.7187368490369863
0.528,-1.8023811824066343,0.684299684668531,-7.223659664853244,-8.28589640575683,-7.663061549489271,2.361976398765364,-9.191439879151858,3.232521136768355
0.532,3.6445936151762908,1.3519345917381997,-5.621588028061296,-6.524843975892054,-9.12092830225049,2.5689012880857263,-8.861960562282775,2.201890179788734
0.536,9.50153748230855,2.706535750581452,-3.4537203796522817,-3.721431947541305,-10.334774121630971,3.0857290394123993,-7.919850670928099,0.7101334020408103
0.54,14.098911174148043,4.519642027303462,-1.1764682886245055,-0.15452875661389953,-11.031494491579906,3.583527351417615,-6.72657186455649,-1.019063535680516
0.544,16.49898190177703,6.538628186697224,1.0164645258518021,3.7665497123400655,-10.699387042510011,3.9061475172456994,-5.676573113471704,-2.642566753368328
0.548,16.71932295480815,8.491929340510069,3.1516199858469918,7.462024815707991,-8.913355473287766,4.1537746029275695,-5.02429831660811,-3.769070751977324
0.552,15.506938125053466,10.080959031728526,5.316263022927387,10.247917712873914,-5.660631601176192,4.5383032250970246,-4.804660329911258,-4.0787302842059034
0.556,13.877033269207118,11.01671377033108,7.490923499531846,11.53612341908297,-1.4603987496915352,5.123502037708931,-4.862462235540079,-3.450531249011874
0.56,12.680598581672143,11.10036674626167,9.473207712267708,11.083148555765092,2.798194001996194,5.652283163350148,-4.9675808148808756,-2.0459778630593064
0.5640000000000001,12.3964469332293,10.323849242693996,10.945641938801828,9.152490615163515,6.2355422350043455,5.62755885839897,-4.936989259500024,-0.28810618399143095
0.5680000000000001,13.141958633632044,8.890421742873741,11.616534665974541,6.457490825165678,8.343436078751097,4.617903392634162,-4.709418609107843,1.2786117364260008
0.5720000000000001,14.782426455009158,7.114140630768816,11.348537349861886,3.8867625270140707,9.133633635865749,2.601797775714431,-4.3516392188821555,2.211213406995512
0.5760000000000001,17.033062780425894,5.2746312170554575,10.222719030806388,2.155339194155431,9.034484203382704,0.12263638869012539,-3.993297509134436,2.3912302850114884
0.58,19.507127108823966,3.529838032660791,8.523079541262177,1.5593419173324037,8.630586956066963,-1.8806769951015667,-3.729823270253519,2.1455812981569125
0.584,21.731131137694547,1.9517584346106105,6.670853704081992,1.9497205769557695,8.42169644000694,-2.5079976496247127,-3.54263263232815,2.182213889010768
0.588,23.193026660006126,0.6328674357101818,5.115216031699788,2.8984894246000295,8.682016791633373,-1.3729702778205137,-3.2936581465539803,3.319805698967116
0.592,23.45143160107648,-0.25265695585630965,4.19129730034831,3.9195660759819475,9.41905321858735,1.145636885869635,-2.808514734984783,6.098335121969399
0.596,22.278203304581098,-0.49639317674132144,4.004539494761957,4.618787207868081,10.419342306015324,4.041006243072388,-1.9943645227317575,10.453603442562553
0.6,19.764333961503098,0.001775292377601545,4.384635005446739,4.726464827723703,11.329132519219229,6.151059342023018,-0.9321730820636276,15.62777372231767
0.604,16.34044696100068,1.1042557218548836,4.943848940716634,4.0686350219386895,11.761373415951084,6.726674383371801,0.11855197293107267,20.394533508545237
0.608,12.675081844574606,2.4146694270010585,5.225987467241566,2.5711686181989535,11.415556403350365,5.79573716860682,0.8242229273948851,23.535466750101705
0.612,9.467000681171157,3.398322548278429,4.878753763632062,0.32980578167916974,10.181719593119169,4.116543920138611,0.9361516591729924,24.341324282706637
0.616,7.226105974839697,3.6213496746311193,3.79612126697873,-2.2980619696629674,8.218514050137742,2.753332762262289,0.43048391830211585,22.900955685383565
0.62,6.130636421940153,2.982995066073613,2.171189500118203,-4.680988314217075,5.969106785633699,2.5142948560771856,-0.4548007182713718,20.038580419267646
0.624,6.014177101424593,1.8098065286172869,0.4380069844096397,-6.054237910209395,4.086460489361002,3.547887321730741,-1.3117484301494642,16.91884586890285
0.628,6.4562536222495055,0.7120377398305209,-0.892907991420202,-5.811270220646975,3.232061729143993,5.308102914289293,-1.736418853429086,14.517451838429679
0.632,6.933763071196381,0.2595110116477599,-1.44584728369,-3.8104170194533253,3.8077841930345357,6.8829738526828805,-1.518069571298156,13.221420806064543
0.636,6.998900421572671,0.6673247724871771,-1.1290909606207151,-0.49812936908324446,5.7566525072552395,7.493561220076344,-0.7366631096483616,12.763662652963603
0.64,6.418015381691021,1.678800234820642,-0.14714678458051367,3.2566854516328476,8.555348985392015,6.8910036347642745,0.28907812665920574,12.509493384129314
0.644,5.244672069543867,2.7439346687896204,1.1370565551915206,6.56438397551824,11.440740341194783,5.449645321381695,1.177803393906288,11.91178742511272
0.648,3.798293430128865,3.3665716393103366,2.399907605634894,8.932682384800955,13.748401025918156,3.9263534091928705,1.6879151527868999,10.868364737493039
0.652,2.549041286549823,3.4043689519570535,3.5031527082876437,10.460696591096848,15.186432571190267,3.0358407956587143,1.832023777034692,9.77882389138756
0.656,1.9442057325755968,3.142267389304493,4.516742967318464,11.6978892407883,15.910947288748844,3.097361353279666,1.8520403257841735,9.291351953417006
0.66,2.2552043583884824,3.1009304013171004,5.624577455709755,13.258733572504752,16.37560317168868,3.9324420902942165,2.078136406219528,9.889694038188054
0.664,3.5148892649298205,3.7070199106658492,6.976946961497674,15.425662864404558,17.051912052415673,5.043262556562013,2.766567362178762,11.566140173255462
0.668,5.53924705129532,5.002311284812777,8.559570251981313,17.965016943126784,18.14818722531902,5.932925926174221,3.9896363452230617,13.779585394112814
0.672,8.005336296697806,6.560979402490943,10.147011945209726,20.250261193650317,19.46208463302486,6.361120138467413,5.616581498752112,15.71431222243757
0.676,10.541009251051378,7.672501309571203,11.362578576675162,21.60751601941172,20.436051392871434,6.389222499816469,7.375419391655555,16.681737425322126
0.68,12.78419039575715,7.693249073574179,11.817465699004174,21.669616691082524,20.384623778901414,6.221311507579458,8.943618656524677,16.44503074670638
0.684,14.431689328170933,6.402326067518175,11.277457562694224,20.555960198779758,18.809784709353607,5.977397272561802,10.025986584415023,15.29411038553485
0.6880000000000001,15.290684999952646,4.163144343500221,9.771534697716447,18.797746619259783,15.650781788435154,5.573103801795014,10.392895765835192,13.850199116002045
0.6920000000000001,15.332277610731694,1.7849227424100036,7.587647742648187,17.071801184703645,11.352091638299498,4.7979981157172915,9.896792923836756,12.72173467076152
0.6960000000000001,14.70913292537216,0.14333281211531812,5.169334805095843,15.890797752040271,6.729828331917702,3.5325793350723416,8.516521782300401,12.202125624713517
0.7000000000000001,13.710857314048553,-0.24919076886965286,2.962689718801471,15.404249783461637,2.6964721877596958,1.9431206712840776,6.412872978287169,12.167006106862459
0.704,12.630920292999804,0.49836189830307376,1.2896209456783936,15.38066180026874,-0.029779632881741236,0.4935923007337806,3.952508057521186,12.194609087497383
0.708,11.59522728673619,1.682393473858042,0.27817851599735377,15.33411237547648,-1.1434537664105164,-0.26764660384219496,1.6542407290233996,11.807453366316963
0.712,10.458631716687933,2.311761289400465,-0.14309427234587702,14.7173059220205,-0.8315511116566654,-0.03750940774511946,0.024838517738317023,10.696102924342995
0.716,8.863217702135671,1.5714603022793199,-0.19051629474711262,13.118101224051316,0.32095038499431894,0.9990806843175051,-0.6549887365545146,8.828673819587948
0.72,6.498597987729227,-0.7474023882507481,-0.13371474378914172,10.428593002430603,1.5739264335812209,2.2057023823758755,-0.48701268352988336,6.4183654288549405
0.724,3.4485334568724397,-4.03922892387402,-0.20156233785979794,6.957629265308128,2.343904204525984,2.8161188596391185,0.04584173460432339,3.7990424146444184
0.728,0.39183142664563775,-7.031196827235931,-0.5163642239355113,3.4315271587960297,2.442927194258232,2.3737139618363017,0.27864167624193215,1.299101189405519
0.732,-1.5528013946218948,-8.278060072240123,-1.0812509833815511,0.8105201677893774,2.1196902861510694,1.0250950481333803,-0.3221881758759082,-0.840576292770379
0.736,-1.3311024541012557,-6.803664839813223,-1.8084666870286696,-0.05010202944390585,1.8932114757413387,-0.5142293965602676,-1.8793226659679476,-2.484162876959317
0.74,1.4217257564149577,-2.606925718510638,-2.5552310749015987,1.2183364769140326,2.257110168165241,-1.3241352190354974,-4.009192006866215,-3.5763977348304934
0.744,6.003381942077112,3.2392962354583688,-3.1309977718123037,4.263618165857679,3.424935495552745,-0.7753507496062184,-5.978244834577595,-4.1021782575513726
0.748,10.793640818182098,8.96511929950509,-3.3012866266870446,8.074636982274228,5.2254999783411336,1.1229046175891426,-7.051628572343816,-4.053376728553644
0.752,13.941699251083662,12.809377131597216,-2.8156846289590476,11.368297980024636,7.192749327773697,3.716907587468654,-6.840877792284914,-3.4129823906828847
0.756,14.278114521631835,13.732936016601059,-1.4745071156941094,13.151002120696603,8.79657743914322,6.048641806495311,-5.479390306171467,-2.158727331418845
0.76,11.946439403796717,11.7981030812403,0.7617035401759154,13.160947077146602,9.67466602883593,7.342883587876486,-3.5306316595828093,-0.2945645277353037
0.764,8.374890182372269,8.053573823164697,3.684640018778964,11.94705390059437,9.763608545982152,7.364751003490824,-1.6749270171058015,2.095321840169049
0.768,5.553968793174533,3.9719375138033683,6.814879035151307,10.520017438677087,9.25383633943511,6.468065372474371,-0.3545010026289219,4.791101491247389
0.772,4.985450874739115,0.7326569751820671,9.476888803805195,9.754023865825957,8.40442639946599,5.3294068201000755,0.42109055427363273,7.415905325366339
0.776,6.884004166222326,-1.2626431503732078,10.984277360290434,9.88591977273677,7.352471784660622,4.5451933351732805,1.009620660869814,9.49431846338905
0.78,10.08989440305453,-2.398734460017863,10.87675783821578,10.40745189343852,6.041682688553465,4.333573047398204,1.856112733780492,10.594024923740449
0.784,12.769353301174249,-3.383093703637087,9.138562693439667,10.432884820932145,4.335354891687871,4.502989713501961,3.1827830194574744,10.51173690343495
0.788,13.493684793808313,-4.620329136644159,6.29040252128118,9.318721228881031,2.230040575094108,4.669136093891211,4.831977806788586,9.41629276958264
0.792,12.05848790487704,-5.82277902383413,3.2829482348618058,7.14148765951154,0.01864582496409639,4.558829313428191,6.370207311855097,7.864899809348856
0.796,9.577801884114479,-6.1029399304445064,1.213348953246225,4.741963451867491,-1.710980437217529,4.197378019259531,7.368984223871394,6.641797413023255
0.8,7.797626751808991,-4.51901047195156,0.9448751273776566,3.290104150558591,-2.283138695108221,3.872781941499966,7.683067954177545,6.456736219561492
0.804,8.058591190604375,-0.7248116743485298,2.7832453307874516,3.6270630724004604,-1.230893030464813,3.9173273663988084,7.557444940028745,7.627786703346203
0.808,10.505725239453682,4.660770949191317,6.334638114647589,5.766553537221284,1.461385333735052,4.451710490347068,7.479715614464794,9.891059656586947
0.812,14.004129068661086,10.211128222783714,10.610427155306468,8.850823529281342,5.291792926943174,5.261546039422683,7.862687335955343,12.449548463411304
0.8160000000000001,16.786703289626644,14.322056155559721,14.359200423866184,11.587500777991863,9.39617622495615,5.88898777297959,8.752058676681713,14.259841898994182
0.8200000000000001,17.41366455039656,15.967469160952248,16.51009204511172,12.905169298191481,12.847765372610354,5.890023403252826,9.759221528306966,14.449540293916812
0.8240000000000001,15.52271431860305,15.20068815653741,16.584506242353143,12.482275369257195,14.990021570462488,5.098968878333608,10.283033851069376,12.70079131036988
0.8280000000000001,11.963634473127627,13.107660767063805,14.890163213180813,10.863799600799325,15.635260271432003,3.7488459125050895,9.885939403815428,9.430037918618893
0.8320000000000001,8.294892018062967,11.226727631903941,12.381801211037384,9.131485693973445,15.036100610553888,2.3886195843056157,8.591967927634414,5.668362401994727
0.836,5.978781443126593,10.742840449470009,10.224445740425153,8.34714586132202,13.664973798151493,1.6321938665483913,6.91693097586699,2.6790556820180313
0.84,5.733826867061566,11.888844117445274,9.255442204026053,9.070187177660273,11.934715809564352,1.866325903222446,5.603351642677808,1.4763374442757708
0.844,7.387539137671126,13.894147874246073,9.610857861627267,11.187230968334916,10.031165877937838,3.0674786247076327,5.227136234524664,2.446359538611091
0.848,10.19547897236015,15.46576615286341,10.695444006353853,14.068551769395185,7.927409888046384,4.81996891633321,5.9107310090622605,5.230369039803804
0.852,13.3359993672276,15.51816366340131,11.530044111094668,16.89445744279385,5.560780373031946,6.5265453762439165,7.315091472113579,8.906400884456218
0.856,16.258684915766196,13.758404868434752,11.314169594096143,18.960402090143532,3.047782355612185,7.702631810091589,8.903272956307262,12.383254177082108
0.86,18.72574011103336,10.814827574784431,9.894236427763644,19.83398867794648,0.7725087628252254,8.205556631071659,10.27871945494229,14.811516904795894
0.864,20.61534214728806,7.872685279286031,7.875569659056225,19.36560306575194,-0.7209555150288054,8.278943424478598,11.361252549783103,15.82217458148358
0.868,21.729937509342335,6.035297347909136,6.294789532910698,17.649050098386397,-1.0050938639153912,8.383230443938942,12.291596735631344,15.521026070294909
0.872,21.795099635530562,5.759565528136079,6.0180563570958725,14.99783578104433,-0.07084342709958946,8.900651947434312,13.152411630632287,14.29189607450769
0.876,20.650888271128736,6.652861102720522,7.209465782955618,11.930845278141248,1.5327987747068619,9.868514019074837,13.738919260723094,12.549177131174474
0.88,18.483813544993325,7.728558411818369,9.198515265311642,9.117843187128074,2.8590429473832444,10.901065404386259,13.595312493559447,10.594389351219093
0.884,15.897807222446744,7.982296998426818,10.860519740424195,7.246873232350765,3.0096436834759004,11.372367160478575,12.344225709035925,8.630466878363052
0.888,13.702081033086444,6.9466871447698395,11.293333849694307,6.80570155025282,1.6276867774706432,10.77167783220159,10.076639335732068,6.861773357609991
0.892,12.507174731181976,4.922566840111244,10.375049666626182,7.853186810173554,-0.850013913133381,9.03790187762661,7.477787112444389,5.541232180492045
0.896,12.375172821755427,2.775409695142514,8.852817695805811,9.918137303877643,-3.3594102708768503,6.671352951884273,5.521511654449,4.873940369045499
0.9,12.746648111371712,1.4032148849134956,7.86327950210557,12.101396611974678,-4.768875476747553,4.519893680422456,4.833523052699661,4.802667333975421
0.904,12.704378525512709,1.1751795991087874,8.152913961244622,13.353679958770044,-4.548495161259439,3.3171659317406466,5.100068734984006,4.82660667885807
0.908,11.425103333752986,1.6526813473154789,9.474999527514456,12.817222530370032,-3.173078403042723,3.2185759007356864,4.966626544175597,4.049160133682847
0.912,8.57744197554456,1.7610790255802158,10.564141976043118,10.095423168813795,-1.9931478907725477,3.6161201175025326,2.6321003090492923,1.5430192162182266
0.916,4.462906546263753,0.3460072743417868,9.783928302289212,5.364799947534266,-2.5810994744173286,3.38928109133667,-3.079819140890322,-3.0893353144491584
0.92,-0.16284449211389074,-3.1571371353522295,6.127292531139744,-0.6765497724388752,-5.865014830466862,1.5175193130712614,-11.748596097520476,-9.254939999020962
0.924,-4.425438310933714,-8.261100151233222,0.017020769852820195,-6.951951842783728,-11.48873781574764,-2.2515101629771834,-21.095097049939795,-15.320278470139442
0.928,-7.615143216227693,-13.439705303425171,-6.59156820221375,-12.193573261811935,-17.78340501517249,-7.056555145115226,-27.711508806226675,-19.10231764294315
0.932,-9.310548572744551,-16.669688216809732,-10.949433222235939,-15.171404834194846,-22.42433324577081,-11.146212410545104,-28.535425109764674,-18.748085046734104
0.936,-9.341542742721685,-16.275732562318126,-10.756360881409933,-14.95851232193445,-23.46824729398719,-12.611283253678266,-22.35606103254031,-13.599708428076383
0.9400000000000001,-7.713225327121563,-11.71534759451913,-5.299594922582912,-11.221923638616886,-20.276768126269587,-10.290388043114035,-10.556293030482038,-4.608824308528369
0.9440000000000001,-4.621012313769256,-3.930355062370836,4.108027029961249,-4.461730958756107,-13.846002370292638,-4.397375813665121,3.3449028103325418,5.943189811414527
0.9480000000000001,-0.5440264496421605,4.921083600169368,14.626843472982614,3.9415483100514166,-6.381764827703591,3.465918777722891,15.166315324087464,15.321970415254782
0.9520000000000001,3.683194006118356,12.250997580482817,23.06927205426439,11.986664019234468,-0.3514422782237716,10.936231531250087,21.835512690194832,21.39386938801499
0.9560000000000001,6.979412983428574,16.02704730796131,27.189027511657514,17.617624342553654,2.5211454663769928,15.85732057277437,22.57639555704759,23.357365762332506
0.96,8.332720497639912,15.5213962961368,26.468946422313593,19.402162717913598,1.8389815762734543,17.112881678149733,18.953521628551698,21.83145165037422
0.964,7.234223873906785,11.529369737990237,22.105409640893413,17.060561139948504,-1.5097732757028552,14.947378094927444,13.83132158416197,18.319505194440126
0.968,3.981634926958691,5.962095171518854,16.28235503632834,11.578235134141778,-5.914785328388689,10.678851353502523,9.850343897192943,14.393469757281537
0.972,-0.3563883176695981,1.0068153898507717,11.147696106133253,4.814381084021534,-9.79089003323088,6.009249425378584,8.235563966882182,11.043560078772089
0.976,-4.348642007360922,-1.7650958998865462,8.006771734421136,-1.2350584152816282,-12.131493156539022,2.3141581403806413,8.517687403509399,8.496219697068796
0.98,-6.814543516184585,-1.9673145656299766,7.044571944143172,-5.199390373196138,-12.674700339369565,0.24581542323562644,9.195170876549128,6.502383817067994
0.984,-7.31297679142574,-0.3954110932390904,7.600713282174411,-6.7583520254238465,-11.704038641102898,-0.23754519334488577,8.863164061065163,4.82946072858465
0.988,-6.238250570003515,1.4962611866835687,8.738224570356351,-6.550376795772081,-9.710404565260433,0.44750609254288065,7.124617197611315,3.6020057376995283
0.992,-4.481854292251228,2.3598375693234175,9.759214988422173,-5.657489358029125,-7.137798348511751,1.849804846430743,4.7803550982316665,3.2699795634105158
0.996,-2.88136463337662,1.588004337287657,10.42482591526641,-4.980510356700961,-4.317686676796711,3.6325271002315276,3.2596938922201844,4.254557251541655
1.0,-1.7977920758855817,-0.4861718919364648,10.829260457251848,-4.862766232702825,-1.5613047070687571,5.501360616234706,3.6656158489154222,6.524900855863507
1.004,-1.0599210252935336,-2.8585972340263197,11.109416545554836,-5.121091945412445,0.7550715335281666,7.054283879644572,6.030820305847783,9.412765093085454
1.008,-0.28055051765863936,-4.419259676076763,11.213930808663008,-5.404705992563322,2.2211243166603936,7.756104525144565,9.22128007777519,11.827427025105862
1.012,0.7005526673904114,-4.499414388551031,10.882817729789622,-5.6106974985839315,2.5427142961626714,7.126549164473545,11.52115266201622,12.770260543007225
1.016,1.5773539692975191,-3.127017233698325,9.842058868799995,-6.053355789002353,1.7100530570334058,5.0514585591258765,11.553776170425863,11.853815885067434
1.02,1.741672980061594,-0.905368756635653,8.057969165283907,-7.263216638836184,0.05123033959830536,2.00658940671201,9.016963504929663,9.52435628639978
1.024,0.7727776655988237,1.3948039444449023,5.891363845062756,-9.535937160537742,-1.8633981870556227,-0.9983281529248416,4.839181270878271,6.861124439126115
1.028,-1.0861031463755353,3.256990828142989,4.020933055655519,-12.549052563985242,-3.441381225236455,-2.7898432362489984,0.6869279511456625,5.051605231420581
1.032,-2.835403815587142,4.608286526871325,3.1491271734983,-15.342171766184947,-4.307195658077944,-2.5655778385198573,-1.8944490138942456,4.810404109408864
1.036,-3.136470175008526,5.701299334582245,3.6364358505666132,-16.731671162544444,-4.4421607393869635,-0.3139452804289249,-2.2400472373660705,6.041916560197478
1.04,-1.0812574984126968,6.7724047990809595,5.249043361899112,-15.973001903581462,-4.176963525378596,3.116382430971953,-0.8427478111893834,7.908711781943566
1.044,3.1412065346726195,7.739502540327521,7.187855700280579,-13.271589753519493,-4.034696372145163,6.354411065100521,0.9671144423941769,9.258861664382948
1.048,8.120890152407583,8.14608744115958,8.406226179905389,-9.814887051749793,-4.509513784321371,8.098753420025332,1.7475064504601505,9.188239462866704
1.052,11.797222600810983,7.395583664837886,8.078921232153107,-7.25494121809561,-5.860240366489961,7.673988415857821,0.6782558421059548,7.453009712883613
1.056,12.45973323178714,5.140560422275485,5.9931196409570475,-6.890790169349657,-7.986691452409332,5.281683755841186,-2.068130760628719,4.555851838474609
1.06,9.655692142714088,1.5784118129195122,2.6564084817011917,-8.990895816706143,-10.436951303860269,1.8410570892656324,-5.48675309318196,1.4855211374008377
1.064,4.489232299350306,-2.526545819113835,-0.9270699059165963,-12.637616650014934,-12.52581113800602,-1.4680355546011015,-8.30065994998131,-0.7476987014761107
1.068,-0.9017263936518702,-6.154485950210301,-3.729562337616926,-16.203746439664428,-13.558827386729035,-3.7284882327085143,-9.62090398530745,-1.5593984789798014
1.072,-4.41126248134492,-8.495480865752597,-5.176968888890542,-18.20255337928029,-13.098439708446676,-4.624495090667551,-9.352005998779077,-1.0250086591979652
1.076,-5.001011409298371,-9.308131377978498,-5.385743083842499,-18.041331606841595,-11.169742235889771,-4.465592647963604,-8.147218202858312,0.19265913326125883
1.08,-3.1580176108880096,-8.993541638671104,-5.056943341091937,-16.278272025482693,-8.32337088102554,-3.942465988270669,-6.984193275245616,1.1609134881161935
1.084,-0.5239246686271599,-8.325171081992266,-5.072726426170675,-14.239193108271138,-5.470455831087975,-3.759653219427946,-6.601250933624215,1.087787743714216
1.088,1.0692011634191658,-8.005409963403054,-6.023141026472786,-13.223420906345382,-3.535770393084931,-4.321774430534788,-7.113912525154319,-0.3490286512601415
1.092,0.6044400705950466,-8.301765662909474,-7.913341695162899,-13.755404009072663,-3.071430795672768,-5.598870090199853,-8.006489858302302,-2.893466976154741
1.096,-1.6281451564934741,-8.95735217670699,-10.19440503611213,-15.304606645736385,-4.010198124014096,-7.19564988766615,-8.48773794366707,-5.85494515370965
1.1,-4.308536891014455,-9.420489861647638,-12.09583164148421,-16.62856627059182,-5.7112580235123005,-8.561892927817098,-8.000777032796123,-8.420878333112341
1.104,-5.902506620520853,-9.209675877843438,-13.040000226928896,-16.50823198068929,-7.274217597433335,-9.230201860596026,-6.581272119139157,-9.999682981967908
1.108,-5.530290810050246,-8.196022382024694,-12.904827607911557,-14.443511751335336,-7.976151774349091,-8.991718900311753,-4.864240739745583,-10.433192826174036
1.112,-3.3909272458977284,-6.633215213072162,-11.999407110498396,-10.912744361753994,-7.597292443348806,-7.954610964247877,-3.7366562036054347,-9.990830548067606
1.116,-0.5423685293076232,-4.943410625502565,-10.805536089366797,-7.081021521255025,-6.471194577901542,-6.47654490603054,-3.836994872244304,-9.178559187086194
1.12,1.7696717628318765,-3.4302443451579165,-9.682147416876433,-4.164836259579715,-5.256290785164765,-5.006238776370083,-5.185376914697372,-8.469264353983817
1.124,2.8072695830737757,-2.100673058688699,-8.712147612444596,-2.823276568116853,-4.554663110405272,-3.90292156661053,-7.1457245300239265,-8.0919124433658
1.1280000000000001,2.6477317052854232,-0.7236295746561154,-7.779188158614943,-2.923463567928593,-4.610468967586257,-3.305353009960527,-8.74850038323757,-7.976243704253648
1.1320000000000001,1.962341173074492,0.9211035192743111,-6.805713379462304,-3.7838214929661262,-5.254500989116423,-3.1056195941182523,-9.202547373348807,-7.862934668095932
1.1360000000000001,1.4579393084659387,2.769753157002924,-5.96695484072211,-4.705334202808444,-6.100921959809739,-3.0381102415576606,-8.326221775638714,-7.507674825659706
1.1400000000000001,1.3598810288094683,4.362507000738333,-5.708278136268518,-5.452165994959614,-6.853899554230793,-2.8494729160265706,-6.650604732156808,-6.8577708079137665
1.1440000000000001,1.2834695877359081,5.019649224448585,-6.511682458193263,-6.378611429948251,-7.498652512871558,-2.4599378140146655,-5.145050014776643,-6.110588313997596
1.1480000000000001,0.5554138485254043,4.2170635555503395,-8.546679951474744,-8.148204678393995,-8.253185077894614,-2.0220974483590908,-4.73584038566878,-5.625436403746335
1.1520000000000001,-1.2488161148839936,1.9385032944655904,-11.43154522783334,-11.241810007090862,-9.317772085878005,-1.8436475676644477,-5.85447526590815,-5.750926741846797
1.156,-3.9060921058298845,-1.207283515598192,-14.273028855514895,-15.558201081413245,-10.608536586374157,-2.2042573521584927,-8.245726983066561,-6.668612688381472
1.16,-6.578713683727528,-4.219665592983347,-16.018823796278866,-20.370396090235772,-11.68862741087969,-3.1677792229893385,-11.123686672510303,-8.322543824948298
1.164,-8.261690437295329,-6.160284923872041,-15.933835676320541,-24.641074313994068,-11.94981742189566,-4.50120461151073,-13.564297030993657,-10.45851747674078
1.168,-8.356606356832799,-6.581182610314954,-13.948386788282278,-27.490342438188236,-10.9390305545503,-5.75284431660657,-14.915088352638122,-12.725439411034131
1.172,-7.02891848893114,-5.700614836674504,-10.69994985560652,-28.55276962574044,-8.628779916461554,-6.4666144359980535,-15.014032606834917,-14.78330738287059
1.176,-5.110610032874774,-4.2169813515165515,-7.231515263144047,-28.022392490904167,-5.439025059481992,-6.412939435824228,-14.132509782388297,-16.356887544664914
1.18,-3.623684219923234,-2.8876674687298873,-4.52115113580885,-26.412643958255103,-2.000051119505315,-5.712147033680594,-12.712984198711638,-17.229149581819456
1.184,-3.1780864659554027,-2.094193715143774,-3.076640828391646,-24.190344400513823,1.2181225421295494,-4.775854947587504,-11.078599433071759,-17.22730383825683
1.188,-3.6311086126875125,-1.674679606479458,-2.8028354881298583,-21.53839717455412,4.151406704706005,-4.108342333868677,-9.300879148921013,-16.252072515778764
1.192,-4.209886608650322,-1.1184587254429061,-3.1781934831656145,-18.385218721775345,7.100571564555594,-4.06774580187448,-7.2815662198836435,-14.351052806203825
1.196,-4.003034627120542,0.003991758439042314,-3.6084917960956773,-14.640178836883933,10.427637084748767,-4.709119462359922,-4.971924972352099,-11.78565752041277
1.2,-2.532739913449859,1.6264624341442868,-3.758033768086989,-10.461211959436696,14.164703161612124,-5.788172612356902,-2.5670919505855636,-9.028918333412093
1.204,-0.055224364147306915,3.085240557308225,-3.6732633083815927,-6.354427166033929,17.81423666473256,-6.901270764188666,-0.5205142728918872,-6.646904035937496
1.208,2.5762727286801237,3.4158392697991076,-3.6697900257340734,-3.033285285601778,20.485436501948698,-7.673165680439524,0.650330704525004,-5.086189284912507
1.212,4.394173602817318,1.903421426609384,-4.080124926233111,-1.115517270158307,21.308241836586603,-7.890852305963563,0.6515291664145479,-4.462098393547421
1.216,4.854995851069361,-1.4231009251234354,-5.028741390122832,-0.8354430076387871,19.887442181471215,-7.532535061181079,-0.38616347675088036,-4.464177898662456
1.22,4.102082451799106,-5.681584001650663,-6.373100250316838,-1.9469611035701746,16.51699511868128,-6.711072955259624,-1.9443765132582485,-4.463421411581294
1.224,2.8106311199244374,-9.499176144649937,-7.806559561378435,-3.8621400653582896,12.0432943600631,-5.584950208572991,-3.3842492534076882,-3.8014709089557073
1.228,1.747556244547468,-11.677570151045984,-9.037021103390089,-5.935804329615166,7.456270978294924,-4.29596890834182,-4.295879461137702,-2.1400170213191814
1.232,1.3321932392791496,-11.795268414333805,-9.910894112287679,-7.716516632324783,3.460346949364066,-2.953892350273236,-4.726313115682387,0.3085588336607543
1.236,1.4585184148922963,-10.409450389004633,-10.408271557612352,-9.033467200505584,0.2708802501406353,-1.6477219482912915,-5.1355411255071886,2.8090628244917752
1.24,1.6687367214594815,-8.747042871598751,-10.547963837038424,-9.911686386371002,-2.282982274109145,-0.4560589937500481,-6.09158386379022,4.4056160436184655
1.244,1.5470300463684907,-8.032212233230894,-10.283932987089429,-10.39420214947495,-4.4350270505010485,0.5588470066995797,-7.878897177697581,4.3735973309158
1.248,1.0485155451524406,-8.829449848704826,-9.49082481686628,-10.41426130367563,-6.178361101458904,1.3608522930371691,-10.250380358254006,2.6063735955840457
1.252,0.5446470737097115,-10.762659314307712,-8.059680861699235,-9.798683734056794,-7.1808219424183335,1.9333182985010353,-12.475653924638209,-0.2629595057496772
1.256,0.5547613458520573,-12.7574851780455,-6.047935918610619,-8.3907843810548,-6.9792442741768355,2.2575238176268613,-13.67553651532944,-3.0823136093777066
1.26,1.3512273812984859,-13.668987860097332,-3.788303728473693,-6.201855728186274,-5.341500372036535,2.294269166961385,-13.282399441791313,-4.665403020236226
1.264,2.7101818147411905,-12.92022958387497,-1.8454760050749428,-3.4748041532548086,-2.529332008754409,2.0086094300186232,-11.352511885623244,-4.316000868248011
1.268,4.008720952222575,-10.782201728480686,-0.807181835182746,-0.6040227124076409,0.7269708984367753,1.4369346449748264,-8.551617518342027,-2.1390768457058584
1.272,4.622572405676692,-8.149537699728171,-1.0056193315567725,2.0358305329837094,3.5524267351338494,0.7528262185351196,-5.83352113543333,1.0040694923554838
1.276,4.373668534486569,-5.976768943522984,-2.329450153970811,4.234477262150904,5.367795851733263,0.2703539894500864,-3.9888158449321054,3.871830293806852
1.28,3.7137231380529556,-4.748597265282115,-4.255986897051116,5.973603791482674,6.169482375957614,0.33944294133289077,-3.3075887865024924,5.368514072542894
1.284,3.485956224117217,-4.289110495454224,-6.077760759396824,7.328514597231333,6.4977753233783915,1.1629138336938922,-3.5111249248484455,4.98061124943888
1.288,4.38717416624695,-4.006087250791097,-7.2324946642825125,8.306563487695712,7.083748947611639,2.6281820483600313,-3.9686713349237834,2.9239992486945994
1.292,6.441410157372047,-3.397523910130076,-7.565230317042278,8.742703813258231,8.374768774774566,4.26468917825332,-4.065360640857762,-0.044035012072527024
1.296,8.81969073957589,-2.4705126506542,-7.369793072686662,8.337052875012887,10.217980058127068,5.392068675966584,-3.4942412263389997,-3.0196057863413444
1.3,10.164506018359134,-1.8066859517766716,-7.206871385274098,6.817407412379907,11.861972630042146,5.41100548355098,-2.3454227731162973,-5.347328473500056
1.304,9.285130333987581,-2.1995540818033987,-7.576192060259018,4.149722921638386,12.311509406890764,4.104064065108105,-0.9761542088654096,-6.825575351185762
1.308,5.840203921938155,-4.0860184517823654,-8.627986862344187,0.6597089625065564,10.846241502960766,1.7730022330561042,0.22300661528788623,-7.650918642934812
1.312,0.6198184331660741,-7.1295387787704385,-10.07304047199068,-3.015161907145739,7.425148922347034,-0.8750938470548135,1.012124395936553,-8.175150061890236
1.316,-4.758877673449206,-10.235714076213299,-11.334913489750761,-6.142578859817149,2.7581916303479375,-3.0466256738091033,1.3520512240902463,-8.635568969686574
1.32,-8.616915417193013,-12.052018818456418,-11.878471495501799,-8.196540238828675,-2.019709676263119,-4.2302939057735784,1.322091537193046,-9.017130422282207
1.324,-10.031823234784497,-11.67433943422111,-11.517488273908384,-9.076036969729103,-5.877232562586869,-4.407796848787257,0.9959642303692817,-9.11264897912315
1.328,-9.278296692494223,-9.175538303352369,-10.537459481522092,-9.133060364678386,-8.345106928006317,-4.004002172901892,0.377927045994511,-8.72753796015786
1.332,-7.658890562500346,-5.654408562606477,-9.560334275963214,-8.987661636198027,-9.670478578993425,-3.6138794608232274,-0.5663497213645314,-7.887139308926635
1.336,-6.814567541374345,-2.7518297750830243,-9.218834985374997,-9.215058858861084,-10.587848563587613,-3.671501745537171,-1.8262729588714137,-6.909084861116753
1.34,-7.8862786540285015,-1.8841887573626082,-9.825781944115988,-10.062311337909705,-11.851145307586194,-4.246215244029372,-3.279033096940111,-6.284090487995854
1.344,-10.95315589699021,-3.5650252914738303,-11.198947562736066,-11.32053901922518,-13.770405411903084,-5.0610473399137845,-4.69534316192221,-6.423192645933341
1.348,-15.009771961274055,-7.152987130868496,-12.7350432452331,-12.419482847959443,-16.001821454359742,-5.697439434725311,-5.814049306281959,-7.405171614836945
1.352,-18.47289365105189,-11.14275393978096,-13.690068986506049,-12.703193806220952,-17.698810791605865,-5.853466427688545,-6.4390131217624,-8.87701588316213
1.356,-19.922356188702906,-13.835574764793819,-13.517824607970397,-11.743464719611438,-17.938345009097247,-5.49198049908955,-6.4853608439007076,-10.17025558136902
1.36,-18.702656380835833,-14.074817651728154,-12.099404630508616,-9.542584987617374,-16.197493911323363,-4.812571455939178,-5.950712430529165,-10.58577561275979
1.364,-15.132772824011226,-11.699945933170966,-9.73945603176071,-6.5345346559915924,-12.612789770679228,-4.080638249490221,-4.848000264109942,-9.71224024555977
1.368,-10.288553589127332,-7.547725181685564,-6.963011385921163,-3.404464562270732,-7.904692218518903,-3.4426659896071214,-3.175696409838565,-7.632053429832922
1.372,-5.521360203454606,-3.044677062162009,-4.245845361021566,-0.8238901104614342,-3.031267402487174,-2.8536557389888912,-0.958641581441043,-4.9136692014189975
1.3760000000000001,-1.9863094254187672,0.38586901037069765,-1.8387070609260263,0.7631751041462849,1.2227973994404238,-2.1465314320885227,1.6567932822763396,-2.3867967122014306
1.3800000000000001,-0.3742177761332641,1.821982060292612,0.21742383263335796,1.2090139454867312,4.484153942727971,-1.1867549765793228,4.326985504707409,-0.7970838801929858
1.3840000000000001,-0.8719505450071665,1.0836623616360157,1.9355709564588324,0.6013343105896638,6.763455566660014,0.002035835457718349,6.548070966364321,-0.49623486868313194
1.3880000000000001,-3.2854229016184036,-1.346164117862827,3.198041510710027,-0.8607117806986935,8.215575452985831,1.226551916122844,7.8138078254014545,-1.3082141572558612
1.3920000000000001,-7.186431116993845,-4.616063287920042,3.696430362778301,-2.9562340235970623,8.883101018838715,2.223695039825543,7.840152564243908,-2.6301137980099156
1.3960000000000001,-11.993913365548906,-7.849406332094986,3.0625535348699486,-5.440022766968468,8.602684181342738,2.7999741259573057,6.732918497698847,-3.7249758081488835
1.4000000000000001,-17.009762360286913,-10.405657622022773,1.112983151523622,-7.9812195459453505,7.1328660070848855,2.9237135358980595,4.98161926706598,-4.064849046177187
1.4040000000000001,-21.475281877870657,-11.977935266431814,-1.9307554954666557,-10.13100570899769,4.426647428014803,2.712150648529132,3.270372340823087,-3.561517795610598
1.408,-24.68801178054764,-12.53754609970565,-5.406918061962642,-11.388232220670034,0.845691962284036,2.33343886260991,2.1949685201325337,-2.581957291093204
1.412,-26.165246040054626,-12.19986182305729,-8.413915911231015,-11.36025865735428,-2.846390116978,1.9115872817819763,2.0192293471791345,-1.7396070726099424
1.416,-25.799315232660774,-11.114972954623227,-10.170266926354088,-9.94998389176726,-5.749157121246753,1.4843874773887364,2.5989176550338016,-1.5698119638418575
1.42,-23.901023127478766,-9.44320940797843,-10.3679384278621,-7.44414406728356,-7.226952438948501,1.0356014159260667,3.494050284720288,-2.2564839761453186
1.424,-21.110281735982426,-7.394064521817199,-9.313712645723172,-4.432358610156371,-7.205974538433111,0.566353684378555,4.198359004190934,-3.55423289330065
1.428,-18.20496014019136,-5.27674179341011,-7.776655852487238,-1.585288681604652,-6.19771530835169,0.13980259804520756,4.354294739348916,-4.949922191239239
1.432,-15.876860466219114,-3.487173551675369,-6.60002780004379,0.6183945741431671,-5.013269063012558,-0.1255899831376155,3.8586652884732757,-5.965010255373272
1.436,-14.561892699748569,-2.4086089490065206,-6.273330174967668,2.068949817385146,-4.326819830163004,-0.10509665925201261,2.845919835013774,-6.419561548718775
1.44,-14.382591382749524,-2.274294873814142,-6.689477105954211,3.0022322143959173,-4.34919739263114,0.2793806372319523,1.6047353796020616,-6.510763824870082
1.444,-15.162198451371296,-3.042237202022079,-7.1920440677859006,3.811691862931184,-4.763873330489332,1.0413693865411915,0.4940874500098289,-6.661662528946181
1.448,-16.49221456804935,-4.378233954705138,-6.901573200655548,4.805930223727046,-4.949635634582592,2.139788092306844,-0.11405778139123868,-7.237267452863307
1.452,-17.820136349653694,-5.770591877419065,-5.15398800661751,6.057485964101943,-4.340377380036443,3.484127903728222,0.10473919319701963,-8.307339845279785
1.456,-18.573483531518832,-6.741804989613229,-1.8426338869176107,7.39950270510235,-2.7185955004188145,4.9062294338145875,1.3274778985996818,-9.612714105482155
1.46,-18.32258798971634,-7.060728342541552,2.4826364674254364,8.557937926696468,-0.29901235682700644,6.116352376098803,3.455232471882482,-10.748843853789367
1.464,-16.93404431570343,-6.820795139512484,6.810979364003288,9.332486630108178,2.430076102131352,6.705045293609146,6.035120723739965,-11.437167075835532
1.468,-14.677835542688626,-6.354366732106428,10.064576276300613,9.699847103487627,4.976304434831036,6.25120809944201,8.335016343591633,-11.681371391445282
1.472,-12.190181558316908,-6.02004636910533,11.524220529508057,9.802329537324113,7.05474873458752,4.532957972089207,9.605449459368174,-11.698101825892081
1.476,-10.258060236554229,-5.988583315123833,11.102227478947498,9.845695836982486,8.622174078989701,1.7394307796603243,9.446040826154785,-11.668754825568612
1.48,-9.485966024623849,-6.163938975250858,9.350090326417558,9.978681501679603,9.735663093412768,-1.4541232548799599,8.069719303477541,-11.50065353172613
1.484,-9.986611117032226,-6.278626751705815,7.214810908434629,10.232048078820299,10.377687810509997,-4.053493014944252,6.2882175693703175,-10.804548518233787
1.488,-11.274392044908382,-6.100453458047923,5.654045760666122,10.543445474264445,10.384843595485108,-5.130206592009927,5.166432208394326,-9.145665130747147
1.492,-12.449737486156664,-5.613475196563741,5.265558150769721,10.834635538391012,9.536821564083766,-4.252021185027843,5.488557482985925,-6.429266250685032
1.496,-12.624418596340547,-5.062647440703586,6.072003238280558,11.06707310116326,7.735105898691472,-1.7317171514660004,7.323921665496528,-3.161699367843539
1.5,-11.387814161473216,-4.833468708915461,7.533810577087934,11.2456347521329,5.129135101598877,1.4648553210645332,9.950934991276881,-0.34887762246762577
1.504,-9.0627382540697,-5.225144074502168,8.796110207229503,11.39084484713021,2.0926264475201606,4.140060353092849,12.221075526471395,0.9760491579309019
1.508,-6.606589896073274,-6.27333863486092,9.068653683470984,11.494986173640427,-0.9577768491481038,5.413681782119966,13.163221810662435,0.3465917529174476
1.512,-5.19028775091283,-7.732612913678167,7.976070169859668,11.497834965615766,-3.7845153567304806,5.107856315218669,12.485892875705758,-1.7881354859164276
1.516,-5.642776641605451,-9.219582500471006,5.738410849353386,11.304546095067053,-6.4331984146747345,3.761607940599788,10.69878967654222,-4.206945660402198
1.52,-8.033496227348223,-10.421703725893167,3.105740142077593,10.829270232687122,-9.127829237818332,2.2834670241536514,8.78239913346988,-5.519116751074762
1.524,-11.606681992694575,-11.218909392133355,1.0763889801773985,10.041322483855765,-11.9848054086724,1.4515677276576753,7.614155758110428,-4.899632758582811
1.528,-15.085184765068334,-11.640234838761899,0.516075013471891,8.995368844374752,-14.720630016976429,1.5452267741711694,7.516882561811144,-2.52038622368309
1.532,-17.19042009054101,-11.696192258898009,1.8401068179982758,7.851861897506751,-16.565684124879226,2.309216510046099,8.181837458638256,0.5874414299687487
1.536,-17.136087200433394,-11.241695071123104,4.869804295015456,6.868775108428963,-16.520522877272924,3.228124320125062,8.966139302323427,3.1408814370915934
1.54,-14.906993277974834,-10.034431736345141,8.879693625602158,6.325136483286769,-13.898369590073344,3.8894222069648094,9.301087224335788,4.284810918767107
1.544,-11.227726735980468,-7.980908467874542,12.80942805524137,6.38598588215973,-8.871102973470443,4.18448179797997,8.906051805432071,3.910323616770256
1.548,-7.265200007974272,-5.413242676613663,15.548653678451956,6.954420799254876,-2.694405617981829,4.228096916842333,7.674889959598659,2.4220188308972865
1.552,-4.2234494659314805,-3.1789341813673673,16.20693103031408,7.5898595859544,2.5916388301611732,4.082100501058449,5.373216092055372,0.15371099087496987
1.556,-2.98328412279443,-2.3964964474380395,14.324695664268802,7.582984105985815,4.932157299555911,3.5164838126474933,1.4557034051176743,-3.1093277241452597
1.56,-3.878299134890767,-3.933386846112626,9.987832733666437,6.212134363104269,3.159719020117336,2.0349117328369175,-4.737540391739458,-8.094893666262578
1.564,-6.623372121313878,-7.840037812691662,3.8596919707606503,3.120091507151301,-2.388954504650428,-0.7948415749488049,-13.40993239132149,-15.423704801754866
1.568,-10.375443344772066,-13.083061158924465,-2.8911795585217988,-1.3583779479304212,-9.888779660268483,-4.892258985899389,-23.705774776904946,-24.774107157330945
1.572,-13.915674701394892,-17.7940347934491,-8.795821830144632,-6.123014183907799,-16.716471896646,-9.410621110077045,-33.54572297294726,-34.418662694668456
1.576,-15.94402157589684,-19.986773548222118,-12.422519417686999,-9.599221554377436,-20.52033554733498,-12.908148684025946,-40.16751136637322,-41.564856796152526
1.58,-15.464452186884955,-18.44305388126304,-12.801213797449236,-10.337339241286827,-20.19400787928498,-13.92254964962558,-41.2379099917016,-43.46656398138293
1.584,-12.150660134742793,-13.304496466107594,-9.773714944189123,-7.65795974694629,-16.27126981310903,-11.67461859501418,-35.981819633041596,-38.76038982625869
1.588,-6.561512370182754,-6.0745745460517355,-4.129350633473223,-2.0349208221014123,-10.586919537083304,-6.518673911501537,-25.705404552390974,-28.290370883607466
1.592,-0.05697780297668942,1.0057864506798069,2.5940048237143856,5.01643130505181,-5.378305703908154,0.13863595035581966,-13.348555110722373,-14.893978647416589
1.596,5.621150123287862,5.895220648783379,8.594039924523713,11.517348929436594,-2.2882735963303276,6.4216310141291615,-2.2545478915253625,-2.2097734833232607
1.6,8.979732835000505,7.534203613619411,12.401391617042464,15.811732145256428,-1.7605052119097309,10.7832822040873,5.232993645267925,6.895826407491313
1.604,9.3689422993084,6.141350347004845,13.366013705760452,17.18699506332814,-3.0584859082009643,12.605692720284424,8.624020329236373,11.465359442989211
1.608,7.238456439312358,2.9250909103338927,11.821583606739296,16.023848780387198,-4.829409505648073,12.309599323703878,9.163983794092928,12.568732315470697
1.612,3.929764089301898,-0.5646244867166388,8.87348396523521,13.451821313483379,-5.849350507593044,10.958366565959295,8.883233645698056,12.403066709521227
1.616,1.0620326641874271,-3.089832855250279,5.9253086594289925,10.724269667105546,-5.54495971016695,9.623341777638416,9.40955530548672,12.937765440239673
1.62,-0.215108577223873,-4.105358765067649,4.148998976914299,8.653154208474007,-4.074144792761217,8.874628373683663,11.192279474522365,14.876677692616795
1.624,0.28137805346705136,-3.7278510664491478,4.138598612514215,7.399614351317723,-1.979445405637307,8.654803472411004,13.525639929248428,17.479706342599457
1.6280000000000001,1.7708961903972522,-2.4195885178432945,5.849461514261748,6.666483674838673,0.3037074751800901,8.533732870906533,15.245440559294366,19.24478738630569
1.6320000000000001,3.0266712566499336,-0.6180896246896737,8.791761762319766,6.1269560352411645,2.7741579036974144,8.13425440343417,15.590411794099055,18.963937593516675
1.6360000000000001,3.124972387598973,1.4763933286540123,12.329934451949157,5.783660447836155,5.842179543389648,7.435544724583451,14.690508692510775,16.494067681833258
1.6400000000000001,1.9855902325634815,3.8531540493331704,15.903763524529495,6.012073422556568,9.97736508924936,6.768913784504548,13.401564185674943,12.818297259404062
1.6440000000000001,0.42840063117910177,6.5060711164005625,19.114183683697775,7.2905524354064255,15.278667108394075,6.537765552839119,12.662348922574893,9.42810611625464
1.6480000000000001,-0.3032894507468882,9.255961755292446,21.684160831084228,9.79750230100035,21.220434565111645,6.870997874357272,12.84298704237517,7.4576160158685525
1.6520000000000001,0.7079867227166687,11.708308339317227,23.38584827476916,13.148032669771055,26.732385105196954,7.463378053987981,13.513749617297435,7.111358914880839
1.6560000000000001,3.442618190196299,13.354702320815704,24.014472411683528,16.438406422363187,30.55946627000685,7.709439974365523,13.755670120424838,7.68630948142345
1.6600000000000001,6.831163052109332,13.761816217303931,23.43409343056919,18.588893749647468,31.71439017440207,7.051788711854897,12.790213504136773,8.111984962961287
1.6640000000000001,9.228516706358278,12.751580525662575,21.660768102563452,18.808527783661702,29.817575248132925,5.334617632172012,10.502172334687202,7.628993186945081
1.668,9.211887898109126,10.473543654639798,18.902232952378654,16.924143481373903,25.172307051272583,2.9424582768260734,7.5265044850202685,6.18167370251831
1.672,6.300654044700423,7.370459090810982,15.515911403553218,13.418584387869487,18.593359495922414,0.6348212479133508,4.865638997012866,4.329909195968867
1.676,1.2208537494025222,4.054427299881354,11.892944978410014,9.187187485569666,11.096606052077732,-0.8354637271950196,3.282303708103427,2.7939321479389037
1.68,-4.423883966466747,1.1347214251854894,8.328617435918204,5.158017853720594,3.592539229137401,-1.1038310821022606,2.8557326458503667,1.9552772057977563
1.684,-8.888801682058329,-0.9549601861181145,4.9438585019097445,1.9597872396225284,-3.306154999318096,-0.36674760824098485,2.9640001244933956,1.62936842052477
1.688,-11.045697531784754,-2.077084690770789,1.7009356339440274,-0.228142912088515,-9.32032728168815,0.7369854844582733,2.678354500010755,1.2182188731076167
1.692,-10.772479327964902,-2.388450232319883,-1.48181719681088,-1.6101398592600162,-14.394125515326778,1.468484701414127,1.3267688380256004,0.12194114970770897
1.696,-8.828186176137024,-2.2159680877921346,-4.585900652686178,-2.5769854970658344,-18.51029354702314,1.3629346175512183,-1.108641104081471,-1.8635445018462633
1.7,-6.35767543455222,-1.859979807615673,-7.404823214166754,-3.500788273915532,-21.53315203636339,0.4332078256884415,-3.9768041545121378,-4.406213299207593
1.704,-4.314396663901789,-1.4189903531696473,-9.567284301374457,-4.599938381748871,-23.163692273352353,-0.89740966431782,-6.312650510635649,-6.8183650331811805
1.708,-3.1056777146059176,-0.7370785399871238,-10.66507981491668,-5.888468843404553,-23.024215410506258,-2.0756248554789636,-7.341837206371565,-8.42237659705279
1.712,-2.5699857256495307,0.4971177302086289,-10.427267344199208,-7.183767739843461,-20.838599468213943,-2.7440777054398495,-6.858455777863128,-8.885318321641535
1.716,-2.2248531721761537,2.5333340041506744,-8.846878260384983,-8.151617212684869,-16.625419112908276,-2.9252725855621975,-5.2810925650192075,-8.343574336235179
1.72,-1.5762743810864777,5.344378690693702,-6.207966334408411,-8.390150732135226,-10.809516625569813,-2.983367099863244,-3.388927466068708,-7.2765264590652805
1.724,-0.3150775376143429,8.544902405838002,-3.004788224132426,-7.5541584370039345,-4.192326594710721,-3.3959396974933043,-1.9193126993923215,-6.233504579411601
1.728,1.6472364757355535,11.517236815254364,0.2158995966137809,-5.497435045750535,2.235738712559396,-4.468037639820977,-1.2232707073580968,-5.571810923878729
1.732,4.24284851127959,13.701595775954047,3.023274145153664,-2.381476529662905,7.580230765575834,-6.141747722431319,-1.1346573008631822,-5.327946798706762
1.736,7.312279056837724,14.877132641871867,5.191882336204799,1.306239339610329,11.288425483002356,-8.008055224821874,-1.1253397570490051,-5.274973181318273
1.74,10.600833478266395,15.249164952940191,6.683170184203846,4.860323872784647,13.241291958360307,-9.506880263823405,-0.6402580239591771,-5.10598132587802
1.744,13.71978637963548,15.26000473035856,7.522124061591057,7.555835497805674,13.636874613470354,-10.20167327280069,0.5514616594482504,-4.641545821181353
1.748,16.166428656437347,15.233258639227643,7.664398841578986,8.861916989761085,12.757728770556241,-9.978048922566813,2.166440771348789,-3.951523168334461
1.752,17.465803952758506,15.083865052234614,6.9517928904415385,8.585077275014555,10.784434689351656,-9.068217746476876,3.474757779498759,-3.3390119998148293
1.756,17.39550572434746,14.306294215793969,5.1978173200150195,6.889961310393119,7.769813170956695,-7.899845321357134,3.596328144765721,-3.205047557497892
1.76,16.14523688042391,12.27884660176278,2.36086532054469,4.193459218906355,3.7768739968569207,-6.8687793169301585,1.9067672113997105,-3.860149201011154
1.764,14.287006932207987,8.723952059446674,-1.2991198279214586,1.0027412562467362,-0.9258872153523043,-6.167145790906943,-1.6211383934551122,-5.370065104076275
1.768,12.536204830223141,4.041098200210399,-5.196553115179086,-2.211865420678805,-5.769043544294618,-5.745829754927399,-6.303642647981178,-7.513509867709217
1.772,11.409292178747819,-0.7305481032599346,-8.590835889330265,-5.068982348329882,-9.996919118530968,-5.418691844537534,-10.937180896875361,-9.880504067696165
1.776,10.972426428495055,-4.346210199058987,-10.884243647377843,-7.274483379156663,-12.966559426542517,-5.035756987701461,-14.225675185498403,-12.0668021939764
1.78,10.855081393256114,-5.966202029394481,-11.893918927442428,-8.608459528109961,-14.469532189195888,-4.60567910338068,-15.260281808470609,-13.866017322758125
1.784,10.533837016939287,-5.607505968118858,-11.944255246305147,-8.944327795945355,-14.879810141323105,-4.305034446479112,-13.852514236989009,-15.359802749058872
1.788,9.72020974507177,-4.152868267876329,-11.700996866382411,-8.300115483219997,-15.00876974365201,-4.3684281516616466,-10.573771237231995,-16.841963400129316
1.792,8.602732417632069,-2.884662295666203,-11.802790217232541,-6.884729987996252,-15.698605196394055,-4.9265631344769645,-6.496677586448641,-18.608232878135823
1.796,7.773111072187021,-2.7957770448483643,-12.499156299638344,-5.0956468699860125,-17.365172514161713,-5.899595361484899,-2.779621264373418,-20.73541040618875
1.8,7.850096914631649,-4.064655682475859,-13.505318482273651,-3.4350797178685752,-19.743636656192393,-7.00647928046601,-0.280387370436074,-22.974509426072473
1.804,9.02924446835641,-5.987141514840005,-14.167981263385627,-2.357368997283629,-21.980385843416116,-7.8851720606417075,0.6494308291039488,-24.829872534373862
1.808,10.8429343563148,-7.3987594993332095,-13.856452994553365,-2.117291662892967,-23.029446225418724,-8.258407978772084,0.15228975408172118,-25.792732092573715
1.812,12.298690387649913,-7.340691925097417,-12.352227342173137,-2.696055876025639,-22.146000380154874,-8.053793455348568,-1.3095136777574226,-25.602652939329346
1.816,12.38662604984711,-5.568774524000219,-9.998881918227198,-3.819616733731891,-19.21813703681437,-7.418174235175684,-3.1619480090375873,-24.3793774939586
1.82,10.678322168870181,-2.634723613989081,-7.518299246069546,-5.064097076046892,-14.782986510094815,-6.6181042645766865,-4.854999451297772,-22.54076413659095
1.824,7.66359250349069,0.4751675173683907,-5.600821223189087,-6.007616458031407,-9.750549738722839,-5.888364339993132,-5.928139132820434,-20.548137954356207
1.828,4.620024106458004,2.912962744156175,-4.51205555755223,-6.357287310533138,-5.010736875163275,-5.315214994607231,-6.04040574996543,-18.634039251950526
1.832,3.026808598136995,4.3975088850183965,-3.9681116025940355,-6.022124037299363,-1.137112035615246,-4.807311353091791,-5.021522939332499,-16.67992872906416
1.836,3.8194792232388863,5.266092732026664,-3.358451645929563,-5.119626301237076,1.6838797606596927,-4.162242028389301,-2.9500009242037777,-14.326242347141488
1.84,6.863285220308171,6.133420920412391,-2.1986094255444186,-3.938292667222413,3.493555282806483,-3.199801877122809,-0.2078956512214063,-11.265512294788095
1.844,10.930311105275905,7.390467605340746,-0.5267834529458923,-2.866591417203381,4.324892252461723,-1.885908018784903,2.5607429130541277,-7.527208134740249
1.848,14.211326186466067,8.858365082069213,1.011211614021704,-2.2984507431483507,4.062373533504797,-0.38798808172032295,4.620429538777898,-3.5687963519249024
1.852,15.13099170266105,9.829110976303127,1.4748308437274318,-2.5134833507818257,2.4975893954924686,0.9703476414924808,5.406532977760435,-0.09480108402658516
1.856,13.06476277352067,9.471807906408685,0.17872953761343524,-3.5603199722427235,-0.451673618359564,1.8379708355678304,4.770647751047363,2.3134603366224837
1.86,8.601892090083311,7.359304226345557,-2.8400229678281903,-5.191130374942077,-4.515914142404654,1.9908350900404912,3.069964019301551,3.5394716493365195
1.864,3.2574351457305966,3.8098473644295154,-6.724662654360145,-6.880987588378048,-9.002285993855367,1.4504477056598262,1.0465464792650891,4.044332518686133
1.868,-1.2035057567827607,-0.15308472602100665,-10.150683580935038,-7.964752473188128,-12.95750800433325,0.5025632614488131,-0.45919767161285563,4.661443891203817
1.872,-3.4876862987539425,-3.202320984407379,-11.936171849343737,-7.868239347531926,-15.491941247169052,-0.39504119542652916,-0.8304862006189069,6.172465619953982
1.8760000000000001,-3.1971168447544187,-4.26727654700062,-11.577281599794333,-6.337713029488441,-16.105294729297384,-0.7748478621324466,0.10846459524145757,8.891265037027551
1.8800000000000001,-0.7885451469865075,-2.9790644436207003,-9.432755870779147,-3.5647408713484765,-14.862595801150746,-0.33105927145334135,2.0660871505842806,12.486891422829103
1.8840000000000001,2.8226570336773875,0.19576543026141735,-6.485099156842807,-0.15159856093487178,-12.348864201871947,0.9637356679304503,4.4371316193719395,16.134682590225566
1.8880000000000001,6.746915801012619,4.17623694770009,-3.827508251555628,3.084989666071124,-9.418451248291603,2.8541927421574655,6.547445844653339,18.918432894994112
1.8920000000000001,10.43110268712553,7.724161806287157,-2.170116812399101,5.401371206959084,-6.8498770521191545,4.9083379394596705,7.893988954017004,20.26408804770108
1.8960000000000001,13.669872574610054,9.924179013196408,-1.618142944106694,6.3897085384815,-5.054332703531145,6.682113988328638,8.298134807714632,20.17932930400457
1.9000000000000001,16.375011758543224,10.473272545760665,-1.801944792057384,6.095192272289751,-3.965955292774197,7.8645396142510435,7.92807765265934,19.187662246464242
1.9040000000000001,18.310633137657533,9.686156682510045,-2.228225173922965,4.9364835184378535,-3.151134794472455,8.340723403447555,7.204970696319833,18.01676233681701
1.9080000000000001,19.010322729887775,8.259145345490651,-2.609084007275669,3.477354479717178,-2.0712234239013014,8.159155930854467,6.643235751504108,17.22606966974672
1.9120000000000001,17.97869540636566,6.939756211266285,-2.9556749323628537,2.17438681981821,-0.36088058081531926,7.451205899084016,6.674682813208165,16.984523901341163
1.9160000000000001,15.048498250211196,6.238845135136216,-3.416420219595693,1.2103983438773867,1.9882626389771758,6.3510585769781756,7.498137801806479,17.09243244237041
1.92,10.65144557977328,6.284436503238794,-4.010333673376863,0.4731637867362224,4.606843444030801,4.9684272104186675,9.004568116115479,17.20495105335158
1.924,5.812701277018277,6.8542711949903605,-4.470336322095136,-0.3232354531482997,6.893326363600863,3.42258391766336,10.808750392468937,17.105523722133512
1.928,1.8091352393184934,7.528575716808518,-4.327648849254274,-1.4491415404745567,8.261303671508358,1.8947451326766895,12.389018084149939,16.862244648117667
1.932,-0.36404768019019684,7.887261380016753,-3.19714760284387,-3.009685514864941,8.384075912565095,0.6353028759040171,13.301072172832392,16.777614584168077
1.936,-0.4383016801202757,7.672076932242817,-1.0797387959792104,-4.896578532157946,7.33764667131436,-0.10262570674967719,13.372455741114209,17.179401779616455
1.94,1.0080110270600926,6.854698959272355,1.5213140201099122,-6.8532225151211605,5.5737477356829,-0.176161489695005,12.786292546930781,18.187686628384654
1.944,2.8279715763528657,5.598542276894477,3.7637414039709256,-8.604046990500137,3.718485763708486,0.3535478325593431,11.993009748105578,19.595996344631203
1.948,3.8614056877895564,4.163750811618229,4.842090075146643,-9.951543573261006,2.283465226961198,1.224490320229961,11.480309402142666,20.941359631532578
1.952,3.48912958224264,2.81611486048223,4.379754660367325,-10.785513736157554,1.4323969375786874,2.098811055719125,11.509677356989414,21.727334344311203
1.956,1.908488922221295,1.7794127159922937,2.609980245780207,-11.020339997150586,0.9116795243230627,2.7450459762585524,11.952885900936053,21.673437206578456
1.96,-0.0021333918721211376,1.226477472930128,0.24531673492265327,-10.519908138786377,0.182789063258042,3.1621773080423736,12.332875298251565,20.852911143299934
1.964,-1.1527651941155455,1.276641981553439,-1.8792293929377593,-9.090360279354172,-1.2957474594250016,3.562990791613629,12.058343273121864,19.64597962280095
1.968,-0.7786366296240885,1.981149997841385,-3.1810542756911673,-6.575650007285731,-3.7592185831395,4.2163354814965714,10.740880113447929,18.542856393256443
1.972,1.2124792846570926,3.291296750017864,-3.5088976087781703,-3.0203451145398503,-6.93259080410553,5.231178573107172,8.445633677565638,17.914044933612786
1.976,4.255861489163635,5.041122381195237,-3.0457769982153877,1.2043973539120998,-10.033783498889534,6.422897882873258,5.746490251793148,17.873609443443456
1.98,7.470695596421592,6.970158262267432,-2.027708827437891,5.410919405014283,-11.9978996941054,7.365335906707514,3.5455993296054658,18.29453742219448
1.984,10.109801168940976,8.788944900870774,-0.4927293816626843,8.774100349292894,-11.846448445713577,7.627574596849627,2.7408500111669127,18.953113072047472
1.988,11.872146996663105,10.270991881614464,1.754306752417051,10.62223373463894,-9.057654534342419,7.057583360803619,3.882283176993951,19.695491284087893
1.992,12.933034608772687,11.333870249426127,4.934590198225578,10.71175629708705,-3.7846459946695177,5.934539404694988,6.956763516371211,20.513798377787225
1.996,13.693571213143969,12.052313813620913,8.975003888124775,9.333301179612135,3.1564894202756477,4.8759644547026255,11.388837839840562,21.487280764866227
2.0,14.409984701724625,12.576783852041444,13.294388337826149,7.173414349196719,10.512252337479367,4.5170458525581125,16.238171862156378,22.623844117430963
2.004,14.950168600472807,13.016833067063544,16.888221876426996,5.002633440938553,16.96570626484663,5.140014538987089,20.50179480949373,23.72739409971382
2.008,14.8415877310008,13.368080703739452,18.727820414625057,3.356272856576652,21.534712047299763,6.476278897283919,23.421721554102078,24.403818685013448
2.012,13.591943410623117,13.528725354475682,18.287597930032007,2.3705721617407107,23.85941951872337,7.818993859792499,24.694481142874793,24.235575473990593
2.016,11.091364756053736,13.401993657743787,15.906867011573922,1.8560695325404595,24.2844252766713,8.411330014018858,24.52763851954387,23.05315108812829
2.02,7.851143860746106,13.016271273565962,12.747662160717027,1.5557492634416121,23.69058993191402,7.893194520284851,23.533840750493255,21.135190749594585
2.024,4.892417003775336,12.559019276150138,10.313902282211984,1.4030457186017884,23.11476974831612,6.542249273687048,22.482134656416747,19.185572436575967
2.028,3.3007770406115924,12.286748301776697,9.742904655391612,1.5998075448451345,23.28956359192307,5.1514379920054125,21.99780635870775,18.049946989547607
2.032,3.6543055868551164,12.350131557901022,11.22460451740153,2.4534403597644996,24.290987927089645,4.585637990865507,22.308309238547736,18.277940028205194
2.036,5.650189034623963,12.657062202960333,13.87017173501954,4.084267110421024,25.469973347831456,5.267338822256534,23.133129687877954,19.76512684356294
2.04,8.179512383251677,12.885791756469189,16.12191091651539,6.216735777990834,25.741259279090173,6.893833704389181,23.786489244447694,21.70061069960957
2.044,9.847540626923546,12.653828587262069,16.511072583143687,8.21589652201419,24.128762834794543,8.558958200810594,23.47167751876077,22.88763242492314
2.048,9.704104831479071,11.757797481519901,14.395616071718905,9.401917065125417,20.32822832002239,9.231280547834103,21.65805228092995,22.31954753064838
2.052,7.793131189874657,10.332592604605452,10.290045848900263,9.467000909221497,14.995537668780344,8.320657125488651,18.363937650264234,19.720664455789574
2.056,5.209450359584025,8.811277298577352,5.613624088313372,8.727557385429463,9.570892335185363,6.010446865592712,14.207050791019356,15.75119101352584
2.06,3.585888745405555,7.681981956640357,1.985114842357234,8.015166323025824,5.666325153288881,3.1665554778264777,10.178816468367131,11.736730671245368
2.064,4.250175651452082,7.1763701272248,0.4286081140510305,8.21588358397321,4.284049627420245,0.8722857332204512,7.232696622822459,9.03353097488798
2.068,7.4907832305007105,7.094557289748991,0.9067283851086358,9.701524503595465,5.271198749643418,-0.1413524012959897,5.893312542284093,8.347234412731723
2.072,12.316803473779146,6.89847138604182,2.4194619941117708,11.987589233722247,7.332834343320883,0.1475577456467363,6.076571877270908,9.35593011264882
2.076,16.873748399683336,6.051699154152175,3.6102961181845785,13.867757821803934,8.6493756385496,1.1101267460271629,7.2071472793377325,10.85740501140981
2.08,19.31411842370335,4.404012414047884,3.5368187459584988,13.997948589808402,7.8084978760230115,1.8814578413393974,8.552272640011324,11.366844936641883
2.084,18.640400309171127,2.3473505050592394,2.162933163555408,11.606310602665872,4.54870089880751,1.872773871256868,9.57072347755593,9.853238886016698
2.088,15.104329786210656,0.6325246093902024,0.3212833963227695,6.952518060691091,-0.08714398958272795,1.0847975606493492,10.084787021359261,6.247737765915645
2.092,9.992598883950905,-0.05348504626454087,-0.8079615390790877,1.2672540107155328,-4.287347918351088,0.05219141211910028,10.20024825759765,1.4589625503531352
2.096,4.937160676875465,0.4858524474875594,-0.4014698306232276,-3.8060888373793205,-6.421836215092526,-0.5210685154816019,10.060027689176422,-3.091456243327684
2.1,1.1390032790657187,1.8014778562373976,1.5231601379432504,-6.967244732453764,-5.896360287703374,-0.2002950184778456,9.620338585829813,-6.152224773793478
2.104,-1.0723120377072064,3.0362365359455907,4.108863070182906,-7.803127213029256,-3.439791187754963,0.9228595518652583,8.613724476197604,-7.197505613054091
2.108,-2.1682867838005677,3.4208308795605262,6.134226699610053,-6.844598311362006,-0.6731431163950674,2.296112587780044,6.744039730765508,-6.585103853631608
2.112,-2.954622126125514,2.732878126112155,6.671753665433243,-5.151058669678605,0.7789576279737958,3.2403481101778198,3.9721298275321715,-5.286673738228728
2.116,-4.03266815478969,1.425241895660747,5.544688008869343,-3.6993379121631733,0.12846925975145496,3.335422620722966,0.6874332328816308,-4.367017321966159
2.12,-5.502251339850545,0.33156618250450265,3.3340523039021264,-2.930848319429515,-2.2534657113430967,2.6288942351661717,-2.3774784281085886,-4.49302663977528
2.124,-7.037474135113598,0.11698597831286861,0.9604507707899756,-2.6872542140195037,-5.1856920392945085,1.5656774095114088,-4.461611172467201,-5.693257230163454
2.128,-8.222449496347053,0.8159391230092297,-0.8824961984257698,-2.5121613738642736,-7.4401947676547024,0.7029394109626992,-5.1456118606456585,-7.4319938196772455
2.132,-8.87677461659814,1.761732002734334,-2.088046785177312,-2.0692686799320654,-8.434742245162397,0.39189568658002827,-4.553621235524588,-8.903288075720866
2.136,-9.161442317797992,1.9684027658372543,-3.0848280121972493,-1.3953015788538323,-8.44707658934999,0.615622121915294,-3.2478876963446055,-9.37187020893407
2.14,-9.406686965287918,0.7454186362967903,-4.433575854069659,-0.8376285692515921,-8.256794599964223,1.0665546389127485,-1.8903629474748413,-8.422509026529042
2.144,-9.838547843909282,-1.84389676309047,-6.3599862112675964,-0.7762823986749936,-8.49549455491615,1.3812562895673182,-0.8883520445237991,-6.068293904883603
2.148,-10.397965161648699,-4.958127516946206,-8.530130510594063,-1.3409106941044229,-9.145098021773492,1.380857325803845,-0.23727868686455622,-2.732937852748364
2.152,-10.802936438529514,-7.418358335738731,-10.20886098614892,-2.3374859295286115,-9.507073331710671,1.1703534727857914,0.3480582704878543,0.8540528093096782
2.156,-10.803410137919627,-8.357767471149145,-10.696228705680596,-3.4204463202108855,-8.651820368227845,1.0503689586766995,1.1223412978656597,3.8345909504296287
2.16,-10.424514091460424,-7.689368760212801,-9.750892636255685,-4.362274647940922,-6.042215806851345,1.3151344435464125,2.0529194120972534,5.45963470632546
2.164,-10.007692027138091,-6.1175754217681515,-7.73301152644467,-5.207070497196582,-1.9154173288784477,2.068922675181966,2.812609235479158,5.351187539626835
2.168,-10.006376945014154,-4.6993160084639385,-5.390436256267094,-6.188506646492897,2.8153791076392736,3.1593708827685987,3.018344978638197,3.6858690462236154
2.172,-10.663770186759166,-4.217757943212291,-3.437028343931388,-7.460983019628202,7.067257609168564,4.265167174091403,2.547435151994023,1.1906913116106352
2.176,-11.781060045554568,-4.7346991851648,-2.1970304159229954,-8.837242598175408,10.178591332328551,5.078230832834834,1.6985118843792861,-1.091442929414825
2.18,-12.751862484074536,-5.582733452399225,-1.5408456517704963,-9.74886193063162,12.200639300825742,5.465030921808648,1.0557429924451753,-2.2113775137227094
2.184,-12.86723205920589,-5.78501538177602,-1.120721459219567,-9.500346530175648,13.71333030255255,5.511599035230574,1.1167002046154266,-1.7246464347776964
2.188,-11.705003956004475,-4.630717530961647,-0.7033206306201691,-7.6648383091906,15.31249378843313,5.448447465138088,1.9422388858042723,0.1134556964384501
2.192,-9.369616095392075,-2.068024506407255,-0.342156373378657,-4.377950748385956,17.121788544390256,5.507129856896881,3.0985366557683847,2.4986661308071234
2.196,-6.44753260316088,1.2858823436627063,-0.2651309871187095,-0.34182156370161465,18.654741206740482,5.794371704046171,3.9570711653295803,4.50560351740728
2.2,-3.71679882652586,4.47480813697257,-0.586974785070197,3.4767484288604464,19.101761555774374,6.247681876502611,4.156879764495443,5.553677825838804
2.204,-1.8118071480425897,6.638325856457186,-1.1090089002470904,6.258071684549122,17.81740892504149,6.67115101624313,3.893167009827266,5.632358363130834
2.208,-1.0379473362818317,7.2968362382175656,-1.420236600526323,7.6004555248835,14.681171175557097,6.813764992290544,3.7779926508014796,5.146463279398176
2.212,-1.4177712770025437,6.368753590509641,-1.2835970928472307,7.50143706109202,10.098470144975408,6.434399348599527,4.3078258247587655,4.479707658047573
2.216,-2.8866620305620927,3.9852233501154615,-1.0623329042886098,6.108982757838476,4.652109752389833,5.324380517569352,5.247590543790466,3.556998685978897
2.22,-5.465708055740151,0.2963521834067251,-1.8316862845571222,3.4464779229119813,-1.325804609462125,3.3071492903054605,5.38355861941136,1.715125503415038
2.224,-9.260400431079574,-4.561624063405361,-4.963788712149835,-0.656461905456581,-7.925346954612792,0.257248769889884,2.9357929248833443,-1.9690468109187123
2.228,-14.25316235246271,-10.321346307818885,-11.309336833252928,-6.3281427647400506,-15.41878124805362,-3.821613750601955,-3.489117260554849,-8.040925365978183
2.232,-20.044677504628226,-16.38866666886065,-20.409951767777102,-13.269703304337327,-23.744669697285417,-8.675041166481833,-13.875679331842093,-16.076629671987575
2.236,-25.75147792586347,-21.785580121240628,-30.24410724612278,-20.50509168953795,-32.063703904643035,-13.70505525039789,-26.323043306240606,-24.517624758844136
2.24,-30.180964051798583,-25.345190187623757,-37.78069829426943,-26.505380751442544,-38.73774078150359,-18.00106767264083,-37.479670276458364,-31.103042875030837
2.244,-32.22089690911798,-26.08860471028879,-40.1699327934831,-29.70273369414508,-41.839369473004695,-20.539494828521583,-43.78071042785882,-33.732495375795224
2.248,-31.260704169535643,-23.60067823488305,-36.00948251616853,-29.15761464343211,-39.96807561303092,-20.51161415518345,-42.92113987741709,-31.3427537078976
2.2520000000000002,-27.42074912055125,-18.20137059201238,-26.041251053484416,-25.025344708650664,-32.94656920108548,-17.65548930355567,-34.83821466829045,-24.363945380477958
2.2560000000000002,-21.480902675291645,-10.835726731480577,-12.899664328372523,-18.54848693069789,-22.016555424842863,-12.432176982637202,-21.716569507594386,-14.520533429646207
2.2600000000000002,-14.588724171355238,-2.7732137310609914,-0.021280139730265546,-11.568066536115793,-9.432688071893779,-5.937902586306791,-7.039187454577245,-4.099004319790538
2.2640000000000002,-7.915220006882237,4.722859541539037,9.735587038314065,-5.797129724291494,2.3456600224528756,0.4423916784598987,5.827714570331636,4.935330264461413
2.2680000000000002,-2.4250798849425337,10.615494185036823,15.083869358485117,-2.235152878697363,11.460917745436973,5.50693129633737,14.800786519321491,11.539160625300383
2.2720000000000002,1.2027320464728746,14.18119455755425,16.47189388113685,-0.992921655366672,17.09321689950866,8.622829236447842,19.48082255240024,15.65537050048556
2.2760000000000002,2.5648763573312863,15.036183651531132,15.443335317268804,-1.5476783472211082,19.39328878395804,9.848008769945523,20.746040175688563,17.80445228785004
2.2800000000000002,1.5739065148839018,13.200246911293448,13.634489552783009,-3.204511442619605,19.065423057042096,9.75840211210334,19.899325662439423,18.51292598583484
2.2840000000000003,-1.4219448077321317,9.200794833628322,11.98302747895633,-5.462326135407693,16.900871645673476,9.082522645541303,17.913609819614976,17.937987997659093
2.2880000000000003,-5.536717028597764,4.111242113931837,10.523289445950127,-8.079909364359764,13.518052797618168,8.340605416278777,15.160436765311033,15.893371438468137
2.2920000000000003,-9.42689100138739,-0.6183493536080391,8.756940630530437,-10.877078167005266,9.378676525454011,7.671496682747261,11.640567671767371,12.204008041621421
2.2960000000000003,-11.644069542162072,-3.583157346624944,6.264828277396248,-13.48391578981699,4.953481711788271,6.912584706915027,7.435285507146034,7.120586212245826
2.3000000000000003,-11.193952644323701,-3.968631202552899,3.1412587694018157,-15.286122971210261,0.831405410899265,5.842439502102138,3.0009693225222804,1.4987343203311525
2.3040000000000003,-8.052879841672393,-1.9579963406721959,-0.01179047276292522,-15.6662465722369,-2.36204803038612,4.4143186953185705,-0.9111809351321654,-3.406507965609876
2.308,-3.3131335008518477,1.2711360572632202,-2.4673537492422497,-14.396591214338002,-4.200086437462403,2.839887208185587,-3.6237691583265246,-6.43520834019597
2.312,1.201205455106333,4.035833598599595,-3.843454800232962,-11.923198801618582,-4.681253280661224,1.472229845039692,-4.9139596492592545,-7.043993856300062
2.316,3.7178805256685337,4.923881980361898,-4.339021618500283,-9.314053165272412,-4.267678368994098,0.5795764818260523,-5.129853993977122,-5.562694094972585
2.32,3.33115739085099,3.4652288455828284,-4.5987784762226624,-7.824494054661045,-3.680689002077088,0.17319688505585873,-4.962047589433041,-3.046174531452891
2.324,0.43181739540364106,0.3353394497411273,-5.313449280041539,-8.281158465068302,-3.553785183716741,0.0034652533458938706,-5.030933278427597,-0.7979811778809562
2.328,-3.4917321190819166,-3.0297493336430534,-6.812505094091193,-10.617703222742762,-4.131842251408841,-0.27039512668659427,-5.563858937623536,0.1919213710309009
2.332,-6.610653980066388,-5.216333865546233,-8.898735484871509,-13.846607322598175,-5.188693596659505,-0.8468395978379704,-6.369781753018856,-0.37905332719674334
2.336,-7.6657319053674655,-5.569380193236327,-10.988337607827702,-16.507321409918063,-6.193115240784039,-1.6420453760358669,-7.089789621816749,-2.09954531282699
2.34,-6.537318484820332,-4.459927726024375,-12.434548696877812,-17.36237706300176,-6.604103064054357,-2.347159261366187,-7.525096354910943,-4.141402995890928
2.344,-4.18520695967419,-2.9511825595948267,-12.830771768108661,-15.981355104776071,-6.12428243734098,-2.6507090482300555,-7.809561019431385,-5.699997578008833
2.348,-2.03982659997331,-2.0806862937052983,-12.13426193236819,-12.919627001929598,-4.787795525000547,-2.49585761280332,-8.304226186988217,-6.351082009359061
2.352,-1.2075661417177912,-2.205008587105908,-10.586992413992505,-9.411135956986527,-2.8677855445711202,-2.2033611368266293,-9.298819180659052,-6.177303176317878
2.356,-1.9261933930002897,-2.808304817594262,-8.534299945284715,-6.739122759555471,-0.6986122465781364,-2.3638566882402756,-10.73316432724664,-5.640542907388522
2.36,-3.561718986698679,-2.8999710275955977,-6.2761880846789495,-5.624160188143378,1.4545462243019074,-3.5479063686607333,-12.150232193233137,-5.307454425837932
2.364,-5.117278417870068,-1.7686356081202348,-4.0348182811185325,-5.949440420080805,3.400179690664004,-5.985580866891496,-12.926843073083774,-5.589676225594303
2.368,-5.87060053797353,0.41004521332024524,-2.0038716776440992,-6.905225135994783,4.943120308649327,-9.381254338285544,-12.656233798677818,-6.607887882805699
2.372,-5.770540912891931,2.5030592083210195,-0.4088186955269748,-7.444681125965644,5.814105454459025,-12.970317426898873,-11.444185810620183,-8.204963238464074
2.376,-5.366880026727699,2.9763137057348104,0.49741866413984326,-6.793543365345386,5.693755179067523,-15.798343122904498,-9.927288562309855,-10.056226860977972
2.38,-5.355118077025622,0.7799999531233652,0.5058983369471548,-4.758606625649918,4.346898763848571,-17.087333012277895,-8.992434620942959,-11.793912428572412
2.384,-6.049642664328303,-3.954176666411172,-0.4596297275628558,-1.7235587863107185,1.7872173704433862,-16.519466667983124,-9.339278226615079,-13.084194122295571
2.388,-7.145571467993705,-9.843234392251702,-2.297811231781907,1.5918129182410894,-1.6465029239311662,-14.329787616511567,-11.127469350804631,-13.657725389192706
2.392,-7.90810292862443,-14.879786960274146,-4.755630114851044,4.447135092862368,-5.36531748707273,-11.183371325651024,-13.880753083598961,-13.328176274848602
2.396,-7.656521683712185,-17.427732094961925,-7.491942663429995,6.3093577325112165,-8.723395228260358,-7.909286009213247,-16.67718720743528,-12.03434388812434
2.4,-6.2289467325437045,-17.045474638662085,-10.140395818732145,6.924083255705909,-11.233627967966811,-5.221768036808726,-18.525903467987064,-9.906856391877227
2.404,-4.1301468803362695,-14.682699296861074,-12.354273338049495,6.272357861570526,-12.70054603710912,-3.54108278053468,-18.763305578748373,-7.320519107287737
2.408,-2.277370848230362,-12.157858369721794,-13.851327541134253,4.506919834603423,-13.21254449137382,-2.959937910294002,-17.30899686520422,-4.875121445706554
2.412,-1.5016584625475389,-11.208211795667353,-14.487067349911854,1.9271238031847133,-13.024984846281939,-3.334360933142989,-14.70572578800568,-3.272252888675439
2.416,-2.1073125028564164,-12.627363377116012,-14.34287843555893,-1.007487894457313,-12.417239412456013,-4.425866231607415,-11.947554886020953,-3.0997969623645076
2.42,-3.7392988773084426,-15.936287763944392,-13.765217492881561,-3.683485080765422,-11.601894479396265,-6.01478573811778,-10.168844064993095,-4.606712227051389
2.424,-5.607723304131582,-19.721102087533154,-13.281392316263805,-5.42650063482165,-10.713188903489595,-7.943012294059827,-10.286410027457691,-7.575705542941478
2.428,-6.92522606565808,-22.410050741836812,-13.3718302661714,-5.693411813105513,-9.840575626045279,-10.077034585703132,-12.686485276196208,-11.354441898228515
2.432,-7.2849922957705076,-23.03765851758385,-14.182622246189794,-4.290298836606553,-9.044971873653367,-12.233287806244107,-17.052378385888915,-15.051286480908743
2.436,-6.764474319802503,-21.59516446142345,-15.334236089072306,-1.4911211825838109,-8.326830635049191,-14.138496117692739,-22.40669430821049,-17.824926965708073
2.44,-5.729982128680376,-18.840596772382696,-15.981937132680855,2.023976080645525,-7.577612746767954,-15.460103354679859,-27.377423789751674,-19.147656617724465
2.444,-4.543531014745668,-15.770020824996891,-15.181120402192164,5.371441508465523,-6.601357181795834,-15.922755471232222,-30.630352984049523,-18.95095226524495
2.448,-3.3713776325564595,-13.091006380246313,-12.41265424376968,7.7270504341361175,-5.232530767657408,-15.456282664121773,-31.328199618684494,-17.59918013631045
2.452,-2.207125107729553,-10.987922515529249,-7.995277484101052,8.542965236664486,-3.503465540809657,-14.280029734851723,-29.441561603412993,-15.71175015255767
2.456,-1.0623296578754662,-9.256655462667254,-3.126380658838684,7.636435390757242,-1.7593589399912162,-12.85455626817361,-25.774062928670446,-13.909972824060446
2.46,-0.1596167051187649,-7.652441454846439,0.539012592256995,5.152491414888118,-0.6068960361219524,-11.68938856315981,-21.66033017582754,-12.584948233821478
2.464,0.05724489117574194,-6.172516304797455,1.6111469011019608,1.480083424803297,-0.6749729504558672,-11.090122994738294,-18.451052145172298,-11.766307014846461
2.468,-0.8507986303692405,-5.080238738794378,-0.3544636606520726,-2.813372023574857,-2.2780090894415252,-10.9780471223728,-17.000380242898018,-11.131298032998984
2.472,-2.9974892994715674,-4.680543818992646,-4.582168868860663,-7.029418303438433,-5.168874740165165,-10.902325224576543,-17.363980047501855,-10.154927776516956
2.476,-5.9744425362740685,-5.022059589036189,-9.3763085399886,-10.41245113309742,-8.549769998085026,-10.274533168738344,-18.829208040051526,-8.348496831676812
2.48,-8.934277670220467,-5.755220876548265,-12.869715984957793,-12.296924754452675,-11.374945357355955,-8.72500711658654,-20.26016675161395,-5.499376189681357
2.484,-10.933781038139387,-6.253247861435511,-13.857143966190847,-12.31778888060876,-12.806228475400076,-6.380577233842814,-20.59457775428882,-1.8101004550912876
2.488,-11.355301509380865,-5.928309590082222,-12.293540589876557,-10.594657112720142,-12.57806240475361,-3.8929778287745194,-19.27317917965115,2.1276300922020255
2.492,-10.160625744674803,-4.53990169516328,-9.20978432447248,-7.749000148754249,-11.060372437155138,-2.1646068218669825,-16.429390618680827,5.533545617375239
2.496,-7.8389702108121355,-2.3057955268318437,-6.119122100828463,-4.682518379191606,-8.980310440256176,-1.889965532866654,-12.786538799818345,7.738901944981535
2.5,-5.087401028067802,0.2543103534264901,-4.22840622861338,-2.175710135668396,-6.950447588440284,-3.153380947745518,-9.328448285358036,8.458125967367891
2.504,-2.42598613905659,2.6354348503084566,-3.8614045528537417,-0.49904975817253217,-5.086246995489887,-5.310901285882892,-6.900013650172468,7.907119102686465
2.508,-0.0011291573293874535,4.6156162925251465,-4.378527612918674,0.7245072507193981,-2.9519981597422884,-7.260433003002845,-5.902603495001131,6.704167870595484
2.512,2.319425421018309,6.311675718344077,-4.595554384442607,2.2833033399765554,0.12227667480738091,-7.9803701797964095,-6.183262504021286,5.587346778766005
2.516,4.634286213945302,7.998788486558624,-3.450442872788244,4.856181911797648,4.537883861051569,-7.0575603786605825,-7.145447762710091,5.08297337103113
2.52,6.719025774574789,9.833613427805176,-0.5532752569021113,8.498673752184459,10.048343589801448,-4.915965438632156,-8.007065259969295,5.299902316022781
2.524,8.007337420596286,11.68286804648119,3.653021289728372,12.461375239463678,15.747983163481422,-2.6030207603212148,-8.086927981979215,5.956005351940803
2.528,7.868096137874318,13.160333173334266,8.151075891445998,15.480746609280459,20.44807441824753,-1.2407493047335265,-7.025002503408359,6.606640680290866
2.532,6.02669693688506,13.850542349849775,11.854750553789245,16.43586904534186,23.240209311910803,-1.431733794163847,-4.8576311821302625,6.945546482073496
2.536,2.8694510058501237,13.58068006399958,14.090993428254933,15.019470243031037,23.930623434227186,-2.93638826982351,-1.9404551446991718,6.996648774722189
2.54,-0.6196815465602867,12.540812884274374,14.814187544139145,12.001393552360923,23.088569257567542,-4.804610731275261,1.2176132921106273,7.0707100673389505
2.544,-3.287396639919052,11.175477362301308,14.489429509017327,8.902817994734278,21.688159639574565,-5.881553914429787,4.1399011417802285,7.527847689995269
2.548,-4.376320096999962,9.916592768795226,13.758872970600805,7.21568021165649,20.554185074808515,-5.412055844591123,6.514311601585405,8.495390121728406
2.552,-3.906342755634114,8.931209397724615,13.096223698328572,7.575716726618566,19.935388057010755,-3.420697628009748,8.23663957542658,9.722571075363021
2.556,-2.652749795328191,8.035738264284191,12.621839836986965,9.36287574058315,19.436137433774093,-0.6663811983976302,9.373262496592588,10.683451194753161
2.56,-1.7135693394611735,6.83829703361539,12.135808029223767,10.989143929444026,18.327042231048722,1.781139684601385,10.070934784671863,10.877910567193112
2.564,-1.9130102233068556,5.010006499316887,11.295676232075834,10.73762815412556,16.02619839809654,3.0946162125255796,10.462797623303459,10.140316713322136
2.568,-3.3772127148370146,2.517134487344947,9.824474813148072,7.708438684354178,12.466569328916194,3.0747006231226806,10.606216724827846,8.765228135417601
2.572,-5.505290531470109,-0.32021416557859084,7.649496559580825,2.3594870888036894,8.15229141515863,2.1733805128983477,10.477912824148461,7.367503206942274
2.576,-7.319634500626989,-2.9676067574491753,4.925976552050656,-3.653985771254156,3.8932158213967796,1.1815288539864923,10.005365464618535,6.5460285851725075
2.58,-7.975425008829916,-4.919617598341574,1.978321769835361,-8.249211483157978,0.40373618914566123,0.7878398688208108,9.124477526121836,6.561804644539507
2.584,-7.1332422285126995,-5.915116860618127,-0.7904888220055,-9.88121440582745,-1.998652887724802,1.2561247391686265,7.8442173821395045,7.2194167864349765
2.588,-5.010428327825593,-6.016547587148352,-2.98926977693111,-8.20206204379565,-3.4389372461237144,2.3816153061097793,6.286293134608286,8.010664721186913
2.592,-2.1527845254636304,-5.5444121308794365,-4.323243074979928,-4.104927310987932,-4.29460717392908,3.7001846974253567,4.685584151657167,8.419720791953068
2.596,0.8766925658012497,-4.927045444292844,-4.659993859138922,0.8093326656785393,-4.918750640095368,4.789869345421266,3.3409266964122253,8.190721471837833
2.6,3.6805446068333367,-4.554337542561143,-4.073758878620993,5.011093437642103,-5.44885264661184,5.473710640069385,2.5193169629269505,7.394970139985617
2.604,6.004574136579549,-4.674750616209394,-2.8401692571151216,7.646949444736492,-5.794142102731712,5.817926008933682,2.347502517363864,6.277229600799046
2.608,7.610928181545432,-5.3351396527209545,-1.3546159619600076,8.704195174659162,-5.764634893390621,5.977912422886675,2.735581635223298,5.018471799278586
2.612,8.215790196499029,-6.353527973048358,0.013499627778401191,8.748798621559217,-5.223100743846999,6.032040648656221,3.386648038126623,3.5997801117091512
2.616,7.589959961474278,-7.328855725869971,1.0681869757331697,8.472307190006632,-4.16786297788849,5.927803791538281,3.898072889897776,1.8601165572365517
2.62,5.7739588491417635,-7.718868166075254,1.857393890215235,8.33245724687049,-2.7149897679091737,5.581340906291189,3.9248266081044676,-0.2956163603043933
2.624,3.223174111966955,-7.0150333593740015,2.61846079393149,8.444403104540925,-1.028101858686341,5.040905126740199,3.3358085348427267,-2.7036802610216455
2.628,0.7267968316580209,-4.97590895750227,3.6090216464331206,8.705080805996658,0.7288513963671903,4.576726602327653,2.2808134314623203,-4.93563522479576
2.632,-0.9002870119288673,-1.7995937485936793,4.924275027846761,9.005522148304863,2.387978218890794,4.605050562813631,1.1151565693339762,-6.51755110238355
2.636,-1.201229426230384,1.875950833295974,6.402574852506859,9.35107123545231,3.7493108484352433,5.46295929215421,0.21685439897009928,-7.237552551825047
2.64,-0.2992384713679712,5.189529096302749,7.685526904461085,9.83005515853256,4.597889712346387,7.164974969690775,-0.2111086543222882,-7.318117045107556
2.644,1.2012008332046662,7.418043001437809,8.40513677718991,10.49974799173333,4.7886094495979705,9.305507992185994,-0.24919517077796627,-7.305254599090631
2.648,2.5811684792399774,8.29895474425848,8.388389214176414,11.301083830557673,4.35032574085335,11.180784308528018,-0.2093517768980746,-7.7184517589439565
2.652,3.417390187898036,8.127687879649784,7.761778711030502,12.083751522558487,3.5376890432301025,12.087541294201856,-0.4360869879860729,-8.671407099451017
2.656,3.7481895593273293,7.54547616881996,6.888300988512583,12.696599593431529,2.755515244841945,11.64391554157146,-1.0753052447930713,-9.729358262078222
2.66,3.8881792998158744,7.128151223613486,6.170776063754147,13.053241077191615,2.364895062920141,9.952407264438989,-1.954609694233568,-10.140865098277118
2.664,4.028373109895256,7.02041011941219,5.840490522750088,13.113993801611741,2.4804461204864765,7.527084885573913,-2.6531999282783545,-9.334301838885722
2.668,3.9264708460025304,6.856607401626206,5.861385290032331,12.799846898626583,2.8964917519886058,5.032564470758643,-2.7255197887593567,-7.361858730065478
2.672,2.9605519988133437,6.037720933323953,6.0035901313021895,11.938579435453448,3.211254368631444,2.9856579018405682,-1.9618681970437137,-4.989438561000497
2.676,0.5606813144140688,4.198030156768709,6.020520659421891,10.325476516286017,3.0853929495992816,1.58416094311724,-0.5358325085962861,-3.3359438112725
2.68,-3.2472434716648877,1.568738274236921,5.81261122208025,7.8966253523185514,2.4848637084992333,0.7228997970919409,1.0454753555627576,-3.249723316165273
2.684,-7.572844399649739,-1.0160111338473143,5.472292915299022,4.9169710438186485,1.7466002018647941,0.15705809664223125,2.188217633839031,-4.788438360808641
2.688,-10.924496689296575,-2.5098908796198884,5.183265717519134,2.0286979983984565,1.4039700152538899,-0.30932777852194704,2.519597413016527,-7.130138561517697
2.692,-11.929745056437241,-2.2266488894292706,5.059262327226179,0.0657579299304416,1.8629568820622353,-0.7312701354376259,2.083740166339794,-8.998880700000427
2.696,-10.116573941569868,-0.25312641694472404,5.0500351128787315,-0.31287321150739444,3.1300365463357593,-1.0621341737428338,1.3317201886466137,-9.362145767687707
2.7,-6.2606132957075715,2.5639588536500924,4.999993667207036,1.0209790063440778,4.774405552459484,-1.272236680604692,0.9073250428032225,-7.983046201002253
2.704,-2.0394870870723025,5.057189391022803,4.825797892920946,3.529720731611178,6.157245601745444,-1.4356668341442855,1.3386507316572533,-5.496876912347943
2.708,0.865357847660789,6.363312693585158,4.687625140127693,6.214922129358456,6.803798623323928,-1.7061934191069668,2.8095385860247006,-2.9694350576696706
2.712,1.713695082192089,6.367215983498227,5.015345273840239,8.074853488401914,6.708323255287041,-2.1905465113713944,5.1146360945326705,-1.217862359580522
2.716,1.1257429326524289,5.708007439279754,6.324084589762606,8.57264686391909,6.374546847059946,-2.8066688539292954,7.798576958365629,-0.3193953943073211
2.72,0.6949198834447543,5.352809101357707,8.884742921472707,7.857381070309202,6.547884894050412,-3.249687404353608,10.378562073694866,0.37126163786388133
2.724,1.9737443582873766,5.9941716422395075,12.440121334576588,6.612499595974896,7.789360838278071,-3.117806252588707,12.528318367945758,1.7151897829035079
2.728,5.442347792947203,7.6446628353173764,16.167486608368336,5.634945792369308,10.145756568479555,-2.144643928345431,14.135315688470655,4.130343341827029
2.732,10.077445466713698,9.64131713738061,18.951730528550343,5.397144203699099,13.094586830108256,-0.40558022174263897,15.225713340863422,7.213452478526506
2.736,13.811794597979542,11.028586400377662,19.85662807138192,5.837506720949477,15.776279879061804,1.630685220985015,15.831467020803302,9.889285063891748
2.74,14.665990424556185,11.079307932979646,18.570233094754713,6.491342422971229,17.378283668391987,3.260367078693889,15.90460120408261,11.005781412091892
2.744,11.907087200317164,9.649026999366015,15.590609334841702,6.869756715622771,17.46044609744945,3.8604454283786254,15.337678060902817,10.014528817164091
2.748,6.541621489484214,7.182244600170634,12.028506378885595,6.819609553940154,16.05502369219107,3.189730663715636,14.069710250470962,7.308949188737415
2.7520000000000002,0.8534877685601714,4.425517414425713,9.116196567831366,6.64109226517121,13.530982221820295,1.5194636341657315,12.200420013856274,4.010166687704441
2.7560000000000002,-2.766169157517652,2.059828989877815,7.675142598161528,6.885104734223205,10.35665582344268,-0.47155000666043634,10.034314889306188,1.3364830671400796
2.7600000000000002,-3.0571789386774526,0.46151076154683324,7.802299128024288,7.948944638473222,6.9241123666424755,-1.9947315955937484,8.010778194587147,-0.04926967103597235
2.7640000000000002,-0.5077848654311765,-0.31631184823572767,8.916575266553536,9.733676324339285,3.519294084807143,-2.494434071352771,6.546876217794306,-0.3232589830895449
2.7680000000000002,2.9923272562325565,-0.3985793144172476,10.125213449180137,11.58688921600833,0.41441539992274556,-1.870637593335232,5.882440518950716,-0.26070405466657576
2.7720000000000002,5.250473402656553,0.08377797483194627,10.718382762323472,12.59354624212392,-2.0286152274356937,-0.4799794566356468,6.017825181016178,-0.6364239113995609
2.7760000000000002,4.975800427535205,1.059328633853056,10.522639263936071,12.061198912562304,-3.3790837799067504,1.0796291487404233,6.767866784101443,-1.6651644477883565
2.7800000000000002,2.4179083608892142,2.4660605029657745,9.938537412710048,9.913501602291944,-3.3027622254767266,2.272539152169429,7.897880295446157,-2.83511964575996
2.7840000000000003,-0.8817389960665878,4.178972943434474,9.672813921614306,6.760223972562017,-1.768103472320945,2.8626810959940485,9.248264289770304,-3.2306329750852
2.7880000000000003,-3.0421923549477015,5.998563144245736,10.323126761277763,3.5940646551348436,0.8445144003164842,2.9717007639765143,10.768963140564665,-2.141111971625378
2.7920000000000003,-2.943524368687349,7.708011473443321,12.032327993028503,1.2677073273034694,3.829497726373347,2.9438331029850815,12.452327525416877,0.43257658252332476
2.7960000000000003,-0.8331876559254852,9.146426565087495,14.390245984653347,0.047420028035048745,6.428460903536006,3.106337970151799,14.209105302375974,3.692056904234505
2.8000000000000003,1.8919572393347153,10.217429670443607,16.612133331263976,-0.49419628432360696,8.145410788599293,3.5544783255490984,15.777434015799372,6.425174584090428
2.8040000000000003,3.541227343484479,10.813132862246675,17.891509644948883,-1.1924280983757853,8.936417324829335,4.08188391319527,16.760572979151675,7.637423085189084
2.8080000000000003,3.1201512178192843,10.72781963101238,17.746398881102778,-2.7637793313269867,9.172676237672704,4.2950201863413895,16.79449546636306,7.069864904809265
2.8120000000000003,0.9103620557857539,9.678603201136866,16.19970737361814,-5.330050776547523,9.39492132511623,3.8506537104708514,15.756125213174528,5.308908077123078
2.816,-1.6833039221517083,7.4694998504339765,13.715488680574936,-8.27554925517461,9.984647702204938,2.685140979136122,13.879717503451957,3.4388087930601614
2.82,-2.9068869628620178,4.222161284287267,10.95049969797401,-10.5280788173568,10.93456496424892,1.113222212170058,11.693901291091152,2.4554283419336116
2.824,-1.609380368471193,0.4955537302853372,8.445851565648582,-11.13017215988748,11.822770903842866,-0.2769504782850163,9.783902790031789,2.7574423442279112
2.828,2.1399799426478694,-2.847544195686396,6.408270835862595,-9.786853890072962,11.99219097477362,-0.8899685270639566,8.490166205295282,3.9786602145779852
2.832,7.06101274338198,-5.0248491121594725,4.678320324747574,-7.090435488274579,10.840256369572899,-0.42122382430943617,7.717503687072622,5.235249883633969
2.836,11.268750659172156,-5.766355710305788,2.884325427940439,-4.278876843029593,8.088007146658583,0.9715547162272742,6.987859462447659,5.630955180183719
2.84,13.148707935715038,-5.508737893015677,0.7032406322139195,-2.6348126387056254,3.9321951612374733,2.728372517975913,5.745941411063541,4.758445229095969
2.844,12.055139628201232,-5.181779225018204,-1.8959795373464203,-2.841819149195203,-0.9631693364204921,4.157206177108492,3.764159000626819,2.9464793116601413
2.848,8.542905554924914,-5.6547457558234555,-4.555014880391127,-4.634026158475649,-5.632813242475834,4.778741480961571,1.4003209637108966,1.1323461066866685
2.852,4.057423592489613,-7.159597724390551,-6.631363005179196,-6.941415632346434,-9.079053359420755,4.563995560993135,-0.4672272891527882,0.4273073444403508
2.856,0.27008262371214187,-9.058712312591297,-7.471768854878974,-8.470614963107892,-10.571722077917912,3.921039439175729,-0.8535874256081115,1.5725993394817124
2.86,-1.611732400929668,-10.147654290405853,-6.7208662863795325,-8.413837149561687,-9.889164734250357,3.427722009982517,0.7708193566766113,4.538942752303683
2.864,-1.264843819585849,-9.35787252297132,-4.50364222126143,-6.89326179594309,-7.401595019497677,3.4665318749648577,4.088382534421498,8.463480772667936
2.868,0.7517783221505852,-6.451327924283305,-1.3731019985600597,-4.883348064794291,-3.9301096897963816,3.9787546026946075,7.973122723600227,11.977425088296286
2.872,3.3598824554044313,-2.2802506051068576,1.9609954190357257,-3.652677188137659,-0.40990410030951807,4.496375568907752,10.991435737305437,13.796886210382127
2.876,5.482539702928989,1.5773443459831924,4.986973804645004,-4.032561060618718,2.521319667056332,4.452928040031566,12.127144531551721,13.319539134821298
2.88,6.501544346595097,3.6348663251703783,7.634152844776509,-5.90304860228639,4.8219567247474515,3.5963548887889374,11.34598589579582,10.94839404960885
2.884,6.461854855952197,3.292037680231715,10.245936207480554,-8.209706222702835,7.048933331861349,2.2439519321105763,9.639200915145238,7.947534404927865
2.888,5.935922132114911,1.1140208722913485,13.254200643339118,-9.542347876908707,9.995862632291164,1.1803640640077901,8.460800334086798,5.84001304931121
2.892,5.63531645893022,-1.5894572369857087,16.714946992000137,-8.971477175583914,14.103281231029655,1.2063338520479192,8.830620315070519,5.605975252525695
2.896,5.958250845491193,-3.6508711094315913,19.97413276965051,-6.688796207103223,18.942192112573025,2.5746962982670993,10.583199971065824,7.0732669641961365
2.9,6.710269795758222,-4.844945460949475,21.713338517357215,-4.069466320220727,23.09766569861131,4.660697274740869,12.216809320574612,8.845555172239528
2.904,7.16093393556082,-6.082123983283054,20.440010852198043,-3.0722274067950366,24.60092109098207,6.110321519964145,11.52102293542248,8.872812155775364
2.908,6.414640526778726,-8.847263652545394,15.242248074457962,-5.256021611410688,21.771264407085596,5.454953820402352,6.704989325960241,5.442636807323765
2.912,3.934184836951772,-14.171872841996333,6.4432734668354215,-10.907758429082605,14.089407743439779,1.9058893916999295,-2.534184673379059,-1.8742364118206751
2.916,-0.06071694793854476,-21.746403751094704,-4.2228734419945795,-18.74919741263352,2.6453406442255982,-4.104473835745466,-14.566537921844201,-11.814944875318247
2.92,-4.548624932512666,-29.727494068226065,-14.078515199216895,-26.38251561708239,-10.107765740556147,-10.953998461063065,-26.29825845576329,-21.784372503912095
2.924,-8.088497982857916,-35.42147285856481,-20.470988377230924,-31.272999441875527,-21.22546233375408,-16.459676460382298,-34.36603427496652,-28.84213244880334
2.928,-9.46826353994095,-36.530115714996555,-21.827054490075398,-31.80312850414748,-28.379723739851215,-18.81002871614237,-36.51279810065694,-30.8638965268392
2.932,-8.274153051496228,-32.28941996606409,-18.293931579053606,-27.87646437999524,-30.669547749305707,-17.326812745401185,-32.47432995988174,-27.316509864825548
2.936,-5.086932839331212,-23.90168461844712,-11.65332241615431,-20.814683898169278,-28.767283855618757,-12.678225359383305,-23.97311762349591,-19.3136925381159
2.94,-1.1961330575963984,-14.029331919711126,-4.535327499232494,-12.659106719720285,-24.368966576165917,-6.461220440692614,-13.867112914448398,-8.997923841297506
2.944,2.0258504524360887,-5.6014913022257815,0.7057667713845603,-5.261707397876762,-19.265126180122934,-0.40941578283650415,-4.903911234383713,1.3857389138959206
2.948,3.7711605161595116,-0.5420927558551512,2.932044385674317,0.37919303192211373,-14.528435141725481,4.336454225153602,1.3177852492942748,10.24695839950732
2.952,4.106952660856564,0.9401424614454754,2.550305851465396,4.244615216251759,-10.216130699566293,7.522431001928453,4.7210492105184585,16.91571056226792
2.956,3.798221150108702,0.19784231366929816,1.1131363326921928,6.904885415458352,-5.677980719085383,9.54752895224783,6.384294777857804,21.409773612676076
2.96,3.7781936097891275,-0.7179767865791291,0.437416836838338,8.920682183675353,-0.22942386490262834,10.928940021005928,7.718320206518001,23.970191401325792
2.964,4.580263077020845,-0.1422922305434895,1.69492874289665,10.418444413787938,6.2193774156037875,11.83862131844944,9.659106955556808,24.711073295079473
2.968,6.068498573168313,2.455669372469629,4.904614675611356,11.067994964205127,12.927515868820535,12.012896389684556,12.272395018074121,23.587282588448943
2.972,7.600028733279714,6.380022401874726,9.030503697432891,10.428567370077076,18.589433139179903,11.05976663861793,14.889891395452196,20.637148387098023
2.976,8.490818473462127,10.223039728353797,12.572587409323546,8.412147225879266,21.925919900047802,8.919634044743361,16.60470671410303,16.26830466805211
2.98,8.478317368195917,12.648448238326182,14.311444855616571,5.541014324718617,22.27070648780233,6.138018388557839,16.8075210331873,11.336044500927414
2.984,7.867763331053709,13.014604812122002,13.836224174339293,2.809164446157297,19.863598066864824,3.7286824910281666,15.478883399835013,6.928815160432691
2.988,7.293031200216433,11.556450440866001,11.630349062399205,1.2229446253980996,15.730603491052875,2.6768902734934272,13.13537710422304,3.968869320282465
2.992,7.2491995706261605,9.11422123346324,8.727456099816777,1.27936928724273,11.231949930508165,3.378860150661808,10.522241086932809,2.8641411021509384
2.996,7.702820058708994,6.620675177782687,6.153790264204645,2.673194703270724,7.500172544372845,5.36408083252104,8.243590459909115,3.3955147718349963
3.0,8.05118765254872,4.6503090991080285,4.4475472063912775,4.410561329173333,5.017288622119281,7.496645740200165,6.525157399276054,4.881740370101738
3.004,7.4773347758944055,3.2516699411021364,3.4735075797594845,5.279051084801722,3.4847916824965637,8.55939168609359,5.194915620133884,6.5025738475109165
3.008,5.473302253807276,2.083752284157299,2.5701310493704455,4.420226650336986,1.997402525203313,7.886922393043278,3.8392504455982817,7.587673992600912
3.012,2.2180952634414552,0.7369352980491044,0.9383471838677906,1.7170003040399706,-0.5558829934512914,5.699389425571098,2.036306481540123,7.7556128173331444
3.016,-1.4262011727183221,-0.9639851997573032,-1.9226350739527334,-2.189096031689701,-5.003416664859799,2.9536314352237696,-0.44091947778827034,6.91302208873924
3.02,-4.3028074336857,-2.8233427570788763,-5.928298360715075,-6.2201251399689,-11.482901675653807,0.8149483962100703,-3.5095686141876286,5.197466567090146
3.024,-5.497000017665073,-4.339178460447954,-10.377352370240942,-9.329462495143048,-19.251828929972987,0.06316567052886057,-6.773098988503648,2.9436142506743863
