Timestamp,O1,Oz,O2,PO3,PO4,TP7,TP8,Fz
0.0,-2.1813661987835076e-12,9.663381206337363e-13,-8.597567102697212e-13,-2.0179413695586845e-12,2.4868995751603507e-13,3.410605131648481e-12,-3.325340003357269e-12,-1.3713474800169934e-12
0.004,-8.015773091954998,-8.11884222621871,1.7611206902910226,0.30440010206532975,-2.4037718285114664,-13.340934991632011,-5.071793286985411,-10.317359038209446
0.008,-13.106818909365117,-13.408195798783936,2.8756528625354534,1.444102233673263,-4.024823883986777,-22.84262765511309,-8.363591340188222,-17.893425413316685
0.012,-13.877443341780904,-14.439573437068262,2.909428993304868,3.660219205396345,-4.627439750615263,-26.419436240264375,-8.917489358636239,-21.177426263364424
0.016,-11.135263612206153,-11.821905539272706,1.7784474842889821,6.34468397680034,-4.732281573324379,-24.580298535118928,-7.006667135599606,-20.393583640629288
0.02,-7.325698135710965,-7.718496110234099,-0.205515026661498,8.296882228826803,-5.312325951430246,-19.945628814465238,-3.9177840854387185,-17.23976502215291
0.024,-5.077418316132849,-4.583994916164535,-2.4264294115021734,8.35390859836997,-7.168865616598225,-15.736571062469153,-1.23207588953359,-13.90253226044932
0.028,-5.6981637906247755,-3.833969192653619,-4.147292050735771,6.075835141036748,-10.344048282475093,-14.092514779558144,-0.0022571057997851085,-11.960788278883186
0.032,-8.508420347623826,-5.21347017551534,-4.740576356806788,2.100563581287055,-13.944531170649011,-15.146525847936815,-0.25898215879081476,-11.773491512828926
0.036000000000000004,-11.342054752868243,-7.171107184558728,-3.900519663141999,-2.0432707950010283,-16.507986299274222,-17.29658343794587,-1.0994590191721656,-12.625230370925138
0.04,-11.885381626620628,-7.935883607183335,-1.7623090764257512,-4.595485422685449,-16.717267962678623,-18.408513149756004,-1.2912215261047848,-13.437594754318233
0.044,-9.080910722867795,-6.653819711066056,1.0871243703423623,-4.409080137859071,-14.10789973888102,-17.186034118653424,-0.041350623580164836,-13.540630455242152
0.048,-3.753583932804588,-3.883549510624455,3.7544066857195055,-1.5295671380052127,-9.3504661153111,-13.917236110609622,2.4970585211516436,-13.039032996331017
0.052000000000000005,1.8633744441117805,-1.2037970984174393,5.316536589801817,2.785624838871321,-3.957227232705659,-10.234165762713886,5.256382114838161,-12.612933124843941
0.056,5.380042609023402,-0.22887809341189325,5.1455120253536,6.618571542710427,0.4129464315330651,-8.112077097876735,6.7954345635461095,-12.968373621129984
0.06,5.545323113655613,-1.6192423237631886,3.1784655147579777,8.260657825550169,2.696873251395928,-8.749468245817383,6.04204661736626,-14.331036397984384
0.064,2.8444446050628294,-4.695611036585014,-0.025084404507822455,6.954299146914245,2.807031794375188,-11.95174195358129,2.8508611483317807,-16.289423237164186
0.068,-0.9011198942914227,-7.836683495524021,-3.4708664002600464,3.1639366276193996,1.5043046556165756,-16.3143865420501,-1.9052676034767657,-18.063230627182485
0.07200000000000001,-3.6356806258882237,-9.38696093779609,-6.101252224308407,-1.7110886932714635,-0.12109003383256578,-20.041643228723366,-6.745230747244484,-18.987163706977018
0.076,-4.216037636444295,-8.539397915094142,-7.212619994806314,-6.004646749193213,-1.2447883934268944,-21.89480108367193,-10.25687133245949,-18.88358207361225
0.08,-2.957791900209987,-5.693195036929865,-6.716592028810929,-8.481842932428016,-1.6370165611885987,-21.732382140553504,-11.687366515951553,-18.09909186694056
0.084,-1.3097166258608226,-2.1513349693345276,-5.146544705339423,-8.75249017204817,-1.6161002981854296,-20.373650495200707,-11.152837959602202,-17.184800097475886
0.088,-0.9020527262798659,0.6225896827283037,-3.3882993445997265,-7.251872917479432,-1.7126088575383207,-18.96145310140883,-9.417808536215531,-16.47287911410059
0.092,-2.5545150812765307,1.7228953823692024,-2.273739284255793,-4.8811469527943885,-2.3056542149298593,-18.2588854814283,-7.433007811849087,-15.856483655978227
0.096,-5.8166134896757455,1.1067972613966361,-2.240185378192283,-2.541447456532005,-3.4604806252912397,-18.29174407742903,-5.903213662694569,-14.91562696400294
0.1,-9.268224723226222,-0.596633892937426,-3.199365644321851,-0.7961425476188069,-5.003476579403529,-18.493945139302852,-5.082792480490369,-13.290417011893581
0.10400000000000001,-11.36838713718626,-2.5951246385660767,-4.690977679448114,0.21220251045452443,-6.7409447025297204,-18.172869126828758,-4.842954111525778,-11.017290560691759
0.108,-11.320088097010046,-4.376861688792786,-6.180931095253332,0.6579442511784066,-8.592629418826562,-16.976465938530886,-4.888303760442248,-8.589463314160042
0.112,-9.457067861451957,-5.830134776564684,-7.3199878161460425,0.861385244215441,-10.526050207097235,-15.09383490192009,-4.954400405424238,-6.700721657260651
0.116,-6.992223464118201,-7.048937162872662,-8.031001995025886,1.1415641307256053,-12.364837366582208,-13.115652436294745,-4.8749440691474675,-5.849427923813728
0.12,-5.288475886729955,-8.002836890095193,-8.387639756393423,1.7508806856647965,-13.628313830686224,-11.679575083445854,-4.540018201398944,-6.057215610838831
0.124,-5.100161294310599,-8.37559440467632,-8.435763443003395,2.8259974210393253,-13.61455388113443,-11.113046440118879,-3.845418268462332,-6.871152902501798
0.128,-6.2118769754097904,-7.693829573153174,-8.080517622872485,4.333379614657716,-11.72459194349339,-11.282026226367051,-2.6956090710033607,-7.643999474270878
0.132,-7.652556904656965,-5.676576954844631,-7.1310178579039025,6.024102848915035,-7.8679221307650415,-11.713447638892085,-1.084332475404544,-7.927885075542264
0.136,-8.322037486724216,-2.558757719215169,-5.467082198226073,7.461267377747944,-2.684772179768057,-11.876977380805997,0.8328671975863955,-7.724369317504923
0.14,-7.646213398244996,0.8795463295547421,-3.1823337460146846,8.172258513973272,2.623471391315743,-11.443241788202535,2.771220168906151,-7.423731260421693
0.14400000000000002,-5.902641840403064,3.607006243209863,-0.6188288772505324,7.855092311660371,6.7701972889075055,-10.3815361349141,4.451281121890194,-7.47954777815745
0.148,-4.031218169966213,4.837958214231261,1.7526804148902517,6.560478007343139,8.93355977722221,-8.893778038025467,5.7397588559194475,-8.05614520161851
0.152,-3.0860155096724284,4.425030560016431,3.5190232231854583,4.702155185476887,9.05074213584808,-7.289073018308024,6.651028702549478,-8.916725906761808
0.156,-3.660384707604745,2.8890401839544495,4.436091756785382,2.844327134102432,7.666557283206922,-5.918380691148897,7.1547445303365045,-9.667969372412907
0.16,-5.6063143902108585,1.0638518541173845,4.395362333099438,1.3772991577100377,5.448761409410428,-5.188262621397669,6.896053758285355,-10.20236715301797
0.164,-8.189042373729873,-0.4578408577732631,3.27525358975835,0.2540328386945667,2.6713867131769806,-5.565804755598158,5.080119629138441,-10.988477354541077
0.168,-10.559428180514832,-1.7324452506302137,0.8372081382093377,-1.027626760144539,-0.9756052819030447,-7.493967887622279,0.7171643022995546,-12.969970483484515
0.17200000000000001,-12.254061875723918,-3.4676741479340016,-3.193770872592932,-3.1444031447361596,-6.096936187628302,-11.201184516724137,-6.806716511620394,-17.05093211659225
0.176,-13.434199907515065,-6.594975798813328,-8.854563894091733,-6.499540828702081,-12.996206423313277,-16.479284521751513,-17.094679482080856,-23.41213153867527
0.18,-14.716236051493595,-11.62179530511991,-15.619695403059945,-10.854531840617717,-21.1314816981479,-22.552203240763372,-28.429644175851283,-31.05327955504346
0.184,-16.70724867619318,-18.160584939825874,-22.299479976607305,-15.291040369039791,-29.021796549085632,-28.149455958349964,-38.09865414505795,-37.87882454900286
0.188,-19.518078165778295,-24.89881339339779,-27.294690720669465,-18.543121538557653,-34.70787622999454,-31.834425078915658,-43.32373695671447,-41.38582654627939
0.192,-22.55317879598578,-30.06382603276015,-29.15801457440533,-19.54662022454433,-36.56402667900383,-32.49889669086764,-42.406916835704166,-39.68146202808628
0.196,-24.722933746849865,-32.1622089439808,-27.20966848339753,-17.927852979148934,-34.033242037685184,-29.818704271618966,-35.51511163791746,-32.33935315599231
0.2,-24.955094892222583,-30.600896976022206,-21.86798399653841,-14.161712477286027,-27.868097666641034,-24.435323983235644,-24.656849106440145,-20.650521208977338
0.20400000000000001,-22.75892924128529,-25.915052927778447,-14.524681510632933,-9.352236271100054,-19.78062766298436,-17.733346297422546,-12.817169090754916,-7.115767136091916
0.20800000000000002,-18.537699952883905,-19.49518706946578,-6.980532098436262,-4.751391257580028,-11.678058879697744,-11.310529696220609,-2.6601344452540303,5.556293620738087
0.212,-13.482614609134078,-12.994934860295302,-0.7379625278554958,-1.2726499905542497,-4.913779204216437,-6.398083050002715,4.513881110467656,15.421958090886005
0.216,-9.098615925001946,-7.738569745501801,3.4768232561213015,0.766141067908098,0.057400836855796555,-3.4957630569648686,9.012950661146345,21.77179507100248
0.22,-6.5809424372340075,-4.374008811049862,5.76522376688907,1.6016729700045769,3.534896490438923,-2.3623014486666207,12.137138796924415,24.938338247031105
0.224,-6.3439546882882585,-2.888403752075728,6.693866647555699,1.7526091890367788,6.084305057246617,-2.3007943522074754,15.105974283220691,25.684265181515073
0.228,-7.9076317329490315,-2.855205829388389,6.811400416643142,1.720944096683544,8.06947312221916,-2.573932822886743,18.185538014131584,24.596922521269306
0.232,-10.171167759668323,-3.7074083509689597,6.355050634888527,1.8258740893056444,9.480668069626,-2.734818972139486,20.52980608538362,21.855537107287926
0.23600000000000002,-11.924995208839839,-4.898622961413,5.279787572726661,2.1963265064936426,10.09436189748622,-2.7188235403304617,20.78085206519649,17.474891768641086
0.24,-12.347379582068452,-5.922218339952199,3.5417679377690323,2.8642163136214727,9.793287945536306,-2.7151017617067303,18.02570094595507,11.769026284106495
0.244,-11.284174029795954,-6.305516445533748,1.3742787509220546,3.8405336137482733,8.771260385225371,-2.9549650831159084,12.504636692114865,5.634761408916793
0.248,-9.207622424550868,-5.682538014231524,-0.6723519373596085,5.111114528746771,7.478470889181407,-3.549969757362767,5.629640731238652,0.39685356460176546
0.252,-6.91512422174183,-3.9667184562974303,-1.9863082788085364,6.567958239921978,6.350456192607835,-4.439629179693698,-0.6811638334499701,-2.7384633808646246
0.256,-5.158931876790788,-1.5186791945421225,-2.276118059394684,7.949346925226726,5.524043360913657,-5.44563432737589,-4.932023159436026,-3.297527590385484
0.26,-4.373842189973231,0.8614415260669084,-1.7954709983123678,8.870656774516545,4.768025044709887,-6.376452437074468,-6.698960240559012,-1.8392554796472824
0.264,-4.617578386133441,2.1856195442464417,-1.2366586346372732,8.95270641773074,3.6775880191033625,-7.108160443760504,-6.643619293086044,0.28793555020695116
0.268,-5.689992120633042,1.707182526726724,-1.3342226828300885,7.980952422011704,1.9990009557997208,-7.599790268761723,-5.941899750473617,1.6293453202285226
0.272,-7.320213718619439,-0.6864700423950243,-2.4289817503593705,5.996861238144814,-0.1544526951263836,-7.850141630614694,-5.521810363802915,1.3720820734183308
0.276,-9.307722857075982,-4.35207878311538,-4.269433940084494,3.2738766804131494,-2.360435358993139,-7.858689798029454,-5.592146486828299,-0.27131674208296985
0.28,-11.535182754274619,-8.129146055475598,-6.164175229818008,0.21368272910204134,-4.177896333296777,-7.640792371091619,-5.7181978046211155,-2.270384450077058
0.28400000000000003,-13.881389436791785,-10.844569518871715,-7.391622324495886,-2.779047510315607,-5.474607246148094,-7.271224548627297,-5.3224412108351515,-3.430838118083601
0.28800000000000003,-16.120975582496172,-11.818334466496825,-7.601184054805535,-5.365073449373278,-6.535194880915081,-6.886498896073881,-4.2243862727708255,-3.0869209228443655
0.292,-17.905337831476203,-11.115871861807026,-6.973053830852727,-7.2817718252389785,-7.855149858709455,-6.60714356490904,-2.839339997190132,-1.417674162069476
0.296,-18.88741968089506,-9.437169143191095,-6.053816868696428,-8.340604584782046,-9.739892631551866,-6.432921712558217,-1.9071853192417176,0.7608142024049589
0.3,-18.923549808097377,-7.7103343301264,-5.377860614336169,-8.436947855764863,-11.95699499301979,-6.203920341542119,-1.9641068241319433,2.534928426704362
0.304,-18.226512468393096,-6.63939401809848,-5.144686314342115,-7.601294610706476,-13.714091368423963,-5.688588196302986,-2.93690194387767,3.3885834515275173
0.308,-17.34517547887181,-6.428417738672735,-5.1369669713912485,-6.05648986531196,-14.007888311450627,-4.76264909805708,-4.136999256714847,3.3678750753244033
0.312,-16.94337408545821,-6.8018332316344665,-4.9275689722794445,-4.216698844376086,-12.178286877093738,-3.560736890424594,-4.6651146320900985,2.866553521160278
0.316,-17.462784735993466,-7.254408431022023,-4.219655653043639,-2.578068835354067,-8.354628385821206,-2.4926546026822565,-3.9769031888429662,2.214328089452064
0.32,-18.861521725116333,-7.335929145490898,-3.065693965559718,-1.5315308084804369,-3.509550490368268,-2.0944405541536524,-2.251607978817205,1.3647337953924832
0.324,-20.58832010289829,-6.821816818142896,-1.8464517118732129,-1.189793010774161,0.9183121410742325,-2.772899366986488,-0.3363660916477933,-0.09778941736533361
0.328,-21.818149463212706,-5.706510008654689,-1.0337756802417748,-1.3256655406171605,3.6536915793037705,-4.568419027442811,0.7019139862062178,-2.637200728574179
0.332,-21.866122802183146,-4.102784360705935,-0.9157905705015756,-1.4980738623107774,4.121467388845687,-7.067681715225708,0.1557448542974469,-6.3401736743982156
0.336,-20.54122871461998,-2.1519880686214847,-1.4643927860982386,-1.300748090258336,2.6242286565039414,-9.530609378492077,-1.9539670356629832,-10.672903276597186
0.34,-18.243502743407518,-0.008104022227010788,-2.393349278899148,-0.5859772282385518,0.10300194132520701,-11.191086165983798,-4.911026437162253,-14.609664762432923
0.34400000000000003,-15.750729879702241,2.1110206592766545,-3.3516729486842634,0.4688141595184834,-2.3702320293130628,-11.57999035423316,-7.691179159596254,-17.06413604429244
0.34800000000000003,-13.819664772822595,3.8974164969093366,-4.112127704679219,1.4914670354424149,-4.082579281631057,-10.704919947276494,-9.457833806736858,-17.376606128092664
0.352,-12.835646244195251,5.012242375607981,-4.645320905090173,2.1617413930982803,-4.916322811457349,-8.995453466196375,-9.902526457037244,-15.575125367192793
0.356,-12.716425325915104,5.215391301139544,-5.064403489848138,2.4079400910257345,-5.26246912466721,-7.077373990862098,-9.284540707779207,-12.299722147962267
0.36,-13.10506848523946,4.494587113409246,-5.505862542052318,2.4249821597597885,-5.715060392502513,-5.52012204310975,-8.20702428586876,-8.49165434912747
0.364,-13.720424618511895,3.0800243061598014,-6.06296595168766,2.4843201184676484,-6.756840576192811,-4.700269639740998,-7.299251972702428,-5.04429210414767
0.368,-14.608594003438316,1.328904057068975,-6.798970622270796,2.6558538783410865,-8.577993603587895,-4.787875816632636,-6.967985059625757,-2.574880779668387
0.372,-16.08757880655549,-0.4447073513560076,-7.787882284950207,2.645900780475035,-11.064807696095166,-5.7783844111573055,-7.285169346045089,-1.3537724182818427
0.376,-18.40162390382261,-2.0852168067000214,-9.109769220909074,1.8914462986177312,-13.90157741488417,-7.5060413112344415,-8.011684710950487,-1.3411998187306589
0.38,-21.318335306585197,-3.5755677156825736,-10.757094478191641,-0.09735247210271436,-16.679550673204822,-9.62231338396813,-8.709649889478897,-2.262765149779527
0.384,-23.968616517505374,-4.90933388528217,-12.518966330846713,-3.3354227836312083,-18.973915515821965,-11.594663189684123,-8.893601416638301,-3.6778952027837137
0.388,-25.104454498932846,-5.963943818408202,-13.959129725815167,-7.158103262551007,-20.392502213518426,-12.793912841391084,-8.188716096501663,-5.055510057306955
0.392,-23.688916729894657,-6.494575730868482,-14.563604465771277,-10.384423173741979,-20.638651867933522,-12.683093423717915,-6.471645549817131,-5.894900461969121
0.396,-19.536342118035904,-6.299960817493131,-14.025258611220082,-11.832585834354461,-19.616587570390884,-11.064685259972475,-3.978119955782245,-5.914944005764069
0.4,-13.604716732331433,-5.449689136003358,-12.48940323046114,-10.920893202525658,-17.527480261624596,-8.274171056955254,-1.3067569406908452,-5.243739314933423
0.404,-7.7040086566437465,-4.397054956881146,-10.581822338087427,-8.016168013421925,-14.884638490001182,-5.162793062756698,0.7311176043379208,-4.470366837078423
0.40800000000000003,-3.73843143718602,-3.8510151341910577,-9.153997220414446,-4.325668613359491,-12.397779356127119,-2.8192829377080835,1.4072773985360993,-4.469211423823914
0.41200000000000003,-2.8425675452391492,-4.424557823691227,-8.859307587486665,-1.3509497122849639,-10.74287632930389,-2.1074578775964197,0.4115728742074394,-6.001262292494565
0.41600000000000004,-4.854981730185858,-6.241158072200691,-9.797756892439976,-0.17268513051215084,-10.314806023340774,-3.2378945389819744,-1.950858697470355,-9.276155116613447
0.42,-8.421106175831229,-8.74248173726186,-11.438677757493927,-0.9501892321950671,-11.076643872305194,-5.624978654697037,-4.832978019159529,-13.739511044416993
0.424,-11.661065273692051,-10.853238420028212,-12.89547929967,-2.891406044025903,-12.586765815531757,-8.12808255667921,-7.1888744700094485,-18.23349584277644
0.428,-13.057859130351238,-11.459004114494931,-13.406831060697243,-4.711110286883319,-14.18780722519342,-9.570483366767869,-8.24420977356335,-21.483821805688798
0.432,-12.129855777510961,-9.975094152722052,-12.756985539049909,-5.32937594159015,-15.275908888592197,-9.270398877027201,-7.852415701104773,-22.66487130878777
0.436,-9.551207389172832,-6.70040827331999,-11.392729017414654,-4.420926539531958,-15.52524691382297,-7.318555145949464,-6.5401963955658715,-21.749530495130458
0.44,-6.699582270704875,-2.7331206062794635,-10.153635897438933,-2.5202507053442877,-14.965639722279583,-4.4861873491387865,-5.198012869735308,-19.474393349251923
0.444,-4.926612284446033,0.5124026603931888,-9.785462387780319,-0.6556594346707154,-13.918870660715466,-1.8320466002838653,-4.584624408260412,-16.94458352845046
0.448,-4.942356654071416,1.942673962642501,-10.523353323374838,0.24570280194185523,-12.851361543953237,-0.21558789427451774,-4.909637560938136,-15.098245711098429
0.452,-6.588464529346808,1.255937279791886,-11.984590503826468,-0.16866458358630565,-12.211754679920944,0.048920933989897275,-5.721254794951139,-14.303870967384944
0.456,-9.049063750076813,-0.9779522161858365,-13.412279830441356,-1.5684018115771843,-12.297775200773522,-0.7522088742821391,-6.163871464803172,-14.280088451792242
0.46,-11.337912680199054,-3.644762205556482,-14.098222446253176,-3.225293114664373,-13.177338166342658,-1.9750253896278567,-5.474214342948994,-14.369014174362828
0.464,-12.787541112881215,-5.633753060212606,-13.727214627615798,-4.485213131031988,-14.669502747016104,-2.9932004445092444,-3.438599971537304,-13.972572052064065
0.468,-13.266960353187518,-6.301292633335357,-12.442214321756758,-5.101064838364419,-16.357288367236464,-3.4841223555846987,-0.5544883051781859,-12.894541615663119
0.47200000000000003,-13.055431556776576,-5.63885660152434,-10.634648019088278,-5.226506415601236,-17.650604097379304,-3.4758681431463536,2.1951419608293143,-11.39473005943105
0.47600000000000003,-12.540348843109749,-4.131679362920099,-8.639013712955116,-5.129836174997546,-17.931481085062927,-3.179396798802002,3.836375598360373,-9.967587142880191
0.48,-11.925627984538767,-2.4338355987339444,-6.540158718563484,-4.843609599561347,-16.75894363169918,-2.766072521594875,3.8978141280402614,-9.024436371883766
0.484,-11.103278821935502,-1.0712574124425336,-4.227490601546861,-4.013059330321653,-14.069547547585096,-2.236278822149891,2.624528334769238,-8.674212115676891
0.488,-9.755222712478709,-0.30684953160437356,-1.6312744672571666,-2.083723265159822,-10.273949347100015,-1.453662996992791,0.8227326188746158,-8.718447608979021
0.492,-7.607716236868354,-0.18545930785484632,1.0433026006878683,1.2693830931492507,-6.18451741128949,-0.30657614911987263,-0.5717951999722395,-8.827892501311444
0.496,-4.674011454359901,-0.6625141406790807,3.2703741928650776,5.7544127434081265,-2.7655310193260796,1.131682014747875,-0.9634402705916267,-8.7632791581761
0.5,-1.3566551392010382,-1.683444296825515,4.419131955647945,10.395272817220699,-0.781435063780882,2.5550040196563506,-0.3507128129521524,-8.516609769488214
0.504,1.650158474077985,-3.162032308944953,4.10162653369843,13.881442145350768,-0.504310366419275,3.522637530430461,0.741920187230114,-8.304957160764918
0.508,3.618018682139886,-4.889544656864168,2.4396701483281715,15.185414873133217,-1.6067735813915132,3.6596742131210074,1.589833467467126,-8.443579629368756
0.512,4.081802964127123,-6.483400359372846,0.06975230527236487,14.102216759516827,-3.306964285027555,2.8605280791275094,1.6601643618017323,-9.183329383160334
0.516,3.050715909573552,-7.452698246893215,-2.1332763951563,11.402952243102492,-4.7054002459228235,1.3722767358171044,0.8549315037244892,-10.598978897440482
0.52,1.0304917975398862,-7.372834036648234,-3.4499615148123053,8.500987011229817,-5.151453730211722,-0.30050336966884617,-0.5063339486541425,-12.573546547780882
0.524,-1.184707644225552,-6.103339402499908,-3.6199130382270335,6.766185844290349,-4.491052998429305,-1.6326509284084794,-1.919626307271923,-14.858186015180301
0.528,-2.8399916066055355,-3.9043348348023303,-2.8773577154168706,6.854998554506296,-3.0700496418854253,-2.325379766493297,-2.970425465472773,-17.13488399200613
0.532,-3.5199431298739325,-1.375546277996758,-1.7339395034885783,8.41162045180215,-1.5172145677934283,-2.419453999632264,-3.4813812304618184,-19.045028508763444
0.536,-3.2885994725709677,0.7645791863474933,-0.6654089421627409,10.291479256278281,-0.43492494074484433,-2.2223430216226836,-3.481151599680457,-20.208298480534054
0.54,-2.5833194910980746,1.9715875981344606,0.12346102982891827,11.199336746181025,-0.13907553856427057,-2.1015644701182907,-3.059997900910239,-20.292466143725136
0.544,-1.933468513588708,2.081288178885589,0.7131596910786229,10.394330745419627,-0.5776969298701307,-2.2645192398672567,-2.2493830415835605,-19.149842081003325
0.548,-1.651175080902151,1.3443646710572827,1.2861140618047928,8.090476089027167,-1.442485470518279,-2.6400797620564815,-1.0312372322464416,-16.965600856634115
0.552,-1.6541401949982832,0.2783099902639643,1.8996129837966036,5.352587890465636,-2.3888344610429533,-2.915257394323694,0.5359190696820217,-14.30043914567309
0.556,-1.5408606055333387,-0.5907941237643484,2.3744099999495307,3.5381224805044154,-3.2330307920012995,-2.710677846457454,2.1854436055285147,-11.94945839491088
0.56,-0.880836432172988,-0.9647983097844979,2.3844278508788337,3.589121554213266,-4.007779562382605,-1.8062391846010435,3.4307206955579255,-10.649803674531334
0.5640000000000001,0.44235963967198333,-0.8957586303361039,1.6760076841148164,5.541075982792743,-4.862459427689504,-0.29789255314431196,3.7305825834982587,-10.753597518477463
0.5680000000000001,2.0560999624563316,-0.7331645256101558,0.2764938685763856,8.500618354164606,-5.870939087661897,1.4046964512012645,2.770794877204134,-12.03848083517872
0.5720000000000001,3.2322780140845344,-0.923869957916061,-1.4501294665563953,11.09377380720975,-6.875712929535864,2.757575355652164,0.7005678162650915,-13.764392041819004
0.5760000000000001,3.2740998682089626,-1.7656381935957546,-2.949481994186805,12.144408959900886,-7.480778421430825,3.345251049986839,-1.8414902335100667,-14.984098928546498
0.58,1.9487172346443957,-3.2202095487759266,-3.734305837845913,11.24460049768078,-7.2103921665606565,3.0863728453392834,-3.9786052710699567,-14.984272835857999
0.584,-0.2863484327375845,-4.881126418784071,-3.6016482412168807,8.929850434612348,-5.758532118060899,2.2798941030128335,-5.009009847870095,-13.627297795233597
0.588,-2.4303474671815968,-6.117795610534026,-2.6810966237643736,6.3732821888839375,-3.1876918591551635,1.4669331363451903,-4.761256758339025,-11.416916724252204
0.592,-3.420997482110574,-6.3480448403895,-1.3033854916446166,4.757776006395861,0.0338178402478726,1.1751213959506126,-3.6841394525054243,-9.24086622441886
0.596,-2.7078528808877596,-5.325303613316835,0.21023388838912593,4.65592251935161,3.1875874216950932,1.6774176425098055,-2.6144480032310016,-7.921986857014718
0.6,-0.595022922761749,-3.3041736104048134,1.7093685847704796,5.734204333595206,5.5802259228930975,2.866783264809456,-2.347959197366134,-7.834081144305779
0.604,1.8460814764757218,-0.9983138953469917,3.221245147283989,6.929106262460436,6.78831446025044,4.299150644655448,-3.2523052473376506,-8.78090965305742
0.608,3.3055317397537354,0.7066001414292757,4.829326553836243,7.027995152477087,6.7843737452223785,5.392856716373201,-5.120321165245703,-10.167093694172028
0.612,2.915862209706997,1.1431325669493928,6.501359735901945,5.328403804564687,5.867950934852384,5.691280552800741,-7.345903357347037,-11.355204185329109
0.616,0.7184788625485785,0.1787207192992888,7.991418096725219,2.026923379272249,4.469094733600411,5.068008197550885,-9.296274721791619,-11.992616820682077
0.62,-2.331284773318652,-1.6767494350251324,8.911528634376449,-1.853077301319088,2.9589415868142113,3.7738076112369896,-10.66193183328835,-12.133272577982469
0.624,-4.854132424813299,-3.464430179493954,8.931673504302026,-4.981953770429104,1.5422709173489864,2.313661391404648,-11.58502887459706,-12.110298231804341
0.628,-5.768590578663645,-4.1892101898652765,7.9956856938800565,-6.417565962426878,0.28396180962992545,1.225751395407411,-12.495001550000692,-12.254870256607607
0.632,-4.847040973680257,-3.270162421713696,6.417720867432851,-6.0978924720143945,-0.7966439617398198,0.8686138088541191,-13.775513879453074,-12.636352396931214
0.636,-2.7999251746464315,-0.8155922854702,4.787075538895413,-4.866659115084959,-1.657432271858772,1.3040911063543121,-15.467771946356441,-12.981229736595763
0.64,-0.862306328109252,2.405411078046425,3.717502501617174,-4.012260748704182,-2.240275499695219,2.3055200792970068,-17.185083420512356,-12.816208049479087
0.644,-0.10114543807142118,5.269362752090413,3.5616795826245427,-4.559183046602247,-2.550247737230528,3.4744128872349087,-18.289642982557176,-11.73917750517855
0.648,-0.8313932912236801,6.742745400485244,4.250441695635725,-6.685764719677094,-2.7230905284323184,4.407910127115493,-18.21879528956576,-9.656713941620486
0.652,-2.477082871488996,6.258658691993993,5.341290835296396,-9.592874070418652,-3.0008095187002466,4.85747000596205,-16.76456767088755,-6.836183409988128
0.656,-3.9253780213924037,3.887246488456559,6.258328101740996,-11.894231392660673,-3.5978678898187617,4.823447957532885,-14.150399411289575,-3.751333787634093
0.66,-4.170323227892892,0.26653032821011546,6.610832350637496,-12.321106936539227,-4.523236742849791,4.5445083508506166,-10.892013744591363,-0.8362095560192078
0.664,-2.883320607790107,-3.6565135616960065,6.416426142276204,-10.376959047158493,-5.482500523001295,4.390004336557697,-7.5505060517698075,1.6942464996175133
0.668,-0.5791552315005466,-6.943227129161115,6.1055136864158195,-6.597691632758701,-5.945341250388411,4.69330574163857,-4.533344016446238,3.8490004055495
0.672,1.700716324473258,-8.925898214519004,6.291940290015901,-2.295503482389307,-5.385358943110941,5.596306603173008,-2.055083354351005,5.708927313927237
0.676,2.9746394156264966,-9.362669427491848,7.4130744134410795,1.0569871373897417,-3.582532669124424,6.965963835116482,-0.23150200718831915,7.232236580977162
0.68,2.858662519521613,-8.442860851559335,9.441213753800012,2.4970150156327877,-0.7984231752366213,8.416871538725989,0.7946473914720098,8.160556497579684
0.684,1.747505117556114,-6.67503369835905,11.819390663623727,1.9602795869557612,2.2735469504504415,9.436229782992534,0.8121891522273392,8.11327984035575
0.6880000000000001,0.5461721672669015,-4.6891224398879165,13.672026283942712,0.2174912689336952,4.785178910569288,9.570401143872754,-0.35762782170216667,6.829493952088739
0.6920000000000001,0.14240078936667633,-2.997467525910249,14.200552767486649,-1.5657245972806062,6.10914944987549,8.613949030693856,-2.6812871406409133,4.421827059733987
0.6960000000000001,0.945979582828103,-1.7905677408384548,13.067826113344518,-2.390261653890138,6.118495558761321,6.712634930741154,-5.781372340581863,1.4776731752699486
0.7000000000000001,2.738800425676592,-0.8592334025533743,10.582863154277291,-1.833491914980681,5.2254015698649345,4.3276067281005295,-8.961687941822266,-1.0952493771251202
0.704,4.886974211088415,0.28476335827940513,7.576891022006119,-0.14551651672952515,4.155681398483352,2.0695982531231696,-11.431469508565334,-2.4344275736254106
0.708,6.757088238746837,2.1101356036360794,5.034258388450287,1.9643596549838014,3.588723791338743,0.47835059948646874,-12.629027603113183,-2.1195002772465092
0.712,8.067485976138851,4.713255856003085,3.6606345210164797,3.692920516970606,3.845070270246182,-0.15078712940250538,-12.467002668968433,-0.37408750108766586
0.716,8.962176210037406,7.599960397387401,3.596464592963434,4.466672799083252,4.763923365103789,0.17905431376881942,-11.365894939935949,2.035299544739706
0.72,9.77916858728539,9.770560755932435,4.422348296470003,4.10162863847156,5.825264172437615,1.2328578203158773,-10.044789570151217,4.166358712338951
0.724,10.70704643473739,10.121240494131708,5.426574826148491,2.774899196179515,6.423643436029291,2.6822220662343916,-9.179734240874243,5.350634420917617
0.728,11.568673351295184,8.005747497448338,5.9848419690110575,0.8755587909273075,6.153802653814568,4.233468375549707,-9.10224064476089,5.492545459071357
0.732,11.892387816592528,3.6692987276898608,5.836327095124577,-1.1662832522631295,4.9703601444298915,5.691025899840398,-9.696061019948736,5.065622150348378
0.736,11.242222753666274,-1.7024489132756635,5.121067242894605,-3.0014581545003596,3.1702696556983603,6.945128846221779,-10.536733593158608,4.815904776095294
0.74,9.584606997243139,-6.3929730998434104,4.199406449193329,-4.407716024565229,1.2466967974532523,7.913925859583214,-11.181447109963294,5.330406915195235
0.744,7.455268214976382,-8.854238396989896,3.3903683014365384,-5.265708499621692,-0.2988900778213148,8.505957471383251,-11.431343615621305,6.711517134887887
0.748,5.7910024562304985,-8.360595719583198,2.8020040874649186,-5.516212314307497,-1.1037724988837319,8.639327190152642,-11.405309236099844,8.526237610136715
0.752,5.484943275517514,-5.301515829172779,2.34571208690161,-5.141209167237845,-1.013792658360125,8.298447511446037,-11.3964813025446,10.049631853745941
0.756,6.902760822911528,-0.9746880947721204,1.8976670098348656,-4.183103367655242,-0.08233532672782129,7.5886429527704795,-11.604866433677916,10.660662088428708
0.76,9.633495738352899,3.0149367111286125,1.4833421031279617,-2.7847489461595956,1.4815588685893264,6.725230449301894,-11.91862680900038,10.16035139221099
0.764,12.606640260814693,5.428901323935413,1.3379205519826571,-1.2331323398814407,3.372184528685726,5.938731513749533,-11.902465452288256,8.843985554978062
0.768,14.548112287795608,5.837612829370757,1.7974942293630192,0.057104948988618176,5.262329382503629,5.357059016227804,-11.009799177045771,7.311195528247066
0.772,14.551338993001512,4.653680931872888,3.0819122713769986,0.6431676412410319,6.883440726348738,4.945882388074826,-8.911109111772383,6.142491692197403
0.776,12.491485253149033,2.8200656756206337,5.125596917283174,0.22119934642319805,8.099595696087155,4.555022596947547,-5.743425028704285,5.634377947459452
0.78,9.085198162716459,1.3466563451100741,7.568228559129987,-1.2099251520698164,8.937089823844913,4.04038990380525,-2.1373260085170553,5.713146228273785
0.784,5.568309680682572,0.9180735861375369,9.912399388711272,-3.2895943360872337,9.5360493734667,3.3831428161633936,1.0090676342258824,6.043487279541109
0.788,3.1631724546520665,1.7274068264485534,11.761060415960463,-5.394565167504542,10.046864380599457,2.7288992785970936,2.9016195609343356,6.235421948862854
0.792,2.5810793572459794,3.52787902521337,12.97215803639202,-6.8822615351408185,10.51279727608513,2.3183144723652997,3.184654366021979,6.026400426188237
0.796,3.775159313602497,5.805450644910463,13.636415893485324,-7.374726300892844,10.810813028206898,2.3479394377450475,2.069312874001119,5.361075666644458
0.8,6.039704239066906,7.976049119316226,13.928879096471082,-6.920785627143923,10.719557298897026,2.8512213373383446,0.2183112850154476,4.375112545173215
0.804,8.402026976285468,9.552441812795555,13.958101741340197,-5.930412752447052,10.08358208000826,3.681488561535392,-1.524129686677159,3.348968862901092
0.808,10.093303805962485,10.274219334639005,13.722816423603625,-4.907081343088522,8.983222271097148,4.597905603384943,-2.4256353928073935,2.664433480221996
0.812,10.861693043887039,10.173107750942776,13.1927394892306,-4.146070316134956,7.785246395427813,5.391336192696716,-2.0777516960501705,2.7502448006541993
0.8160000000000001,10.992582229824551,9.545168555633758,12.435758782541628,-3.5921218626790257,7.0032110243090635,5.958450916720814,-0.47935163584573015,3.9709811752875668
0.8200000000000001,11.023089936477133,8.79718503212915,11.648141345347476,-2.9688627083156334,7.006552356441498,6.2623761932952275,1.9739351686343358,6.414630725127848
0.8240000000000001,11.301490527802871,8.18296873281501,11.010428260959138,-2.126633529780678,7.716177535667784,6.20568580037195,4.534413950585077,9.646231441809508
0.8280000000000001,11.652994538090155,7.571643524166373,10.452465356607718,-1.3640972320883478,8.488138506749516,5.5262944296106085,6.1893352575543785,12.595377834888493
0.8320000000000001,11.370733423538372,6.407698851143731,9.498898834761233,-1.4665299840766934,8.304811115102716,3.8395919204278313,5.855953743445082,13.754627685539004
0.836,9.575301498023697,3.9587639977790547,7.370319175399982,-3.35293217062768,6.228859891988062,0.8547760325156863,2.7008786322603755,11.72053480295671
0.84,5.774037134192066,-0.20336166704665737,3.381606784413164,-7.472687251273021,1.9373301651694579,-3.3465238139554034,-3.472016790013403,5.895405284138552
0.844,0.30290422551297347,-5.752174036465903,-2.550989381010817,-13.311713688035391,-3.9599061682127488,-8.145706299050058,-11.934648737158573,-2.9994055648603872
0.848,-5.59166954090038,-11.458937455597004,-9.581808411007504,-19.33089084761223,-9.999336574838456,-12.471951529804207,-21.028680552844524,-12.922720842915647
0.852,-10.149838038579313,-15.525000023171886,-16.036480506283027,-23.467504902356676,-14.350467497323477,-15.145285633918878,-28.53837029087161,-21.12467874339344
0.856,-11.839708309994156,-16.323790432156283,-19.978976761271227,-24.01104966827003,-15.517274541692906,-15.34057092914092,-32.368944459914914,-25.15782154869384
0.86,-10.047014475174308,-13.187911090932651,-20.000170143609616,-20.38497441231086,-12.912381562113048,-12.93220461434376,-31.262490353914487,-23.834701779760834
0.864,-5.363402087561406,-6.828952426395171,-15.852430935110581,-13.426319258259575,-7.053071668862556,-8.537264229428262,-25.234023609396253,-17.673042875078465
0.868,0.6723873155776166,0.871423566833311,-8.591339791919498,-5.000833903843567,0.7016922833629233,-3.2427264982628827,-15.532997709144201,-8.61146564733969
0.872,6.245075517523446,7.62573700852627,-0.1556870562823689,2.8341927891093794,8.71342525558143,1.8400652404353326,-4.1445852078498735,0.8602454253805696
0.876,10.006307948262382,11.68974195783391,7.401115362682381,8.66240657293367,15.634900371995794,5.965155893129853,6.915619114071425,8.707918912242505
0.88,11.511231080959027,12.521789012195038,12.648213933641498,12.109665506840644,20.732662362345444,8.892481380462462,16.18000004498235,13.993627802704953
0.884,11.15227040321026,10.829618168121897,15.134425295851111,13.650747703606239,23.85847079008895,10.749986883734119,22.952022323492578,16.896359749913124
0.888,9.72570661051513,8.061625889960988,15.280962190531996,14.043559655625838,25.193356307867322,11.759992964205855,27.172081389434425,18.204001341991635
0.892,7.920410906601413,5.635974653411659,13.942305395055174,13.777106573288918,24.9627412000371,12.024405798641848,29.108855316585906,18.64684923479729
0.896,6.052619543114549,4.335218077676037,11.936809777715453,12.885709157175906,23.318173387159753,11.515395770040996,29.122337612636414,18.48923513149807
0.9,4.169793073516155,4.159485691289428,9.804241502569397,11.208921464752045,20.440878175154786,10.250754176395247,27.62576630959376,17.575505310385463
0.904,2.3576379746909364,4.596905955098251,7.829628020779064,8.826534971051204,16.71899141987271,8.486655915842702,25.180403515527967,15.712075043578286
0.908,0.9540220290613677,5.0659989072254845,6.214801263684892,6.295009031078045,12.819008179719305,6.748589059363743,22.555941008026362,13.06016142972322
0.912,0.4889631327876476,5.235756652894578,5.190623467361688,4.477002175646765,9.537699914297923,5.637716951048252,20.597747234108535,10.236060887707822
0.916,1.3791048159962644,5.069309154548874,4.95610763608619,4.059152026832049,7.495004013075083,5.517724260866908,19.898223609336355,8.044829646028038
0.92,3.560943091785607,4.653250192207279,5.509540922667044,5.073433801991184,6.853663326374637,6.273923192372304,20.46876550322397,7.0297991503223365
0.924,6.346248185755705,3.998232456094808,6.524462806220622,6.767014596128045,7.232887160813472,7.321042392708522,21.63626985219166,7.143681198911288
0.928,8.67867889860831,3.006885739622694,7.435159132962326,7.983279806061823,7.924422203945924,7.898681677831246,22.298106986272018,7.77945463046558
0.932,9.658225173417625,1.6277509365421117,7.72180252878123,7.842145105210063,8.296800292648298,7.503664211004592,21.447864300138292,8.14450125003713
0.936,9.014793343779626,0.04850386652723415,7.232057985588257,6.291043435648477,8.14112485783916,6.194953706582266,18.69229740483475,7.72707151768873
0.9400000000000001,7.231343823922314,-1.2630530409557057,6.320664939940649,4.168281433816038,7.759030686650646,4.575512198259355,14.466322663359,6.552383368037649
0.9440000000000001,5.214965956642908,-1.7642822658427249,5.666841723872782,2.697885361547217,7.720363648268764,3.437432169745836,9.823483378134265,5.074414801619438
0.9480000000000001,3.7292331358743427,-1.1584070197877119,5.863828773861646,2.7152930613615007,8.447686537827597,3.2687945660493933,5.930521218641916,3.794106705431993
0.9520000000000001,2.960325640644813,0.37251764416686095,7.010815911283584,4.10275142003985,9.87619462071908,3.9192738460429464,3.536604344097869,2.8768620491839956
0.9560000000000001,2.4718947266302225,2.1974891785005095,8.574552809042673,5.784880161490465,11.401670513328005,4.638772267017454,2.7140622025301697,2.036669022635678
0.96,1.5903437875682354,3.5642874519137875,9.652981894841567,6.326756594148533,12.180018210446244,4.495658589061876,2.985593275001555,0.7782136846821954
0.964,-0.031364525066892135,4.031724974517629,9.494795651779835,4.798068589746602,11.604290836682512,2.9479121193179747,3.6940044825678684,-1.1713935476451076
0.968,-2.0690012672767146,3.744172715628726,7.9811999314662705,1.3858074141568322,9.684067633148402,0.22252679146345855,4.360905238603453,-3.5574627993836483
0.972,-3.655895246920564,3.3538428045860904,5.7691379063645165,-2.622097963786942,7.096644533764374,-2.733913017105957,4.834258929356339,-5.64304975982984
0.976,-3.9131115088764368,3.6130286881535216,3.9775588825952584,-5.481084231627144,4.86772834302359,-4.732414706573943,5.183437504078545,-6.601186145592058
0.98,-2.5464763403207167,4.884192935233266,3.5783342778891805,-5.906492239203094,3.856823570122277,-4.9952100933250225,5.474742954614479,-6.025847385145051
0.984,-0.12585605989130055,6.842734925108553,4.824692755344431,-3.765025288453664,4.314928314389203,-3.614980386634975,5.627453967730694,-4.233896617648539
0.988,2.1643571258746785,8.565803393405474,7.053607645076811,-0.1549288195305243,5.762265850804021,-1.5551763070528892,5.461060353837551,-2.154293148919588
0.992,3.1725590123362153,8.977485618235676,8.989814853996034,3.154431723715269,7.2508064726173025,-0.1679207291673892,4.8888009431788735,-0.840370932830885
0.996,2.4386526237142796,7.408097945890899,9.402229010834217,4.598465490681938,7.860353859826027,-0.48037759789938095,4.082270599374865,-0.8877916051690744
1.0,0.4370440877485098,3.9486740732258863,7.759668428626644,3.5233876577493626,7.157249034902001,-2.646990441512219,3.4462783162086614,-2.1162211101406676
1.004,-1.753380050188107,-0.5895675429205269,4.52128921103998,0.3775237226926044,5.377855894755261,-5.865365635602439,3.382888919268409,-3.6974490154866517
1.008,-3.1348732543132782,-5.054512295306337,0.9116270534644899,-3.6496912767580416,3.270469001390662,-8.804031551780303,3.985611318782212,-4.658960122126005
1.012,-3.421498902111524,-8.473635310138093,-1.7060095130466308,-7.289135741852798,1.6933059358735627,-10.3053429240038,4.880766649538312,-4.455277098123212
1.016,-3.2029698617697497,-10.427807254169352,-2.512857467952289,-9.755090496698363,1.2025527377114682,-9.963146307121832,5.354654267626118,-3.2610106799084386
1.02,-3.5253136875875435,-11.096298328228835,-1.6118186611377694,-10.9215717860641,1.8424457594583006,-8.26657672813129,4.720171239561237,-1.823304326644625
1.024,-5.164700071338224,-11.011192425052931,0.07358363174227134,-11.091992451583403,3.201385252913241,-6.256087889514991,2.7132489244209204,-0.9769552086143958
1.028,-8.037105886002642,-10.688205801049504,1.3208001763534347,-10.576315726981257,4.682032570964713,-4.908295823207993,-0.3140345387095096,-1.1301450257617036
1.032,-11.115749026586503,-10.361679936664657,1.2550385325107887,-9.388142047997356,5.808020111281309,-4.607201860434401,-3.530827638010722,-2.032893043616837
1.036,-12.945147005771952,-9.961791078889455,-0.21893740141767015,-7.266518194629981,6.400936062938358,-4.997711780181412,-6.011861701049725,-2.955044326588974
1.04,-12.452406505387545,-9.296812552696387,-2.3986716749986554,-3.9845912982800846,6.57112033913663,-5.2863605242110285,-7.156593309187791,-3.158180919230106
1.044,-9.57622900916358,-8.306006872135075,-4.182089044199131,0.2777106977697764,6.556729333477625,-4.775655345222903,-6.924688069226958,-2.359661927571324
1.048,-5.347918099231338,-7.187597388336476,-4.641039574501312,4.774137191583607,6.54223050919388,-3.317227943407734,-5.771365732984346,-0.9147988794582016
1.052,-1.3854576397603158,-6.3247255709925,-3.4838086277514466,8.389742989128072,6.5572355399034485,-1.4145394541590646,-4.355892121934832,0.3841634948694077
1.056,0.9042286881908654,-6.063178495871517,-1.187538533745648,10.114836766340154,6.49994974823683,0.07427686161627012,-3.218135675751787,0.7655399519526811
1.06,0.9700607740892715,-6.478629396507966,1.248210737065122,9.535778598045189,6.2507461753480555,0.434376012719329,-2.5917558533178053,-0.0915170466395433
1.064,-0.7245829154448464,-7.287653882056416,2.7734777973025264,7.062567855975338,5.780163197890831,-0.5058314016289365,-2.413504254422309,-1.8939834839585825
1.068,-3.078120239741912,-7.9749585604486475,2.7519293692449827,3.7530740258951747,5.17363509160478,-2.3017347717435492,-2.4831848325968995,-3.930103449870988
1.072,-5.018263713659808,-8.0843177612619,1.196682225832695,0.8126272239221577,4.55522508463214,-4.165574362306833,-2.6358587456681626,-5.4782095899904375
1.076,-6.056037992739643,-7.503290117732906,-1.3009274541674802,-0.955532803925959,3.970441314905635,-5.400915316899956,-2.815961927231262,-6.171768786338765
1.08,-6.418594688748744,-6.562377618663024,-3.868463905397518,-1.4555628963258078,3.326193807667606,-5.740377610124554,-3.036213267329176,-6.1130417877315715
1.084,-6.760667214247986,-5.8951930428995984,-5.728036674776719,-1.2226307126262812,2.4247474713877577,-5.407263465131222,-3.291234519378989,-5.696808221727809
1.088,-7.662015541052408,-6.106300726041284,-6.459904880991351,-1.0235325852998258,1.1013413629634803,-4.900829109261176,-3.5005362995900695,-5.283652696459896
1.092,-9.21410773102929,-7.421227111749584,-6.062152572195846,-1.3775016458785974,-0.6122548555172651,-4.667769089618718,-3.5292019341003575,-4.947062111219978
1.096,-10.93410156134416,-9.507822751230005,-4.826871086784815,-2.259329958462036,-2.396456204458935,-4.863081703438782,-3.2519459343400845,-4.439503802654486
1.1,-12.016815187937919,-11.568781636862138,-3.137137189880223,-3.1377318206501634,-3.691957319448724,-5.3264137818352975,-2.6070198770647286,-3.3879019482814225
1.104,-11.76473700531163,-12.683165564806206,-1.3077740469527446,-3.3072220214764414,-3.899950821138902,-5.748069858366149,-1.6026291615176413,-1.5761675996692037
1.108,-9.951752387131236,-12.221903503659004,0.4810155083557395,-2.30222603660022,-2.6356970142083807,-5.8937147439769815,-0.2804133220294329,0.8792326240660777
1.112,-6.9336511434082615,-10.141869932078682,2.142173990074581,-0.1618757130564017,0.07854387127160134,-5.733964355593703,1.3114192854566553,3.5677639083045998
1.116,-3.4886949420185527,-7.021614358756704,3.5955172887164033,2.5778073121985905,3.7719948186952568,-5.410878765713414,3.0982428735826044,5.9895405181206876
1.12,-0.48908801319321404,-3.808447378385994,4.728251931560104,5.147230547831132,7.679229890665386,-5.096773708818977,4.935387082776217,7.788493500158813
1.124,1.4364614577043353,-1.4194420291184011,5.41632786744046,6.897877538531541,11.008441104587654,-4.863551200202096,6.583499700907668,8.858788230080352
1.1280000000000001,2.1131973914753175,-0.3695109330171391,5.606968237810409,7.572381260125568,13.216218240633424,-4.655204493863292,7.766685359961674,9.279630398925416
1.1320000000000001,1.8254866727514028,-0.6187936970598145,5.3808679975417935,7.355556063134358,14.154527184131002,-4.368967773131091,8.298208986577514,9.151593342309432
1.1360000000000001,1.1501095967999966,-1.6849327574920991,4.9405999061124675,6.71485268855405,14.037693314272072,-3.96414875416204,8.21514195555963,8.483773721654924
1.1400000000000001,0.7090458673689106,-2.917933830376761,4.5287870488836575,6.14994087461684,13.271362211741831,-3.508937363769192,7.825783785416604,7.232495099812937
1.1440000000000001,0.9159800626280372,-3.805008056028516,4.299634469613885,5.975531309525785,12.230355279730922,-3.1269951106665737,7.608258557275214,5.471321401047575
1.1480000000000001,1.8020819271174844,-4.148457202151011,4.234046973757668,6.234384816416737,11.116718061444484,-2.8824419828799908,7.987179569349067,3.551694445529936
1.1520000000000001,2.9851890978175426,-4.052363954062493,4.156226442112986,6.748839109714652,9.955982935663169,-2.6959441090780984,9.098696060661077,2.0969550830113253
1.156,3.81343502584894,-3.7671533862584443,3.849407831863246,7.243264221884642,8.71003505487629,-2.3670174127967574,10.673185127883277,1.7771347467979326
1.16,3.6495978405000815,-3.4988872348570528,3.215981678666649,7.474351173229051,7.426011359082868,-1.69947145837623,12.126197784137675,2.9557444300514923
1.164,2.1677221317441218,-3.3141843385273813,2.3722584891383485,7.299371409659059,6.296717863705618,-0.6558772599997766,12.812194630895817,5.408727384100566
1.168,-0.4464410325950845,-3.1565890368512175,1.6306681616853211,6.693252522673293,5.599248893655629,0.5617173037177605,12.318597155576851,8.31652561698742
1.172,-3.5020654016429122,-2.9446547530147864,1.3585077395531675,5.734711639239909,5.533370735244455,1.578973220197291,10.651775768745633,10.576982754789038
1.176,-6.052825351608113,-2.6683438383387763,1.7776310516787017,4.570400442042472,6.050538569046162,2.036459043942096,8.220224264123283,11.300077593867325
1.18,-7.278407470329411,-2.410939533035143,2.8159033912256213,3.376029602984289,6.79558621412412,1.7845814360744758,5.632468624075104,10.223720535634074
1.184,-6.839105083546008,-2.303446753407705,4.08923694282541,2.300539069677077,7.206684473343145,0.9767206319739645,3.4327943073587974,7.824172966927366
1.188,-5.012035042621659,-2.436729949694631,5.044620180716143,1.4192630978072334,6.755205803291174,0.004635465584831522,1.9019036745587723,5.050887505644507
1.192,-2.5528049438404965,-2.816045178019058,5.190751137166573,0.7020531071674849,5.202095029909325,-0.7040475337095291,1.0008017284375121,2.8292140403724
1.196,-0.3635696179248229,-3.3894336710011688,4.301142488139568,0.018571878525812657,2.739197331021048,-0.9141707347825747,0.4622969685286451,1.610718488497949
1.2,0.8882084888547672,-4.106030863306334,2.5005228071391183,-0.7887351830502674,-0.050605711041856516,-0.7071142070164624,-0.04653167512037104,1.2135197747968096
1.204,1.004003885361981,-4.965445946139758,0.1928890066424609,-1.7959223029182416,-2.4180953717492595,-0.43183680310212536,-0.7752114437884021,1.0237326314875768
1.208,0.2508125346028578,-5.993491958382197,-2.1086258362726706,-2.89828721203654,-3.7388358311014738,-0.5121579824004585,-1.8049801123862412,0.42147590544062563
1.212,-0.845624994750481,-7.166018350094541,-3.9689713908028486,-3.7866407966815956,-3.7377557594649042,-1.2012533194445376,-3.035395345533332,-0.8245104824547216
1.216,-1.7809018945792694,-8.33810178319116,-5.153465585824948,-4.036168358428164,-2.551729106997972,-2.4048462271888242,-4.219588589575218,-2.4147228323635517
1.22,-2.2661195568050214,-9.23259031874934,-5.634230926117328,-3.2753623128546923,-0.6041481544073188,-3.6689716759601954,-5.025670429272705,-3.693213085642582
1.224,-2.283481551372277,-9.545657138793583,-5.5270330763928275,-1.3783489388131394,1.609780203571642,-4.355156317057076,-5.130607392647361,-4.020828294674463
1.228,-2.0133179142785607,-9.11383182667343,-5.002681634462258,1.4202786454141272,3.7239231495173897,-3.9355057837581215,-4.331063702747149,-3.123244460945945
1.232,-1.7082365926737708,-8.032429222895777,-4.227523110828356,4.5577611513260905,5.591915888381939,-2.277834634570218,-2.6468271720417436,-1.22408790777855
1.236,-1.5953844616166326,-6.6418740481193606,-3.3566943729849363,7.3209264797319555,7.242413032644742,0.22262276397134806,-0.36739848146368315,1.0897827929258912
1.24,-1.8332772060938,-5.3687258034474254,-2.556807512829954,9.098875134852031,8.753882769331067,2.7425722479513563,2.009411907813882,3.16596915546313
1.244,-2.504928118960624,-4.508045783442672,-2.0265976252344675,9.591051471109155,10.123475671539914,4.3462204673307445,3.941514378916507,4.562938015212584
1.248,-3.5906762481802224,-4.065995060501242,-1.9642663830960836,8.890224256400142,11.220395753159634,4.388389855496499,5.0583194222469565,5.157822140211821
1.252,-4.939852219011291,-3.7832737332870527,-2.4944780830216864,7.39171068540739,11.835168068226672,2.8245977524342436,5.320210890285132,5.064227083006399
1.256,-6.275758891600088,-3.3342472800418697,-3.594624962141563,5.5774287036762304,11.789096057553484,0.2779595441339089,5.027584413707815,4.46108094216773
1.26,-7.24857887649239,-2.570804002581747,-5.057957572339156,3.80284469414248,11.041035727561233,-2.192083925824409,4.659304010264741,3.474906571228526
1.264,-7.55869064643006,-1.664802886634725,-6.543014808940613,2.190235643759927,9.713965081808507,-3.525824270464563,4.615799529032188,2.19421775847492
1.268,-7.108243640219812,-1.0278916618979892,-7.683170159655515,0.6771459778407893,8.045299701624046,-3.1166751545571953,5.002478699369011,0.7760497914554638
1.272,-6.091892501848465,-1.0475134176798757,-8.226123286649672,-0.8278109854568807,6.28240605649443,-1.0730760484723876,5.583523089274831,-0.4700202908229505
1.276,-4.943372569711645,-1.789168613977036,-8.13923037413401,-2.2884252692929135,4.58706376851797,1.8444215845576737,5.944372958797313,-1.1180610008214438
1.28,-4.153672480165308,-2.8577919570032084,-7.615583378335628,-3.488138718911874,3.010814641667384,4.584103996357856,5.766945212372132,-0.8056053813184505
1.284,-4.04374263819548,-3.5348358556383315,-6.979992429487357,-4.130233820717527,1.5473516433327954,6.277885121327239,5.0575894542507225,0.5415063355317842
1.288,-4.619525464105395,-3.1402726655779087,-6.523323161202789,-4.039853554620524,0.23473943616167592,6.586121709420679,4.17246421326196,2.574288781168399
1.292,-5.584648543182422,-1.4256042954566923,-6.346646780298562,-3.337063211685483,-0.7698116812981652,5.758023612900258,3.607613206812617,4.584954504096356
1.296,-6.491745716855654,1.2417368392165296,-6.2916496760368705,-2.4482266052566657,-1.1963611047434268,4.413814562213873,3.680384171585506,5.785405827343366
1.3,-6.9568633819309245,4.030440423829529,-6.004708491962676,-1.9160292338479357,-0.7719832609527781,3.186888089752644,4.293625979623737,5.671432494350614
1.304,-6.824321168694624,6.052335534293081,-5.133058307909166,-2.1022229186131125,0.5915698500301776,2.4318238699613324,4.930503145436852,4.285090544691906
1.308,-6.20206924259972,6.824169126743803,-3.547255462685367,-2.9417081688009974,2.648918367830513,2.1433161896103416,4.916215418283251,2.225157249124041
1.312,-5.375748896477221,6.5141008869181425,-1.4730036227867016,-3.9147485896635033,4.798559436926807,2.093598478596961,3.8059099716646676,0.38698980443917086
1.316,-4.668532788651667,5.81964914318018,0.5464314664363181,-4.289394006879275,6.233233203809719,2.0597596672291774,1.6731560059817374,-0.4465309712835869
1.32,-4.302790294602801,5.56286183826981,1.8796508436862922,-3.5102808220227195,6.246192443553125,1.9863528974716007,-0.8612629347352352,0.04241275811298563
1.324,-4.31989058184219,6.209552839941262,2.1096631962371353,-1.5369332521157464,4.544718319343772,1.980397971571211,-2.917081397765344,1.566029635909429
1.328,-4.577595903122003,7.593788665604674,1.2571459694722646,1.077301983085361,1.425432849523958,2.156206561472371,-3.8196661863726344,3.3579595468383587
1.332,-4.8120578588033265,9.002680543866777,-0.2035297434314156,3.429827394461758,-2.300632191466401,2.467803785680195,-3.47541356743779,4.508719374113365
1.336,-4.733998366336069,9.567475949393973,-1.568577903193341,4.706000423839177,-5.632745882303261,2.664181555836879,-2.448460599376406,4.34613233384529
1.34,-4.126077675152075,8.744963538540135,-2.2573973749478844,4.581737246224018,-7.80122261762424,2.4172229761648936,-1.689860995464759,2.6963657271680006
1.344,-2.9447084917930813,6.608021574574638,-2.111536713221799,3.3597982212687736,-8.595742262540005,1.5515549883506212,-2.0472418820792164,-0.06498601497223044
1.348,-1.3949031584192424,3.8024940520212827,-1.4590934403701716,1.7701484155188911,-8.41033662326359,0.2099129155916204,-3.8142503365213845,-3.167558973973616
1.352,0.07871563425754946,1.2050180796171324,-0.9001137957006886,0.5570529572667846,-7.977292354789945,-1.1736543719105423,-6.559988490544871,-5.725357187568424
1.356,0.9202581470628171,-0.5211793577007287,-0.9381588941129255,0.0911205202778742,-7.934757285263897,-2.0958721981804667,-9.334189728410035,-7.0292692102113685
1.36,0.692328559505516,-1.2150946724684388,-1.6613427312884923,0.23710042891516014,-8.450779105913822,-2.2765657838954403,-11.132112782816003,-6.7523273801772685
1.364,-0.6825080092262432,-1.2072956977194576,-2.676796812728819,0.538532486311599,-9.125954589919157,-1.8322360864774838,-11.36862233592546,-5.010101813771051
1.368,-2.800376086988587,-1.0454659876917258,-3.338259066911818,0.5891797795950255,-9.234764388384813,-1.2234158733910965,-10.126419376152569,-2.286920077792156
1.372,-4.887550625808429,-1.146886148528981,-3.142720629170756,0.3379864203516867,-8.18068424744086,-0.9890629723966788,-8.058088607249513,0.7384791514072924
1.3760000000000001,-6.115101516616589,-1.5671205210243657,-2.0512442851988286,0.1436055156059286,-5.895832297111909,-1.4148659564757682,-6.002355826550627,3.421179300651695
1.3800000000000001,-5.988309874228386,-2.0080512750735022,-0.5338979501183099,0.5342818791531112,-2.946357137323454,-2.3484919293192585,-4.536433144417626,5.355942370987468
1.3840000000000001,-4.6165796597971775,-2.052325045228004,0.6925469447722667,1.8180921249954576,-0.27926246177561076,-3.279034777846351,-3.704453268872895,6.495077030295609
1.3880000000000001,-2.7099253943979287,-1.4607982957651555,1.0895939246238164,3.8032130292013786,1.2645698466684774,-3.648515374455241,-3.052066390309232,7.128580795722046
1.3920000000000001,-1.2693888803353865,-0.35326317444077837,0.6226786743984425,5.811796082559021,1.3892146594112598,-3.2042365855956305,-1.9354932621909304,7.717199152012368
1.3960000000000001,-1.0991829261552137,0.8381125316668352,-0.21013697412264776,7.006577454465641,0.4853772867637858,-2.1680107975469944,0.06397101544599071,8.638361544931932
1.4000000000000001,-2.399625497432508,1.603188212343601,-0.6626185892269341,6.8533093442171165,-0.5962866026365639,-1.1161377049492769,2.848632898668865,9.95602096566189
1.4040000000000001,-4.667246721424948,1.6232023435282645,-0.1759859191322648,5.444581200077944,-1.01733949755139,-0.6350265196252467,5.785302599713242,11.330494176257806
1.408,-6.927861961878204,0.9451562038401992,1.3074290703580413,3.5164406857228467,-0.3785480924265876,-0.9506824867513977,7.956182488599655,12.133349378776334
1.412,-8.20540135666636,-0.04278511676336394,3.3260988519919614,2.122363973536342,1.1247006203119936,-1.7724885019234269,8.543065035913827,11.731003275381793
1.416,-7.986864956232826,-0.8039812526529958,5.181798297879732,2.1369660162049096,2.880038960608935,-2.451963460947081,7.178248140210573,9.820879570034958
1.42,-6.437709404254265,-0.8947446728349338,6.343624645255879,3.8487035134472833,4.24029489523085,-2.3712869271176924,4.111274534189598,6.653752515273129
1.424,-4.281468521103849,-0.14503630718980842,6.712842082288493,6.83038439589074,4.861868926305506,-1.329593137507532,0.12713964793710053,3.012099065932054
1.428,-2.422587466247376,1.305219618632147,6.609930690948179,10.13648840228948,4.807660479232412,0.3007349220948137,-3.7311296163724013,-0.08037981835586677
1.432,-1.526296910062542,3.094703407811881,6.502015388669028,12.709238424121942,4.372162296124303,1.7478471316214597,-6.502791728421542,-1.7937171222712562
1.436,-1.7797504821523413,4.781208708428367,6.663109676988404,13.785825351534857,3.7863572956717326,2.245693528880287,-7.585299575034,-1.8597490778423524
1.44,-2.9083319201299878,5.987449880396682,7.006771619935558,13.149129916502604,3.0459889337198156,1.4423577218706514,-6.863523266273159,-0.6794331960289567
1.444,-4.4034970802488065,6.4815942986275825,7.178212068980943,11.135297266807695,1.9716525775497977,-0.4282788675377336,-4.686214606604807,0.8842430750276178
1.448,-5.802171987129649,6.212634714010694,6.85148488961575,8.448680514541618,0.4705586662582457,-2.697918449607596,-1.723139217076115,1.9351239245144582
1.452,-6.861371622961403,5.312773423768291,6.0129695259628635,5.8796879401639695,-1.2139675141373263,-4.63924785011523,1.244265054435166,1.9803504827934515
1.456,-7.538791375936357,4.073088033420182,5.0274251471298586,4.03502405663307,-2.4911409384446443,-5.832840455619623,3.5298747286012464,1.14443534965159
1.46,-7.857008426144704,2.8740654793913,4.429674599995204,3.1575054186890457,-2.719463679202846,-6.311660970590005,4.695262877495556,0.049873667130029276
1.464,-7.785975394737867,2.0497829019635025,4.562283313040078,3.0653418292968238,-1.6748436623596779,-6.41550890954889,4.622633726402072,-0.5670435382694596
1.468,-7.219270459569854,1.7449674273330888,5.314000568033232,3.2462369872319314,0.13845620993033858,-6.469453887788756,3.5162071498849077,-0.2881964922557787
1.472,-6.0766268540805655,1.8264497845388075,6.144146505285084,3.073929711531118,1.587726419942554,-6.506683586056402,1.8389892756680726,0.7504561103504048
1.476,-4.432912779390046,1.9219419227925343,6.3967674325862935,2.092281616519062,1.4484637718951126,-6.2123821866340885,0.19908270454572063,1.9450699245036613
1.48,-2.5616091215995285,1.6191610184229237,5.731674331757908,0.27293472771022653,-0.8623450304864293,-5.126804197816716,-0.7884399915261722,2.588142189193941
1.484,-0.8507954096704169,0.729264825445961,4.39583993143028,-1.8969349902073502,-4.792440326064268,-2.9746227286704525,-0.6333562083978361,2.2988315104180215
1.488,0.37098730318593964,-0.5281412372553511,3.142507636884279,-3.5826439969827164,-8.741568569006073,0.07834365060072712,0.8943471516982264,1.2495113454193796
1.492,0.9887216810527653,-1.5629936198664414,2.8041813606538373,-4.005437151489656,-10.78060335670087,3.394031624575831,3.6398989883167507,0.03699293947412108
1.496,1.1100465414370628,-1.7262082070244062,3.7309748703526737,-2.922668716865412,-9.696880685292275,6.075921094943558,6.989976427953724,-0.7528819740270778
1.5,0.9001171053359126,-0.7602713977658127,5.426598532666411,-0.9363428087618793,-5.809534085898738,7.308337948134325,9.894561869755467,-1.043396784553744
1.504,0.3610009441831139,0.8752594958164845,6.618314835644421,0.5863097308826564,-1.0699784211726229,6.62880978492789,11.043758338342728,-1.5161656208232248
1.508,-0.7745885821296011,2.050191278577309,5.7778930812647,0.030815698824564697,1.702416722812302,4.008803743647209,9.209918614885703,-3.424075870606794
1.512,-2.913853943525763,1.4508294212841575,1.8642847816180517,-3.6903804335442922,0.134809770919472,-0.23600606790879874,3.6965299545653645,-7.9923578853288095
1.516,-6.268915900855244,-1.6831181908211752,-5.071057678080988,-10.471067269825289,-6.465626745151081,-5.59313727862402,-5.248886983087367,-15.66431536264005
1.52,-10.49843718751147,-6.940389540336037,-13.721506106225599,-18.80885095449435,-16.58470795676738,-11.449028127898881,-16.243121716877273,-25.57923332343331
1.524,-14.576685740957291,-12.634908232628396,-21.91009554852888,-26.23156256813494,-26.9872211267677,-17.08261572834715,-26.94063277449026,-35.57313866390985
1.528,-17.03130640051628,-16.35432183173112,-27.34928073711624,-30.205286675221053,-34.01077888072172,-21.630193919764253,-34.60120732792378,-42.77647998914733
1.532,-16.50929835295193,-15.97838189971123,-28.456222083213877,-29.13834224989951,-35.0814934744936,-24.15198396037415,-36.918943066036434,-44.60288439617486
1.536,-12.43043222605251,-10.69786497938233,-24.88557758403644,-23.03510846430446,-29.754349059930497,-23.865308356520565,-32.81122343535438,-39.72265768197152
1.54,-5.3758113398495,-1.4942103581643273,-17.571394137796695,-13.485105977035401,-19.803161898800774,-20.48033781045116,-22.848239871467094,-28.597078784738834
1.544,3.006998586412779,9.172787722616356,-8.332868620165135,-3.025773954415884,-8.388485276030357,-14.46219517144295,-9.144875079985795,-13.364502769585137
1.548,10.572633546568127,18.360483357244462,0.7677552699736863,5.816933251373238,1.273534483158349,-7.038503955857315,5.272810114915506,2.85740048915593
1.552,15.491736484105092,23.859622830837214,8.050181965646384,11.385542049239527,7.114910029117324,0.13474723175300296,17.39917676585836,16.970413392726126
1.556,16.92496061338769,25.030736313320777,12.599757757948959,13.29165303170593,8.78178710195053,5.549580437506363,25.134686947587312,26.806659454422274
1.56,15.24251602115303,22.872232558889962,14.339878219958235,12.265476481028855,7.413487663674405,8.401191789809204,27.802312992736805,31.620865680267492
1.564,11.720552456043398,19.332465962754952,13.840408063114849,9.612913671157685,4.844715848440599,8.842917174341672,26.137082523422514,32.034701254825194
1.568,7.9218651791456995,16.285487029898597,11.999617555954643,6.619112209087203,2.695915063416224,7.805247177957183,21.809722274790232,29.538788657602097
1.572,5.058769206120703,14.70372749222393,9.723587682663954,4.148295074135843,1.7594831091224854,6.469278848050779,16.722376060858597,25.805393314092683
1.576,3.6311913047941466,14.426575873384184,7.696892420924351,2.550888759198593,1.8978477280760937,5.673194848854504,12.368476502863704,22.10632183979908
1.58,3.4430657694843942,14.556369630241988,6.271091771548823,1.7993453734856502,2.3807149123746623,5.562206785869762,9.468685605231254,19.027860718061255
1.584,3.891327395437305,14.161265051101605,5.461032915728888,1.6762176713214625,2.395438128651165,5.6504539980268635,7.958279302336543,16.524663450393547
1.588,4.339974678562147,12.851858421259934,5.042968184046484,1.90266854447286,1.4679284035534177,5.234246038712287,7.253609651839881,14.21432931175988
1.592,4.369639051357273,10.903421315715946,4.708351176919179,2.1749234905639137,-0.3778267203332215,3.9025354557223153,6.636981138204399,11.742751655825456
1.596,3.836814879535713,8.928850187120881,4.228245853412785,2.1771308138241725,-2.7266360577175615,1.8482525721817995,5.598559467986028,9.054237949419825
1.6,2.823875562843796,7.398551637376984,3.5797313309486887,1.6621550897248252,-5.012827839388352,-0.1917527654790776,4.0256340713908125,6.468090012455355
1.604,1.588130039492328,6.344682873340299,2.970732503334287,0.596893843315204,-6.756528715651896,-1.3214569319173552,2.2106415451593118,4.549779487436032
1.608,0.5256289343307032,5.431300806195874,2.7431766446895853,-0.7273451826640427,-7.70006492642008,-0.9812886560399883,0.7078489889078043,3.8384306607372882
1.612,0.1224649305525285,4.30114158156253,3.181012824424015,-1.7345616997128488,-7.835295790517663,0.7277800329538437,0.10033284790780916,4.560658651563516
1.616,0.8166661973547689,2.9060146295014495,4.304168155716861,-1.8076353103253195,-7.36287534251763,3.065353090805479,0.7590110437537758,6.448604184957469
1.62,2.7734254746157823,1.5716680397159049,5.769145924689388,-0.6361235954117275,-6.615959738448638,5.005842917113327,2.677276112840165,8.759065515844027
1.624,5.668758865713852,0.7298080716246298,6.931887607229175,1.5198432683511616,-5.988758629494626,5.721880251071228,5.427794628387339,10.50422499517883
1.6280000000000001,8.651853050636813,0.5339370982919129,7.092948883506059,3.842770907330389,-5.84817472911473,4.941444391422484,8.286024198431996,10.815809630813863
1.6320000000000001,10.600316287763253,0.6623107775876842,5.818610113432832,5.297861724304879,-6.437998814850486,3.0237705673884454,10.47792046329709,9.30283654716699
1.6360000000000001,10.607097807225333,0.4853502736045534,3.1754580993760966,5.144839906769475,-7.803409168830655,0.7352713388529617,11.447821642777047,6.247327425155801
1.6400000000000001,8.46256258916236,-0.47029432834832763,-0.23279072238422494,3.3510681742102464,-9.752100881482084,-1.1383195923340024,11.058211468558781,2.5401405596868325
1.6440000000000001,4.847923162568648,-2.0875298260343325,-3.4797149498665845,0.6533914303400228,-11.900743581841205,-2.133903885373808,9.624951562947322,-0.6432873481220129
1.6480000000000001,1.084081927912052,-3.5777849320740014,-5.689387430742807,-1.7849093098022442,-13.7906909394559,-2.261141988393507,7.758139002691736,-2.318655502741182
1.6520000000000001,-1.474948505171638,-3.877066340615597,-6.402302341989526,-2.9521812564357788,-15.039667734746008,-1.913365496660015,6.084295656611963,-2.117491895658393
1.6560000000000001,-2.1146617666919205,-2.329024330478181,-5.7688472986395425,-2.4933410729072794,-15.471469556082342,-1.616788004306946,4.978756336519426,-0.464054841681083
1.6600000000000001,-1.100040382939461,0.7851259631870232,-4.463386519711904,-0.8413125989029484,-15.155621584104873,-1.7624604141509437,4.438541597195373,1.5902853299566413
1.6640000000000001,0.5292360298947458,4.250585447736169,-3.3573938920055073,1.1053023360588465,-14.343921667725626,-2.439434020570095,4.164441418518174,2.8330524803325017
1.668,1.591676232141526,6.5126568870272985,-3.116754700322031,2.55468261958152,-13.340263117478937,-3.432099176962397,3.7928310663748452,2.4533895580152456
1.672,1.4599793934667478,6.542378967526078,-3.9161259423359205,3.2925930543307,-12.372818619713922,-4.362322853222245,3.1381992655081756,0.43860190505180974
1.676,0.41386735817290354,4.46435608610112,-5.402470042202391,3.773508537650152,-11.524124300112625,-4.891916972918416,2.308443031273426,-2.386604590596076
1.68,-0.565691144571405,1.5390682443437083,-6.918989458585004,4.766030099948636,-10.746952077613845,-4.875825056862835,1.6328074358207445,-4.7085639435423445
1.684,-0.4393316583388647,-0.5263713060092736,-7.862635145193312,6.768166665843664,-9.947396820043075,-4.398854557666401,1.4492715949101014,-5.307043541372131
1.688,1.2180222022859042,-0.5362671788504083,-7.983590919924484,9.57205511075433,-9.078367738422834,-3.6933752026132005,1.8877043887106928,-3.603383438282605
1.692,3.917581943929193,1.530860650226066,-7.47554411204095,12.263086809749392,-8.191016470251409,-2.9960766622322317,2.780667337392306,0.07260324195193246
1.696,6.512546188070103,4.547471149507765,-6.822011874104903,13.679290485684824,-7.413187807816602,-2.4202307298467547,3.7618517375652427,4.621301071193201
1.7,7.858805976329621,6.936097317182257,-6.496660660655359,13.060281116862,-6.866063443273209,-1.9153555671329028,4.4932285746493035,8.650412044307958
1.704,7.473364265328721,7.612383436422649,-6.703777899609014,10.495902421971717,-6.571324650745616,-1.3420153878097718,4.876594996656504,11.064514373633587
1.708,5.788707671131819,6.594832764950816,-7.304066472948948,6.896546339993279,-6.410875873571042,-0.6161159753596785,5.108524179166055,11.489833620990552
1.712,3.8670223012182747,4.918364739568677,-7.952771607708282,3.4923402816597937,-6.167632185004315,0.15984472704999408,5.530543068027596,10.343482456638545
1.716,2.7570586072978713,3.927003874664756,-8.358368791675883,1.15444956136249,-5.632232888046662,0.6604332458097553,6.365416301744791,8.538224177142457
1.72,2.906637854381482,4.403064973004717,-8.490984958946173,-0.042599272080879436,-4.723691245366469,0.45343309487531847,7.498575594595255,6.996371600916611
1.724,3.9805985239167323,6.0766732972324125,-8.606270427556499,-0.7557602488589481,-3.559091383139661,-0.7668089432108725,8.4575125388285,6.228375236851215
1.728,5.16538927699399,7.814301135652336,-9.071227861105406,-1.856531110536394,-2.4308209289330556,-2.950602804010349,8.622462203741392,6.166223002738179
1.732,5.725646774931432,8.34142444541302,-10.108533310105749,-3.794667856704985,-1.7031090296861353,-5.606917709347065,7.553189557866192,6.297794730189341
1.736,5.4378270083817775,7.034955617119498,-11.619012949870367,-6.251814624881808,-1.6734216587667328,-7.943132712101142,5.246904193146655,5.991616895597728
1.74,4.642844372764065,4.298760402079204,-13.201166347810922,-8.312036988898718,-2.462682628966877,-9.179018872277002,2.1816951660299257,4.825911172722285
1.744,3.9151904860375164,1.2966294040687503,-14.377356411520566,-9.044172446351562,-3.99295715270975,-8.89321220810129,-0.8968561843448855,2.7561796343575486
1.748,3.602470378819004,-0.7603779148174706,-14.877043212571754,-8.122299092094895,-6.041756075364821,-7.225980797388882,-3.329634756146473,0.07343844174260705
1.752,3.564351531148553,-1.3113739179252937,-14.794894313495226,-6.086154803999102,-8.328770765863913,-4.818158616661408,-4.844866808802901,-2.7767666667810125
1.756,3.304975403602999,-0.7014329213104009,-14.515105471171811,-4.052751383824765,-10.578706742711478,-2.5091883558487638,-5.642863049170243,-5.38843056858342
1.76,2.4002496784764036,0.1274137842044747,-14.440530045653546,-3.048969966275724,-12.543195320797823,-0.9433505280243296,-6.226203525728984,-7.498375626165048
1.764,0.9034300797115193,0.27429642442487223,-14.704898997406445,-3.3866207439463354,-14.004793988463678,-0.2960830715481386,-7.083624662589601,-8.973449866216
1.768,-0.5901000351561674,-0.5868794707804996,-15.05895588625821,-4.488590509320998,-14.79943126557654,-0.26589744151802286,-8.402389153432066,-9.743024344844851
1.772,-1.2932762560369415,-2.101188132934408,-15.018917012371034,-5.276441958736665,-14.871286757501283,-0.32992509981267126,-9.972925662396666,-9.758059080289739
1.776,-0.7863600325970546,-3.5745131783661357,-14.189980932821546,-4.886388715610458,-14.335263892702143,-0.10714542261190552,-11.312163826573002,-9.018940289664387
1.78,0.5918051426770408,-4.491280321053472,-12.56086534902077,-3.26002127665246,-13.488671392614497,0.39597296883785327,-11.917894360817366,-7.632621467926915
1.784,1.8344035695660104,-4.83267616154921,-10.573445202427973,-1.2175565657944922,-12.722077760220287,0.8039238010503045,-11.514262392385454,-5.8295460567580495
1.788,1.8303422200626924,-4.987268093473442,-8.904494244854014,0.0443270364939925,-12.343092486926512,0.6494011390631431,-10.158473471956166,-3.901431053539513
1.792,0.08655346687827237,-5.338625292891322,-8.083888979535493,-0.265728850294221,-12.393805545334397,-0.2774081702662803,-8.172389123153291,-2.080809344774994
1.796,-2.837759314386738,-5.843634627736335,-8.178820093280544,-1.9595247943017533,-12.571983452456045,-1.7409781941616254,-5.973350053886188,-0.4449451367606527
1.8,-5.512754497358903,-5.940746832722963,-8.754322686727754,-3.8974505525937517,-12.33866129067863,-3.1389130869189352,-3.9175589463459386,1.076695365694785
1.804,-6.399728309134531,-4.891591803255659,-9.141551229871673,-4.642734092703616,-11.188379569299494,-3.8148946260984804,-2.2264484744246666,2.584747944361606
1.808,-4.775683299202098,-2.3388739605223545,-8.849888622947088,-3.3591316219594978,-8.94444793002158,-3.42828625474476,-0.9974399637658085,4.060853814883101
1.812,-1.2657254845401313,1.2934274385494064,-7.866629046819513,-0.40113631090554325,-5.915868654842376,-2.154325502892589,-0.24798123572573338,5.297794578360182
1.816,2.357682057067432,4.85746607533812,-6.64732244055619,2.7804524085554285,-2.8033874013767344,-0.5977835794944237,0.06408508792321399,5.983384498667493
1.82,4.062276059778603,7.023095496411757,-5.800149504437911,4.40787207949908,-0.37845075914318027,0.5432345305555399,0.06723956619665628,5.918713193278763
1.824,2.6759811955980464,7.017355160204101,-5.657863555515861,3.395511237654301,0.9046071647162872,0.8688814368153297,0.0030136151183972615,5.236370865995148
1.828,-1.3946298951074976,5.116564658480547,-6.016809831387397,0.018606656346493944,1.1450260123557348,0.49015496745860565,0.19669242258697484,4.449779212802361
1.832,-6.270587158084381,2.574246754958806,-6.221035412904659,-4.169740721651694,0.9354367589768509,-0.058125155057090594,0.9445120578520294,4.261205243752196
1.836,-9.520482865890267,0.9920326054699533,-5.555742540526366,-7.154722193438042,1.0230118158980441,-0.15523938752376942,2.341150602845291,5.183805019717042
1.84,-9.401353970009161,1.4805099495681997,-3.718950129583254,-7.560310399339308,1.87513417472276,0.5214314767819497,4.151663455303838,7.1798609116151955
1.844,-5.7566000253689324,4.07983311725347,-1.081881782572255,-5.406103588267321,3.396632991635606,1.791636760720836,5.834896099725373,9.556289143087817
1.848,-0.09181062336941759,7.756260392386265,1.4279215982567095,-2.0940976650209526,4.955883637956319,3.0541375279576464,6.732067714917729,11.216174454582156
1.852,5.220355895805739,10.97848409051313,2.768425144518547,0.3705789094699927,5.713297843396345,3.61424047013264,6.363973980742852,11.178277696249607
1.856,8.167001633210987,12.540800151123364,2.305772055665581,0.47638385586387866,5.07887769673591,3.0775245440162737,4.694605997069928,9.111330268024437
1.86,8.075017020277791,12.166309599871944,0.12984115984424205,-1.999143114619853,3.0422515665487286,1.5861737684995552,2.214475622721797,5.588204774497192
1.864,5.848904478893144,10.573442568675556,-3.004621971399994,-5.920166610547703,0.2006150511325071,-0.2259064466500902,-0.21461834619366948,1.8987005451068866
1.868,3.3744512209627837,8.997188073207536,-6.056431820061324,-9.462087817708758,-2.520089286858404,-1.5317991430113507,-1.6905709508148705,-0.5170781428017488
1.872,2.4517610668111667,8.462111397282689,-8.177565260809907,-11.114815146796532,-4.304342209911471,-1.7131826110119746,-1.6378912955822624,-0.7479549945664261
1.8760000000000001,3.8715666756161067,9.249031041068253,-9.030128625895598,-10.43121558246783,-4.806697203120191,-0.6530516471054,-0.04366744151712432,1.1411603138517048
1.8800000000000001,7.092881237527771,10.829661279396237,-8.808134578322163,-8.134976330464713,-4.264050748148383,1.2224751466975716,2.542821181355823,4.122444467217092
1.8840000000000001,10.647822247457006,12.272964414464342,-7.995136559550962,-5.578021942741329,-3.324751623133113,3.1673556455991676,5.239141153380649,6.680113850487768
1.8880000000000001,12.98993682636529,12.849058844400655,-7.042262944266581,-3.907739056715341,-2.7103027792182663,4.484054682582313,7.173803358815846,7.508514459139418
1.8920000000000001,13.27691045272026,12.453587613040526,-6.155468445196476,-3.4541122155439052,-2.888797696757652,4.849669314713569,7.7889547282255815,6.096841113838239
1.8960000000000001,11.680837452478226,11.611354342959949,-5.27638505061137,-3.670292727740365,-3.90122990579344,4.434267900664954,6.995112273115859,2.921793700045794
1.9000000000000001,9.146137123152375,11.083771177433654,-4.224108099428804,-3.607553601990316,-5.397550374960836,3.756897730479586,5.137046734295457,-0.8268904507683414
1.9040000000000001,6.806088353845163,11.344589024967508,-2.875749246741306,-2.5927007934154065,-6.8311337215866725,3.3694523615777174,2.8031956973839423,-3.830423421191578
1.9080000000000001,5.416746088785124,12.258518406133033,-1.262736001904853,-0.6738324198169074,-7.69600049274477,3.5393783643346763,0.5894221487525018,-5.232375287279999
1.9120000000000001,5.110064698153471,13.159258923717083,0.4555662786150192,1.427253351181614,-7.6973103860874,4.10423734264964,-1.0826207968938513,-4.953195932235061
1.9160000000000001,5.521862543409126,13.277150471271113,2.095635133005417,2.787369864313252,-6.800983130306347,4.584678165751764,-2.0447846556461817,-3.607809309136801
1.92,6.1262215939899525,12.240636540827138,3.5318088105670653,2.8506647697838083,-5.18800571900513,4.497339819312481,-2.362182260806965,-2.1177028417455706
1.924,6.528728084699211,10.340893059826854,4.706590655009959,1.7378611709497735,-3.1516775013174296,3.6948256794029612,-2.2456168703605286,-1.2320059585383074
1.928,6.572849612563186,8.392102114365173,5.586047540073048,0.12113475813525731,-0.9868743329787453,2.5303570847667514,-1.9384509026878254,-1.1915394546673252
1.932,6.277318575904188,7.264657692861496,6.116533173733681,-1.223639999228158,1.0818386783144174,1.7318742572125103,-1.626478055861686,-1.6839994468224915
1.936,5.732011837877266,7.378939119686512,6.234368820583407,-1.878364929223416,2.92276923194863,2.0133238998496257,-1.3960310371628644,-2.0773997245755447
1.94,5.053500981621515,8.453034128474354,5.923660069684452,-1.968011740042388,4.469093475799431,3.6367085958063017,-1.2272650749568141,-1.7731589064977995
1.944,4.392646764047983,9.634853616297917,5.268845171346766,-1.992389175695375,5.648077588540856,6.175941354584293,-1.0226211671298513,-0.4999149979823869
1.948,3.948735017767742,9.960071492537665,4.463428160192578,-2.4318215998293677,6.327702623880737,8.647636072200404,-0.6481339921614024,1.5930489820949951
1.952,3.876338016055427,8.84219398878072,3.735264367472543,-3.421747628713203,6.303456661053368,9.966569506533624,0.004892851676611798,4.035044570255874
1.956,4.11410407438505,6.328108807072485,3.240446849634483,-4.700118318677079,5.3659531699152225,9.498470490783625,0.9539583238783509,6.242882476188618
1.96,4.29258066806182,3.0148573001797865,3.0032680430767007,-5.822005402152918,3.4388296210465965,7.4148337709685475,2.0994870811985282,7.738228337917709
1.964,3.834602356169353,-0.30832831864519195,2.9366424761727155,-6.473576351519159,0.7143017402406757,4.630832917849087,3.2450582131880017,8.282159704018211
1.968,2.2589400123933263,-3.069257500302148,2.927621444828139,-6.657319002077227,-2.30546075555288,2.3333144070567133,4.160809634280643,7.8986955663852845
1.972,-0.43712956441988604,-5.127349455835854,2.938969881506154,-6.609065551269156,-4.9111831555373735,1.3444006150961252,4.679039139495088,6.825972317620348
1.976,-3.574801427574466,-6.704522510828165,3.0444382761737203,-6.526271196787697,-6.41933836687483,1.6658762324943828,4.769369854917029,5.434890824776251
1.98,-5.9736169879891285,-8.121963594472714,3.364692348355593,-6.322821921347239,-6.443571236470127,2.473352806502686,4.546853223509193,4.135800763830612
1.984,-6.484299776664176,-9.521673394272272,3.956350185307137,-5.6054476723495785,-5.061085837926174,2.5859770448179087,4.220235616803265,3.2921306358480007
1.988,-4.605540153321267,-10.74450621623178,4.7314730547852815,-3.9150923250384313,-2.7719489478597654,1.1611269348887128,3.9911809794585977,3.1276978548444436
1.992,-0.8481378567948932,-11.438170292827078,5.468782378617232,-1.0893848419464391,-0.26615364749593473,-1.7742641570792532,3.950621170596591,3.6361410189727503
1.996,3.4239069260057193,-11.272327381305395,5.938313623402138,2.518450638758696,1.9005185529904827,-5.253316736798002,4.029281451539054,4.54832621870915
2.0,6.620404385615527,-10.118674062881048,6.055335301894166,6.1217015805201305,3.541284672353787,-7.811925516020296,4.034457247159443,5.405013381048137
2.004,7.691315193706456,-8.100310611159264,5.967429148447266,8.859268074085879,4.856007292542257,-8.216248148959593,3.7554328509091466,5.740860242702348
2.008,6.6187271096001155,-5.499604845517029,6.010580653723746,10.217366166309237,6.2249516841312165,-6.087820831372397,3.071199283251309,5.30219439148614
2.012,4.369504776221156,-2.6146087121303925,6.546996905253173,10.261529614935743,7.90754604347884,-2.0932514752559226,2.014129672837207,4.200917411018892
2.016,2.3505136553098365,0.32588728816389256,7.767330548899642,9.53897708936829,9.829477906066423,2.38262033103688,0.755181306480345,2.9043380993618033
2.02,1.6845911989991262,3.139264021923825,9.566762193031648,8.70364463614195,11.58800592649886,5.88855803602194,-0.4716783158080351,2.0367563596525042
2.024,2.700668215107,5.598925111569891,11.550495449759486,8.102947005030156,12.663531672156129,7.535834185566875,-1.4603089464345995,2.0755496463636036
2.028,4.891967380959773,7.380627697293749,13.167512187929473,7.5859496307011955,12.703759593787051,7.29178743772038,-2.091956496053314,3.092651817350441
2.032,7.2981821733673,8.10930382654806,13.904472549603069,6.642661017609307,11.701510599575759,5.827512816194621,-2.340313541091256,4.686550792251111
2.036,9.038546570742477,7.50867430293847,13.455031085855993,4.785554567178153,9.967173137748595,4.0658008683160105,-2.239506606840539,6.158573614106212
2.04,9.688134029373328,5.572679770241242,11.806924528054333,1.9286696304644861,7.921947477501822,2.7044076586586527,-1.862255440928788,6.850562956581873
2.044,9.33178969396208,2.6323697569186124,9.23349060043438,-1.4683795360284235,5.853169273281409,1.9710376138658063,-1.3227888479380985,6.472761625683127
2.048,8.364499863228556,-0.727478100029896,6.221967402808351,-4.574731564746508,3.8198142720143595,1.7029824257198003,-0.7762991668895793,5.259195884105834
2.052,7.205038615533237,-3.8782767378517287,3.3601393861510935,-6.589787810121032,1.760586988621744,1.6272693373098552,-0.3997588833662258,3.863716761159677
2.056,6.124891556384043,-6.364261365217142,1.2026736275487426,-7.134118327999927,-0.27765721870325843,1.6293591679869577,-0.3331511759195376,3.0488062951995794
2.06,5.237771388459263,-8.023058332283576,0.13256268593435094,-6.421426723298221,-1.970995866164858,1.8285745859728992,-0.5975799940431932,3.323909119609986
2.064,4.576285343786464,-8.947375149615874,0.25006640662836177,-5.119270795291654,-2.7565801057961146,2.436001421204409,-1.0367987096377345,4.723773547826559
2.068,4.148591885612262,-9.322320976664432,1.330218031104101,-3.9853746658041946,-2.098125867360433,3.5186805818617675,-1.343454510993439,6.817248670749201
2.072,3.918140194678931,-9.252741198631785,2.893619415806658,-3.4886039771136663,0.16499751569111787,4.84883510916349,-1.1842418642768697,8.923169797483583
2.076,3.7529976162665806,-8.68787744640122,4.3860320914971584,-3.6092603522988793,3.606508491380117,5.955804717953567,-0.3734237116770758,10.407020366810185
2.08,3.4368924346112824,-7.494631049882587,5.397416798343754,-3.911465838076354,7.294663127935031,6.361916761129571,0.9833936020478502,10.915320344311924
2.084,2.783052488103772,-5.632483277220754,5.823455120613013,-3.832175124443786,10.159182262416776,5.86270119947978,2.477705945448139,10.46034707343532
2.088,1.7837657239012978,-3.308150280359099,5.882768932402227,-3.0207643161656583,11.455689010404843,4.672961528970869,3.546652670882705,9.350470833240651
2.092,0.6697895724596195,-1.0047898785791594,5.965705515295923,-1.558743191354846,11.06663959141991,3.336477812767007,3.7034730108256886,8.024945442819703
2.096,-0.2054581631615009,0.6588303651179825,6.395549091663098,0.04743562275784585,9.477908659782038,2.4493759377546107,2.750805793773028,6.879961136553408
2.1,-0.624633283048805,1.1803491603816259,7.231623181172731,1.0876431915324578,7.4463535253210535,2.3541073150826834,0.8725325927501224,6.154693192225567
2.104,-0.7439741149524837,0.3960915105048963,8.223210238712308,0.9731904793107318,5.554043006473199,2.9694596167491927,-1.450071130645552,5.888161755069998
2.108,-1.1104546334849,-1.4306906086511908,8.952465437994165,-0.4760523978790383,3.9267268483037654,3.8631493489239266,-3.630407895148609,5.9438667560256455
2.112,-2.3908194934757265,-3.713243882239267,9.083023634720524,-2.9084185295663856,2.2747224084169773,4.517906297074501,-5.176591825408537,6.0826804531952465
2.116,-4.9508965423705735,-5.807888735936022,8.560736828295354,-5.5395476724905075,0.20877933117747638,4.627077123044231,-5.831652054377385,6.048253115207649
2.12,-8.547917675002115,-7.316845377853124,7.640468688982457,-7.447377512506271,-2.3897488429997793,4.256884860623322,-5.615579477668969,5.64182277854458
2.124,-12.347762150905758,-8.276713643182392,6.713338716941669,-7.943438560949066,-5.190418658187038,3.789099664690483,-4.784705491584246,4.7734911295605365
2.128,-15.285764654208924,-9.1240542909396,6.045487664624072,-6.858701867738988,-7.537019705130421,3.6921261264238976,-3.7550313610876334,3.4804887564907894
2.132,-16.580962631483978,-10.437674420299857,5.608150419578544,-4.6146249884800765,-8.7926496315939,4.252802906283206,-3.0035251238859093,1.9104556137043502
2.136,-16.09479477734339,-12.57404285916628,5.120719242077795,-2.028465847005571,-8.677188539307739,5.424304506847977,-2.9384998053424205,0.2779047296733861
2.14,-14.319318819445702,-15.379891089691977,4.297570898274771,0.06487512989350463,-7.3761303289796905,6.8777611628227975,-3.7300993469256003,-1.1760236835017173
2.144,-12.001624038609528,-18.13637441063349,3.1520649246394763,1.1994574051079514,-5.3533448413997,8.209000151829862,-5.1550671969323565,-2.2031943330906776
2.148,-9.664545102765487,-19.796702752969683,2.147305103835131,1.4792119716331447,-3.0080598312869524,9.154763859654064,-6.559312487957296,-2.569433369295787
2.152,-7.35937752024988,-19.447864967466323,2.0438276551731502,1.4687962467104396,-0.43429907451625027,9.67874665106045,-7.0466633266561995,-2.1141967247877695
2.156,-4.8151626566918955,-16.79771914960661,3.478126749027467,1.8118853465915312,2.52788734725094,9.873771899758909,-5.895280254990741,-0.8712782101556646
2.16,-1.888069149504327,-12.45624348181243,6.477345166751222,2.770414812600145,5.960212623147992,9.752023599537397,-3.0515760949365127,0.7911214123216812
2.164,1.0071176933209838,-7.852583042343504,10.193372356694068,3.944538648302653,9.470580860337027,9.079799884916174,0.55609088482678,2.1000586695226913
2.168,2.840224078362189,-4.770863258432323,13.067325603893707,4.36101338216832,12.04658554174395,7.3981949255032395,3.1499571679788847,1.9947265818317286
2.172,2.3904586337885387,-4.684886231062989,13.40844989260334,2.9182660016846165,12.328670312688185,4.25181805785639,2.7346889033948534,-0.5385664906268177
2.176,-1.0435051848789811,-8.155485862009613,10.161169683595396,-1.0107014461711423,9.237729678831816,-0.47707030760293545,-1.9785761210845516,-5.991340014412142
2.18,-7.051463424030897,-14.546167829804382,3.5001407964411557,-7.125267879852219,2.642786552877384,-6.320481992375908,-10.773727024833235,-13.922398996487615
2.184,-14.032399808838809,-22.19306928493556,-5.063335754892557,-14.156572234774913,-6.322890296225595,-12.233734597020817,-21.712499375517346,-22.86209175927125
2.188,-19.742385415016948,-28.961518313034368,-13.161747456840171,-20.281273064135142,-15.523108340391694,-16.895044314106876,-31.687867240965787,-30.657971160388684
2.192,-22.236087237490157,-32.972061630435675,-18.449813348100303,-23.802351503791904,-22.579085702757972,-19.179353576997965,-37.571258492806024,-35.1883364820565
2.196,-20.725068389738787,-33.20139779901515,-19.497084999303397,-23.77505771492192,-25.7785155497906,-18.581135908030205,-37.451548382635636,-35.15783323955512
2.2,-15.904701779677229,-29.747828484553107,-16.306115595055918,-20.28358753030278,-24.69034156728491,-15.382224581039317,-31.37519109455078,-30.596916330258985
2.204,-9.586086237120513,-23.68993690937146,-10.232268637646438,-14.266636323430571,-20.199688293010322,-10.492743515390316,-21.23608061016933,-22.81891193592279
2.208,-3.8537189978278263,-16.646294254179296,-3.3664154120594687,-7.045461430735452,-13.998984151123766,-5.065658926747611,-9.903515618678924,-13.853271694938005
2.212,-0.19229588660727748,-10.244927503767107,2.314591789673321,0.16647352092545376,-7.83587889110111,-0.08605848682202755,-0.03406788787492632,-5.626948429848949
2.216,1.0096880786749383,-5.683220046647476,5.653135298497411,6.548343041390419,-2.8956001231557584,3.8745643771750884,6.859961099774097,0.7079857189886265
2.22,0.39161780623442866,-3.5029464329148015,6.582256587942517,11.66446967573825,0.4108380779792268,6.658254422961637,10.671460715258458,4.985298093238571
2.224,-0.892535745364073,-3.5980263053055968,5.897562124960277,15.27676808711228,2.2412671070732046,8.345675238629198,12.264414602548754,7.728484129089695
2.228,-1.7917786220169378,-5.372412993656914,4.720713115965048,17.194797721920477,2.941700920578466,9.058554301713842,12.696507580083475,9.584941720991589
2.232,-1.7805310560987002,-7.972778597146526,3.9372791722487994,17.289284604151803,2.765455143176018,8.87873758340523,12.571591406013546,10.849867324535065
2.236,-0.9172393648266017,-10.514232871883479,3.8751315771709653,15.664123482704559,1.8483752238342213,7.907728718068684,11.859668815624044,11.356802540311309
2.24,0.3788076190840921,-12.268603837097348,4.327274214298628,12.823432204666863,0.38709471737830814,6.365965379668269,10.203523047650382,10.763289896106569
2.244,1.6279423051794963,-12.792844416629888,4.840032272655893,9.640717693251984,-1.1828755708849563,4.63868772145104,7.429971354416573,9.011700738670399
2.248,2.485522939187602,-11.988887616141056,5.06007237780314,7.069459626168047,-2.213259278235797,3.197075688862574,3.8971399590918425,6.630181963756099
2.2520000000000002,2.7652311704164543,-10.09499266019781,4.935209697982428,5.716204936078723,-2.116419829160976,2.4047042068415383,0.44924926275830446,4.639906723762777
2.2560000000000002,2.3697545872089574,-7.596937091055647,4.685310481448535,5.527543130772235,-0.7296137671425358,2.334862620956986,-1.9814403770943114,4.0912293112171385
2.2600000000000002,1.2512588692954694,-5.073288832112057,4.597115170250589,5.807857605141784,1.47783738998444,2.7280333436662354,-2.858464266934035,5.489063622859931
2.2640000000000002,-0.5522914103904206,-3.038277994631515,4.784101389173553,5.595180566512438,3.529200065268519,3.132457928217568,-2.3085240281565946,8.450618197075183
2.2680000000000002,-2.83589297340533,-1.8283196535082284,5.0698187259318175,4.20341900399564,4.382251739149731,3.154297605234246,-1.0223364299371744,11.811108560238436
2.2720000000000002,-5.1987137803379255,-1.5652996154166678,5.0670504946529595,1.6262847562531109,3.464242363506622,2.6737856297283202,0.13781139589267344,14.143371700338704
2.2760000000000002,-7.133379390181111,-2.1866545147858947,4.404285548358809,-1.4328025596381506,1.004919543272524,1.897557373382928,0.5835605103765831,14.432204359188843
2.2800000000000002,-8.202296730050199,-3.4934041687793385,2.974677908616684,-3.923000507910489,-2.0190946109540233,1.221650326255897,0.2483186962455859,12.55219399341349
2.2840000000000003,-8.214430696009229,-5.18547566221962,1.0613791436163185,-5.011246904220373,-4.318910198279238,0.9916759094684229,-0.47322594794970074,9.3028337857445
2.2880000000000003,-7.284032155139085,-6.874092693828521,-0.7345532158380266,-4.518668217659238,-4.8760039968985165,1.3048690921224977,-1.009811994186124,6.004464427211866
2.2920000000000003,-5.7370281620994215,-8.109026973170549,-1.7427056058709827,-2.981942590090579,-3.3854533577637014,1.967364388259706,-0.937950091491274,3.877129175617783
2.2960000000000003,-3.923873884409611,-8.458578837391613,-1.5287243010762683,-1.3315075513268617,-0.34864880348607663,2.6151036884151013,-0.17071707354251098,3.510018101576456
2.3000000000000003,-2.067697453884577,-7.653411011936155,-0.1088152676177403,-0.3936395087150455,3.2022972713383044,2.913969914385121,1.0659866290278663,4.673456104699192
2.3040000000000003,-0.24542410186476493,-5.74987805282902,2.032662113239597,-0.5048188227761283,6.177706846351839,2.7201614418608493,2.403251703852985,6.528239885023822
2.308,1.5091829846957812,-3.200923772724536,4.140767639395228,-1.4380813224977977,7.868486482280483,2.107206702520293,3.515329948972879,8.07843574410625
2.312,3.0608789403391667,-0.7753337588771583,5.492408085859674,-2.6556724229933426,8.140752169287126,1.2604838539489582,4.215094695224509,8.61716964868088
2.316,4.123939202739169,0.6969684572795001,5.666326583099499,-3.688662867726774,7.347712660963593,0.33070183650192453,4.450515256061275,7.956481143307642
2.32,4.3590975443998,0.6640682088885894,4.655550671678394,-4.400689730978995,6.063865192757227,-0.6554490508188779,4.241708004666481,6.371615262762017
2.324,3.562287264071959,-0.8924653939584801,2.781783204597307,-4.990496380850402,4.796673985577478,-1.7717127446059466,3.626266978747596,4.340882100478907
2.328,1.832597307871048,-3.414800207790949,0.4812494916444303,-5.754897067157414,3.815315966090065,-3.0805116234655907,2.6533897585854893,2.2595331920887984
2.332,-0.394670167077249,-5.985367727056575,-1.9106088429369266,-6.799917961111703,3.1383995474996436,-4.518420990615624,1.4192480542382224,0.28842217194152275
2.336,-2.4944179387527003,-7.717701813340273,-4.253254970627362,-7.90790025876366,2.6424676796448487,-5.860362893333972,0.09245619884034917,-1.5990021135948413
2.34,-3.914405072417455,-8.136503198020666,-6.525410535381575,-8.645934382420142,2.2106152368435588,-6.792695453277094,-1.0966188206384841,-3.430868873886829
2.344,-4.38057749969682,-7.354697096517814,-8.644648359334926,-8.633649876550228,1.838782153043221,-7.059645657483893,-1.9115009171278978,-5.0632090799334915
2.348,-3.9347959943098982,-5.958458133607223,-10.321995253156295,-7.7808921795863135,1.6666147607260977,-6.6002116650378,-2.1852895914553043,-6.140420381898032
2.352,-2.8353825058230977,-4.676722899517422,-11.08338695418615,-6.358031416987735,1.918167100132992,-5.607156116556015,-1.8945052040626331,-6.243993913033661
2.356,-1.3891573550015526,-4.004759153713498,-10.474134812485813,-4.84372405816558,2.7876361970754697,-4.479217471374801,-1.194555792172971,-5.151606205520011
2.36,0.19041270557507128,-3.9704522388782557,-8.342291326581558,-3.643108779916379,4.327086668963711,-3.6824132150403646,-0.40246588766937874,-3.0506361105844433
2.364,1.8127290009442731,-4.156020664541305,-5.037117280498869,-2.861551234693709,6.375124612779363,-3.5889716074833333,0.07012543617487488,-0.5755533955912266
2.368,3.450106887349582,-3.935583222513162,-1.3676999533938625,-2.2536381871919535,8.577063594207367,-4.346777208452149,-0.1595302799571705,1.3900327350482256
2.372,5.063607744292243,-2.8106664972691178,1.6872759110791957,-1.377246613555144,10.49233274333021,-5.821141738387826,-1.3002946055835292,2.0691182568556323
2.376,6.5798568540267715,-0.6775232498029802,3.38275348833138,0.13708486570493794,11.74907626837256,-7.629720248205782,-3.279646078906725,1.1220081175849597
2.38,7.934403796339952,2.1001249986038646,3.5146237161127996,2.3605479342816604,12.190878086412011,-9.260421737140422,-5.728153253366284,-1.2100515527916427
2.384,9.117536940167557,4.821071062132052,2.4553417350981235,4.98724886425617,11.934105187216394,-10.239073889504946,-8.096098217084636,-4.2325400435347635
2.388,10.156776126426951,6.707169760874542,0.9046026202348694,7.428254557669572,11.299242275891402,-10.300588813399635,-9.866407523502023,-7.130331139604831
2.392,11.040884821861814,7.188067882775641,-0.4891342905208318,9.038065632810005,10.65553505047306,-9.491860021390707,-10.76873406562062,-9.317044064804282
2.396,11.639633058129945,6.098985970690366,-1.4205752941317606,9.365037617401992,10.253149378161813,-8.15860840836341,-10.892768289833057,-10.626395666817857
2.4,11.693244636594574,3.7218026031170686,-1.9771158240072189,8.319492190217748,10.12579215729614,-6.807631051649029,-10.623641457970303,-11.260615671068607
2.404,10.935081463781987,0.6813362982577539,-2.4343496068945036,6.215674467519623,10.1215099523742,-5.895105282561168,-10.418634862846115,-11.550509697872155
2.408,9.28669550653905,-2.271231618501777,-2.9710871070521483,3.6672992135019236,10.02581101091483,-5.6382614242082,-10.555600594238362,-11.701209638325686
2.412,6.999263379275719,-4.513337577005048,-3.5078644972674287,1.3648366753916754,9.694017261918482,-5.94388193921207,-11.001032776270435,-11.68739134483987
2.416,4.628245517502167,-5.7481915673374875,-3.7775139233540305,-0.18828881609441694,9.111320521102085,-6.498858589639539,-11.477571462804658,-11.363098609033223
2.42,2.822170830724075,-6.071027596529928,-3.5793770164803718,-0.8760880162768157,8.352757393733546,-6.9758687234029,-11.693893933948718,-10.693986106380489
2.424,2.020444897105345,-5.879241736141034,-3.0250869356880026,-1.0174976772317619,7.488392229960163,-7.231856873053936,-11.589899176388913,-9.933654299467072
2.428,2.2440803497360307,-5.64415523836324,-2.5669209773993606,-1.2071641695804205,6.530714290204559,-7.3705744124074455,-11.406296371141844,-9.585285304366232
2.432,3.0994029876347513,-5.664619387587518,-2.7527691873191498,-2.005860883141713,5.468192890071464,-7.622491064582761,-11.504376383696846,-10.137209935772134
2.436,4.007934943132082,-5.922456093175304,-3.8406485509255064,-3.609598513939008,4.361591863352546,-8.112297274985368,-12.045303878079853,-11.723828239679573
2.44,4.512293084593542,-6.125167922797276,-5.527532091801566,-5.677125561320247,3.4123589830046104,-8.667640753165431,-12.746831080202991,-13.933744600500452
2.444,4.4735223570141365,-5.918755242196765,-7.000800835424868,-7.435939598102603,2.916859038125216,-8.819382328519081,-12.917802471509189,-15.917798180157778
2.448,4.06755218827365,-5.142453159232266,-7.319617060770456,-8.036296830389823,3.10945248159228,-8.027310164408417,-11.803316875676678,-16.771286061176482
2.452,3.5893608395433048,-3.9789150273002836,-5.94189453712252,-6.9927055332548544,3.971587827110124,-6.020353399255738,-9.076178257924795,-15.996671736420467
2.456,3.2072862974774887,-2.8888011393862922,-3.0830850277706863,-4.47275026543711,5.144657480259852,-3.05032047578799,-5.171357230454871,-13.778591241634723
2.46,2.8617482686447575,-2.3396962956626695,0.32577887369908365,-1.2396956750464847,6.050658716753446,0.1256318558557581,-1.2177903929670775,-10.892359584836555
2.464,2.3627868451476077,-2.490018042347211,3.075751824929595,1.7330345029564826,6.179651800527296,2.5668399799516255,1.448432729078505,-8.291546390466637
2.468,1.6115606276618752,-3.0219843275518157,4.283554649507288,3.773525340284085,5.389554236094257,3.618595476934909,1.9686157211479294,-6.610256185631617
2.472,0.7653967419607333,-3.252608777205053,3.820569396025679,4.851908789309527,4.019913881932691,3.269810605599696,0.45125381189889335,-5.872227889143177
2.476,0.1892260584362675,-2.5031880851661215,2.3229187706781627,5.530503292065269,2.7203753037803207,2.1740117256070723,-2.039954758602524,-5.582630979641438
2.48,0.18792591177826967,-0.5225368584543486,0.7878410846763415,6.530344884333951,2.0688916002617908,1.2934012991477928,-4.017726748572901,-5.136118579387536
2.484,0.6960609252337708,2.2914342271852073,0.0030725792834778165,8.171896025251865,2.2082635323995223,1.3507829005502634,-4.352196340965336,-4.276668220822234
2.488,1.1521356713202926,5.011975203196803,0.1430316673441583,10.046474833411656,2.7342892881025715,2.3937435600361754,-2.884521477912781,-3.3192063252338855
2.492,0.684488867676667,6.593593541807083,0.7456094612961577,11.14797867849731,2.932725332026319,3.7367288460961214,-0.511810919681289,-2.9737976999505964
2.496,-1.447423077528665,6.370651406470223,1.0681275629910285,10.43026162976202,2.2493265574664156,4.331041873307047,1.3012857248961684,-3.8795908324875654
2.5,-5.375630409916556,4.379227446765216,0.5885445789635577,7.489899412441689,0.7070235440802805,3.374744618435846,1.326293345018441,-6.130199443742493
2.504,-10.408617409497982,1.322732084066472,-0.6603742251654445,2.954168620406368,-1.0130481440186463,0.8198651780847617,-0.7602102111878764,-9.09725987878279
2.508,-15.233278132337173,-1.7733746101349033,-2.105981040365541,-1.681504825212786,-1.8933129177282482,-2.514963260099791,-4.197945862893763,-11.674017274099569
2.512,-18.45703709795204,-4.018238686499156,-2.979949369020048,-4.725097258231957,-1.1468885559030269,-5.305843058864221,-7.533973756668359,-12.824771177247994
2.516,-19.244478848791168,-4.982285114728305,-2.770635917942622,-5.125514830983836,1.297669647169081,-6.3711693095142765,-9.346623272992423,-12.124762280552943
2.52,-17.693830524757107,-4.7322559798784205,-1.5111990209079416,-3.008749731530157,4.700468373077203,-5.256216226810089,-8.904750579167825,-9.974530120937887
2.524,-14.782150392108155,-3.6275670836335476,0.24562565744992693,0.38615862982714333,7.865272484786251,-2.4500080188686773,-6.4338072014266725,-7.37493446383524
2.528,-11.91469811013802,-2.0600632441638704,1.7236441872768735,3.3383785760715297,9.745477656456394,0.8768121260609596,-2.9021842263284174,-5.398955791723761
2.532,-10.299358336709611,-0.29955739678836935,2.30478436677074,4.505021562735981,9.954575787453239,3.4632232270057237,0.5059276262048034,-4.663859893302993
2.536,-10.456635487942236,1.4831292125689277,1.7859470350093911,3.5429863094640783,8.89153327331072,4.552111338433069,2.9124048876091972,-5.09767402406496
2.54,-12.0827553624388,3.088172905451115,0.398012245967438,1.1799623271427784,7.430274376235548,4.183185989604541,4.009923400960904,-6.09680301954031
2.544,-14.284171858709499,4.208675610302317,-1.3827128086307994,-1.26212450517734,6.3780219645771865,3.0563080296077727,4.004784442126095,-6.948841594417813
2.548,-16.021954143966216,4.512010305055675,-3.081177347354954,-2.582098436081953,6.041609551552639,2.07546158932353,3.3507717407001607,-7.248051402296657
2.552,-16.545939415060808,3.8397911787617858,-4.387135289574412,-2.258073146511089,6.140424238854962,1.8493647802880933,2.471328814190576,-7.063126339830644
2.556,-15.617255149907102,2.398633617162014,-5.164347653701858,-0.5561405216219839,6.100522975740301,2.4316510693144204,1.620261060013247,-6.778914068574575
2.56,-13.488280459648957,0.7596489409911413,-5.363590444156301,1.796995756922347,5.495313844833684,3.404045570129435,0.8944185432626823,-6.753320070790949
2.564,-10.72729956978685,-0.3996881223906015,-4.946412736112343,4.100987429484605,4.3254260340711435,4.208761755893301,0.31081762625116127,-7.037602826618905
2.568,-7.984235522871944,-0.6732863400122129,-3.887620367814571,6.021669804775416,2.9711850927358467,4.511817666220044,-0.14579105484232358,-7.340524780673052
2.572,-5.791589264237522,-0.1912158467863565,-2.2544625888368097,7.610331293493378,1.8779780598697335,4.380042600700259,-0.5340559319926719,-7.242202748696734
2.576,-4.452997525223662,0.41913873977523886,-0.2764649998233084,9.051655603075327,1.2253977120029416,4.180785539295497,-0.993013730572315,-6.502752135781016
2.58,-3.988305428046778,0.408926791222856,1.6805411493309723,10.387833111533272,0.8337497392986482,4.293364072501164,-1.7203669398484962,-5.2460469080630565
2.584,-4.135728651412584,-0.5907510350221304,3.24242153522228,11.429344068781514,0.3694948406367393,4.833402545688664,-2.8749981519357934,-3.9050838352770416
2.588,-4.421780755079256,-2.2392399808960737,4.201425181821303,11.917001945891299,-0.2936930605840695,5.564875200167152,-4.4528603818792245,-2.957352511985266
2.592,-4.3104526179544385,-3.5673909382412963,4.621109776697129,11.797594497981722,-0.8475025565938932,6.052608211182646,-6.232281595935985,-2.633021200294978
2.596,-3.4111483246175567,-3.4686856042196164,4.796014320487646,11.369838986659616,-0.6624443127467678,5.952151081980969,-7.840740041956299,-2.788630313765668
2.6,-1.6622962205039242,-1.3462769657436873,5.083333686284025,11.16083981804708,0.7961503638311971,5.254615309632626,-8.914005340221893,-3.020376369893587
2.604,0.5825022957480226,2.440316801015392,5.693818621170658,11.577275460904879,3.5081124649518274,4.337203337097467,-9.24752950621798,-2.936992123346144
2.608,2.6353017669533716,6.6152782213021855,6.5727581232176675,12.56287901089188,6.725091088279404,3.7800856211696656,-8.845315110829784,-2.408864874244708
2.612,3.7283832881141126,9.532040826543758,7.439399449864409,13.523553057985426,9.257572711342174,4.054686329536354,-7.83977771605424,-1.6238863906283754
2.616,3.341566756736052,9.957554242492224,7.954255838965886,13.619208913987137,10.097908159745135,5.261451376980508,-6.360498542641052,-0.9271935023371842
2.62,1.4565977033398037,7.684013292763677,7.908008831117815,12.289579354596038,9.023517935079148,7.067311626240858,-4.462241778937992,-0.5600081626434494
2.624,-1.3947584008980778,3.634420857604023,7.314921341360735,9.692161905376267,6.790638871018331,8.86996570392526,-2.1698295849702975,-0.48131265066405265
2.628,-4.312363666168088,-0.5920649013344257,6.364059915428736,6.7586689978502195,4.764943269750117,10.088586347220502,0.387243504832244,-0.40526212655580973
2.632,-6.353426076094579,-3.495620665592156,5.275749626207532,4.789629068879281,4.181059575100492,10.43220444918019,2.8838689887318414,-0.024510558336119037
2.636,-6.849435131153058,-4.348402685613827,4.178091929667189,4.793264367653691,5.470566917366466,10.01084426299103,4.860557814834048,0.7359512064964701
2.64,-5.588485774602887,-3.423798532586164,3.0885734532664966,6.921170988464318,8.053759288196817,9.243830966615956,5.94371051497164,1.6131801162923405
2.644,-2.811008388461607,-1.6922906255879688,2.005807558086767,10.331003608571393,10.721690741859453,8.632533783968922,6.100456782085049,2.1403448740389495
2.648,0.9359043032595427,-0.18097126847745426,1.0287689917907032,13.569294915116366,12.377362946208603,8.522871211795545,5.744801863119958,1.9429924282582107
2.652,4.982192691581414,0.6208395244874504,0.39465123704454896,15.272102397899177,12.674745624231878,8.972715948676331,5.571456395514929,1.0091553546452485
2.656,8.664333770458239,0.9578666376021561,0.3718862798399867,14.80459386526841,12.148938222785876,9.771388099221896,6.161460132594016,-0.2563558254640359
2.66,11.405472308366512,1.531511784442741,1.0668824082186372,12.522243307475577,11.774942424111094,10.578131894208488,7.59501732145611,-1.2349956757330989
2.664,12.774263509409653,2.932573893541649,2.27207895653451,9.53622854146175,12.240503897522906,11.095421700175862,9.318518488448577,-1.4425895925736087
2.668,12.558714314947501,5.138433727106783,3.483084134776254,7.128409734675676,13.409485094962326,11.182620160357931,10.38355973382448,-0.8122445666993461
2.672,10.863881307988033,7.399420590444667,4.113295679199496,6.145159603034191,14.334414571125022,10.867030648976684,9.961265621633528,0.2718691955378434
2.676,8.15918079397062,8.59949727796277,3.805228709312507,6.674864795179379,13.834441208522787,10.279334869656946,7.851330679635432,1.2225071507137528
2.68,5.213410459414142,7.894441466357343,2.663314173253858,8.131296851149472,11.277603808534668,9.561504980037592,4.679234017672982,1.6271321885798002
2.684,2.8813320590354214,5.259093375559271,1.2436012482438192,9.643481542110596,7.065041132960731,8.79974817473003,1.6391112116406443,1.5188554278363444
2.688,1.8063830067772941,1.626555311864667,0.29254083637934114,10.512763415104025,2.5044037763257196,8.016653072295886,-0.08717250065686599,1.3780169460654754
2.692,2.185754562917971,-1.483215098746129,0.36502039964530764,10.49920066626558,-0.8816699506449064,7.21428957548021,0.08754732966895151,1.8577152983815877
2.696,3.7232957278247354,-2.672474856176179,1.5312419381374083,9.82846189600734,-2.2049678227331952,6.432981296995598,1.9009786547216498,3.3907006329545353
2.7,5.794665990559763,-1.3441744079329396,3.3435007190653545,8.957069564110753,-1.7046519832324731,5.7871194134094095,4.432122674871913,5.907873821103856
2.704,7.740556756920402,2.0043719808264044,5.076343266505523,8.253903894957471,-0.5949002509292838,5.450699425302724,6.615592649535296,8.82726341352663
2.708,9.129297955154154,6.0265617228902375,6.110815152723046,7.779413426676038,-0.3509421262431345,5.59123073089641,7.782230576110306,11.314342312230613
2.712,9.84804487045207,9.172270258751322,6.233449849451612,7.259673710536924,-1.8675135399231584,6.278955241758403,7.90720553928172,12.658171602629876
2.716,9.998679303570453,10.396961547043215,5.695554893737707,6.249514949889862,-4.979023352619567,7.413328887962011,7.466492866622785,12.561248936880384
2.72,9.702885478686847,9.590160590278515,5.02091375154098,4.4007632826013925,-8.59744199416583,8.710825246805719,7.03863663294118,11.212247819846414
2.724,8.987225329173947,7.540011625754937,4.692101265137277,1.7102230582783111,-11.350066669832792,9.774967549940135,6.919977387772869,9.13341214051176
2.728,7.822942127996758,5.482294726720832,4.9021666733414495,-1.381311515175593,-12.31487498208611,10.229437970214352,6.985672308926798,6.9089577920248075
2.732,6.2857502022135705,4.4912106956473865,5.499832759014641,-4.09941214562139,-11.428848374671654,9.868636635494857,6.84692929163927,4.950484312903607
2.736,4.701435139706513,5.020803653808837,6.12882628055978,-5.619025369734973,-9.365216710849541,8.762640742163313,6.169134133013465,3.3981164940562
2.74,3.6192394772453067,6.793986475756852,6.446977456326118,-5.416496812285601,-7.021656113334514,7.26470380807059,4.920259754205089,2.160808363493521
2.744,3.57274306907206,9.039466718126967,6.284420760728166,-3.537636697433525,-4.982467227558104,5.896106373532341,3.3893220822147043,1.0360535210017456
2.748,4.749765773165177,10.912129428261656,5.666796675026609,-0.637062449197763,-3.2918818352312895,5.148896880379342,1.9965540348886366,-0.1639675577389701
2.7520000000000002,6.789419714718165,11.872070781314564,4.726936020782035,2.256651145025239,-1.6483245844424577,5.288748999616477,1.0431391810677462,-1.5263100310641722
2.7560000000000002,8.854722348249588,11.840399572630218,3.5890784669428317,4.147371789223025,0.16055896599279773,6.233511134272577,0.5639786193209373,-3.0044550616690344
2.7600000000000002,9.97937085518851,11.101238330180607,2.3171661855706507,4.463053859111025,1.9211371492018432,7.567333950844831,0.3741686247189042,-4.415693925398806
2.7640000000000002,9.517063860934787,10.065779740602013,0.9578055710940848,3.2370468663932512,3.006607395338489,8.68856054522309,0.2582015271355509,-5.47256807848156
2.7680000000000002,7.44240512128792,9.051248820769704,-0.3733484228974271,0.9917404789889206,2.754842783519399,9.036517358301495,0.13937764656030716,-5.855207970030511
2.7720000000000002,4.348240203978948,8.195285507008865,-1.439943223495556,-1.5856172303865552,0.9726597773724799,8.31214087818339,0.12605951439247054,-5.325811489621046
2.7760000000000002,1.1628258372223752,7.529162112175587,-1.9229496285134662,-3.9734849242210486,-1.771114355543053,6.605218682688097,0.41321375113959213,-3.8614051564332144
2.7800000000000002,-1.2622097355273645,7.107514417432998,-1.5529934541329036,-5.975191572553718,-4.287557736708307,4.37421302253431,1.109704601669673,-1.7482129881887527
2.7840000000000003,-2.469816542787986,7.080857487493033,-0.2680256159576361,-7.636475833151584,-5.302504795770849,2.2805961352434796,2.1111901796827084,0.42777855108258933
2.7880000000000003,-2.453334471454935,7.65101733619465,1.7045575436424083,-9.003503404051315,-4.0911355959795115,0.9390366016868819,3.1019846327285086,1.9342321670665736
2.7920000000000003,-1.4892643289730265,8.91830327954922,3.8800987815462076,-9.931562961945932,-0.8665851899602757,0.6754341984176213,3.6766078793510952,2.1506892715477193
2.7960000000000003,0.09949839507018554,10.730565031709919,5.663445458989126,-10.101717189447985,3.3018655588554986,1.3942088629264235,3.5130486312640308,0.8364244760115351
2.8000000000000003,2.0816701948371543,12.650498328586757,6.550768340385458,-9.252397207513223,6.991692324035413,2.620964680308881,2.513606883229019,-1.714454001701922
2.8040000000000003,4.295959623234659,14.104064108118468,6.322184444829357,-7.451213381576105,9.089707586883165,3.716046578903604,0.8779820882694604,-4.710441408005627
2.8080000000000003,6.531093913678833,14.663991280115585,5.1597939333238045,-5.180600778956498,9.285027169822877,4.168797620190405,-0.897033289780313,-7.095692230067381
2.8120000000000003,8.426121580484281,14.302687978865434,3.6206775279434322,-3.143351199068384,8.146630480849954,3.836814486269144,-2.102117502821771,-7.915273779476236
2.816,9.49591353059661,13.453740269854991,2.4551831425301165,-1.8820271803826876,6.768219821154306,3.0074355223630342,-2.004100570399116,-6.694104512247689
2.82,9.260083806414647,12.787537099466197,2.300491889695968,-1.4718293049870497,6.167455563715669,2.2261018579286347,-0.14166825922870463,-3.693443600057196
2.824,7.385134109930713,12.782375047086525,3.3431906305001764,-1.5317569770907542,6.7417873518178695,1.9572199814309643,3.339015031681014,0.05251109735100723
2.828,3.7860030995148968,13.336744290811856,5.107014792590945,-1.5769457685429789,8.040072097713992,2.254612338718443,7.453058348340798,2.9643734668802355
2.832,-1.3769486603911343,13.650298719544594,6.495093945647495,-1.5081202653238241,8.931747903807699,2.623270097879394,10.449920736541795,3.3761472396400087
2.836,-7.735941773805666,12.534781550537815,6.158485192335345,-1.8610229134232963,8.109321679458848,2.1968197203217423,10.311106593782625,0.11994766370896226
2.84,-14.725821753951085,9.054231673806703,3.0858069653026146,-3.57791516351043,4.703181375287568,0.17656564389698737,5.567185286109146,-6.95520174675286
2.844,-21.558935215148615,3.1801876254780193,-2.830428620274718,-7.357697836251594,-1.2472927813972916,-3.670924937659055,-3.873774826857491,-16.739509256365775
2.848,-27.238774894410316,-3.903354070770536,-10.52720334580335,-12.950827902136567,-8.65542849325798,-8.728979119298739,-16.309124065117725,-27.03590664551261
2.852,-30.704021545007883,-10.086577092642855,-17.999056007788546,-18.880270800497822,-15.649737824031346,-13.650310346841207,-28.552448689733854,-35.15689267432903
2.856,-31.124927646653926,-13.153200995921619,-22.989256522579957,-22.873233177835147,-20.157024427038465,-16.865185850426727,-36.96494345836902,-38.779291414132224
2.86,-28.245047603207762,-11.76557370655593,-23.868461883718606,-22.86127091909159,-20.608243108071985,-17.241300908560383,-38.8170097626592,-36.73498059082786
2.864,-22.59457089297299,-6.14215818064871,-20.308613971987565,-18.051489148957085,-16.524887348199247,-14.583537702366261,-33.37563798905643,-29.415027154544187
2.868,-15.406578298442831,1.9465373241566917,-13.423975901259194,-9.462747896399739,-8.757574455998599,-9.708787368741904,-22.194147983017587,-18.59874481810544
2.872,-8.22078727452335,9.901359933971758,-5.308524374447991,0.4175692729204785,0.7336804431771142,-4.054210623771718,-8.45461508107095,-6.771106114017046
2.876,-2.3524951866385173,15.390174667703105,1.8158926124410955,8.711467843864527,9.498774476460245,0.9672349387644661,4.323277227316746,3.767780340631539
2.88,1.5197822945312576,17.286721800358613,6.433704857115053,13.414404585047759,15.394432993504608,4.527356062640421,13.596994761908054,11.612879517192399
2.884,3.4404296148546774,15.996446080328553,8.169939737879599,14.175980714134365,17.25975079491455,6.584346118728423,18.53714655563987,16.48774145143349
2.888,3.9209287329519538,13.040088738933417,7.671211152741231,12.209429545535134,15.21863651840336,7.654161110802204,19.902968697786164,18.95422505275762
2.892,3.5311798574604385,10.165180894313078,6.076283070472944,9.439297898903579,10.508356752704124,8.340002663628246,19.24690957070154,19.828520070532665
2.896,2.5896068122747353,8.476858333703966,4.397835525422158,7.406402984497211,4.922336812323107,8.907563079836413,17.948479823679037,19.649091544904362
2.9,1.1134994859925929,8.033714465216143,3.138311067788572,6.5536786957066475,0.11735690637966112,9.167754036582185,16.61012527304711,18.491491080863064
2.904,-0.9843671739177817,8.06643461115425,2.284492507390622,6.249533207735452,-2.919124126829007,8.715187476923955,15.07332237462462,16.178857841581994
2.908,-3.6308907545690112,7.620461971501949,1.5870857328499985,5.453532793591704,-4.046140278570112,7.333028104965681,12.911495321525496,12.697497429942366
2.912,-6.465714142700808,6.206559769474523,0.8940076972266366,3.554221771136744,-3.7715959925721836,5.28482003210951,10.006397475323098,8.512481891596025
2.916,-8.955156011724263,4.078045712263025,0.3068518743721871,0.8431349640877193,-2.839727873755291,3.2824202082130394,6.810708527624065,4.542267514249855
2.92,-10.67278748233192,2.007746588827552,0.08639092470947496,-1.6437573954009146,-1.8347301620596177,2.1377769442942594,4.137815447861239,1.7848112262319875
2.924,-11.526490876328426,0.7633985921096067,0.4175024871356591,-2.7773236048944216,-0.9864537228375239,2.302604487758441,2.6494357026566444,0.8106393415582396
2.928,-11.767552345951271,0.6290114352147551,1.218653609813936,-2.0492899129785056,-0.23409538301454813,3.5853893151743903,2.3990622302016322,1.4366792388802976
2.932,-11.780531638523271,1.2590421530853249,2.1360729280332884,0.09926511146368777,0.5506194327001805,5.22907790988528,2.7446431040851165,2.797621042998232
2.936,-11.806813731436883,1.9260882307338312,2.729832818996656,2.5124331555376624,1.3441995147784809,6.305180769314512,2.6984948309717813,3.78799212352141
2.94,-11.779600587127337,1.9845193779720276,2.7245485160995937,3.955435648344966,1.905382941789949,6.1985691854918485,1.5138489030951099,3.6391915679835503
2.944,-11.383647048737753,1.2404394803182104,2.158633843118559,3.7603154929867757,1.8920312243619075,4.906167151687141,-0.8431639927154915,2.3093077933189177
2.948,-10.293487889014346,0.013137134543627305,1.3449750508117166,2.1064488730935365,1.0698363048740158,2.9866304396367385,-3.6241583376517514,0.46208152965290505
2.952,-8.421694730830923,-1.1187118927616169,0.6722457338385843,-0.18841577146648936,-0.5260978533653793,1.1988504007824863,-5.678440675948213,-0.943913909755211
2.956,-6.004577941516608,-1.6975516653594447,0.37431391113115087,-2.19306203858981,-2.5776433443332456,0.06057161069753281,-6.0610607288730165,-1.216296801524262
2.96,-3.4807605112879028,-1.6439976584708864,0.4063698040196617,-3.3617217534379673,-4.633503330398852,-0.40489741744778457,-4.540141819372431,-0.3289534130504066
2.964,-1.244399721221158,-1.239398252513526,0.49098264210973186,-3.708975672959943,-6.3296116197128445,-0.5967901698301871,-1.738394693196799,1.0571420757160972
2.968,0.5385548022379609,-0.8798871882439228,0.2925140599413645,-3.6027791415866997,-7.545462390466538,-1.0154169424740065,1.1553989465945964,1.9523639234376535
2.972,1.923793908336961,-0.7927501838329034,-0.3922612952130944,-3.3687646157432702,-8.418311504019432,-1.9088026674748404,2.934882121325226,1.5722863296689265
2.976,3.040118362489741,-0.8929787415920307,-1.5272930324770848,-2.9833815766673375,-9.210715942202128,-3.1040974213338037,2.901407326500923,-0.2470130949601228
2.98,3.9231726102038236,-0.8733878953343455,-2.8578633829520026,-2.0703469799924674,-10.116558805679924,-4.1204618519404494,1.1134431573347867,-2.9677998520280795
2.984,4.469127318760348,-0.4605240278474865,-4.030951921950748,-0.21433352369482872,-11.130735903023265,-4.487488772685124,-1.7270455373863702,-5.6275187898078345
2.988,4.558931036414287,0.34980761290551765,-4.737687850734762,2.625602005148269,-12.045492759633163,-4.055726552415124,-4.64932407342196,-7.307135190496437
2.992,4.250189500586768,1.233893937411211,-4.8100399341443225,5.876926486449776,-12.569358084567433,-3.1060852057172585,-6.828648484854719,-7.548004806940998
2.996,3.8876545401490414,1.7078387632802148,-4.23630340559761,8.484952324633984,-12.480690691998921,-2.19191396391681,-7.845482462811415,-6.5118354308849575
3.0,4.010515953773576,1.4117571176343002,-3.1167671115595055,9.372003585118097,-11.73099225535723,-1.819175007261963,-7.720082577931997,-4.838016602410106
3.004,5.07084338596321,0.3339186943091761,-1.6017323780623478,7.988864539915495,-10.449544515705583,-2.171555593037934,-6.75758555729751,-3.3062967888050587
3.008,7.1233791112218725,-1.162736822653251,0.15648331291453688,4.653931174362787,-8.862931438022045,-3.049193144534237,-5.338709514755784,-2.4963631762440004
