Timestamp,O1,Oz,O2,PO3,PO4,TP7,TP8,Fz
0.0,1.3926637620897964e-12,1.2789769243681803e-12,3.524291969370097e-12,1.8758328224066645e-12,-8.526512829121202e-13,-1.8189894035458565e-12,2.0463630789890885e-12,5.115907697472721e-13
0.004,25.65042543110232,17.249397058042632,26.654376432119534,6.502098469379632,-14.479766936962392,13.824764145731592,21.362732613948936,-2.9160392449349217
0.008,43.93616668470597,29.114070523483917,45.871271527571594,10.714087618251824,-25.428363346500248,24.58882541979267,36.79448489426204,-4.753551884902066
0.012,50.96038896662293,32.798262624879555,53.59175745181051,11.514620814238413,-30.68924017553968,30.520069675805985,43.08915720006638,-4.921799109401235
0.016,47.929429395915776,29.304718799551097,50.750333420433776,9.503928658815141,-30.225155667129172,31.76480557309776,41.04571966084711,-3.5670863755370306
0.02,40.14609469081756,22.664093255901662,42.365524738002364,6.668684586051086,-25.884883842904514,30.088799398935635,34.677585335516824,-1.45282529514148
0.024,34.00503344649414,17.666217200797945,34.68144176449766,5.336455878755828,-20.37251799459466,27.82986386345533,28.85566125608409,0.4505817041516593
0.028,33.72907679977524,17.417841320008137,32.042479394375334,7.012382796329973,-15.945188855187439,26.742189769903916,26.785977772475974,1.452931676929012
0.032,39.64021330451962,22.06808655957954,35.19845388428337,11.7157871581025,-13.491430203750951,27.350231737137392,28.717916291340146,1.4540610350879888
0.036000000000000004,48.74357096923649,29.2824868025171,41.77933275396674,18.12108090767356,-12.40085878284492,29.067665030965713,32.470605441948294,0.9283570136105936
0.04,56.997073667355096,35.98525339944277,48.36570235097042,24.355748053699756,-11.179552586272962,30.883136266079305,35.24073660612578,0.6189944471782951
0.044,61.712555708505334,40.171227608647854,52.667865086298434,28.92093078514654,-8.444762753114844,32.05403414555553,35.43155599976484,1.1191466149886367
0.048,62.703577688454416,41.74874534304814,54.54196657582446,31.259385239167955,-3.743312807730547,32.41755419091726,33.43816549901777,2.57646459692063
0.052000000000000005,61.736282616541715,42.08502721090167,55.4477820057171,31.74512485091998,2.183240972899398,32.2344663290811,31.077242167789848,4.658762916728136
0.056,60.92126886241947,42.7432212152969,56.96186102392488,31.214132160011076,7.740577806201884,31.798328569313412,30.207245276773904,6.759954724809944
0.06,61.22633285793695,44.332446902104834,59.482497611162444,30.39383931264041,11.234284893768915,31.184922563926648,31.51979492343196,8.329228184243874
0.064,62.002877288174645,46.16115342685089,61.92272810147807,29.52600468653978,11.627106037817214,30.27427340173824,34.20112784766576,9.126395194173824
0.068,61.67608399383242,46.813333037106844,62.50564514016992,28.341871358461134,8.960874940527162,29.00150473730764,36.570072099201695,9.276268805604218
0.07200000000000001,59.004827572960224,45.17228015614077,60.04032296721641,26.32630274758884,4.272459994156975,27.587357705178988,37.18435346222873,9.10874905287838
0.076,54.03592615615939,41.19582116771599,54.79236252654812,23.07659548950693,-0.916496877544688,26.52065680354292,35.67456605353874,8.898519851116191
0.08,48.123447823417095,35.95854582896294,48.39386748129931,18.55748639786509,-5.252779901811891,26.28324588997185,32.820368561457826,8.676514786289488
0.084,43.031254301325816,30.967553534481993,42.839424189903355,13.119226214282577,-8.063652196290889,26.948625119875658,29.880657523997172,8.213803101956103
0.088,39.80600105220748,27.281958061241568,39.28790392018351,7.363972038680487,-9.505582812877066,27.991112145223042,27.716823744539568,7.195199047983067
0.092,38.21767514007074,25.046452015721968,37.48205230694521,1.9834553775078803,-10.32751564796456,28.491476295224516,26.332525494486333,5.470641220110963
0.096,37.11104370348856,23.70086335419586,36.127426254074265,-2.3623215471893673,-11.399458516192993,27.64115860653959,25.08796923187066,3.2241613989721714
0.1,35.352409808050396,22.632725061974043,33.92605189223326,-5.119003461880823,-13.225408617846881,25.26111454584975,23.35974646743665,0.9611061620693135
0.10400000000000001,32.64852161329307,21.71858152303784,30.49284854526212,-5.9505331235141625,-15.687093287854395,21.940493182953276,21.091729525505627,-0.7015363950807796
0.108,29.691048165444542,21.36806096239539,26.587547539203,-4.874824156066126,-18.111774165997446,18.7155947504819,18.858033058823082,-1.3244490427297393
0.112,27.612556591067204,22.09078956971834,23.59040976795248,-2.336491881915464,-19.628043852085,16.492830583730722,17.446109136369046,-0.8694369608801935
0.116,27.195686943652333,23.955630000875004,22.636536655551623,0.8815264481309839,-19.627688753551126,15.571574338108178,17.307350168032087,0.261523391063065
0.12,28.368993153101783,26.37108725856558,23.988032548409308,3.9294661323398827,-18.060749369744116,15.565131704125179,18.27366063710889,1.404766112850183
0.124,30.274651849128432,28.3520704733979,26.956304752625982,6.206507734171993,-15.413749565635072,15.69191729902326,19.69338306915597,1.9362599571666124
0.128,31.82132294033235,29.121987280442823,30.374466606354105,7.580432529860275,-12.37339303070695,15.26096120214487,20.882413224880054,1.5566333008627282
0.132,32.356630071232615,28.664864841643663,33.293639730015684,8.390918989045616,-9.39091345933275,14.056532315219386,21.578206277426602,0.41745727089622164
0.136,32.02905643975063,27.82947309184314,35.44690097709412,9.211251988993467,-6.435708888510419,12.392503594049572,22.089097541043202,-0.9793385676039748
0.14,31.612297903778213,27.868001468450643,37.222954444048185,10.49679180373451,-3.092390301492287,10.862959937367464,23.03524606354034,-2.0353533709264866
0.14400000000000002,31.919435634095237,29.641141789412274,39.1662291890662,12.281846710488367,1.0199125399257696,9.927650237317664,24.81367825459978,-2.334527043647711
0.148,33.20169854066313,32.9714459286312,41.3910698277046,14.103160441340037,5.768543770291814,9.624325861167904,27.157325355105854,-1.8119455545151482
0.152,34.94913155264166,36.58545640791223,43.33758010967779,15.209172763564538,10.282473015616915,9.59268703794936,29.114490570327973,-0.7382239192527038
0.156,36.2199924420585,38.73294906870768,44.03943304011733,14.951656252006728,13.18025151762248,9.373466603060024,29.506832313096254,0.4538384910430011
0.16,36.23151858365878,38.12855259358233,42.724659338619176,13.149957336129404,13.205884519544384,8.77992513371214,27.606032804753625,1.404165070203078
0.164,34.79536743995553,34.66114593082014,39.322687318354326,10.19912937249137,9.939439759714219,8.040437653117237,23.59872577232221,1.982002277034269
0.168,32.36439878532036,29.496867587031034,34.60544003006311,6.896661171110736,4.197037141708904,7.65745854619297,18.598236482376592,2.2971462136030993
0.17200000000000001,29.7273849947791,24.54386020670927,29.903575509307586,4.1006493616228,-2.173374589552907,8.089001264745775,14.20717093351135,2.561696662590606
0.176,27.5929148335602,21.583045712090836,26.554392188064412,2.405824438350521,-7.061927099743116,9.447364758987078,11.849166081333976,2.878801322320186
0.18,26.308319204874124,21.508456749691902,25.374680253034796,1.999213843194184,-9.033139095822946,11.415174271701176,12.191076598013296,3.1100972859168223
0.184,25.802797482707604,24.000309258563448,26.339075412256648,2.696838663421431,-7.957663884258466,13.364894059299331,14.865681911783327,2.9050810121854624
0.188,25.742624774239204,27.76365956337935,28.624725007000507,4.123421394584227,-4.97971409781195,14.634322843813266,18.633570476468776,1.9018491645105087
0.192,25.816604351048397,31.203612298378914,31.03350975994988,5.9432454386287645,-1.8399919084768612,14.825062162764652,21.940184092899187,-0.006672968438749649
0.196,25.972615423361106,33.1903936730364,32.589244821710736,8.012400401672778,0.06137664811626564,13.969417100952455,23.61456489372199,-2.5125853083882816
0.2,26.46203725104303,33.5470537552755,33.02513818460852,10.39500520941192,0.36929882631289956,12.509340526591586,23.392662128401525,-4.946617902291337
0.20400000000000001,27.634592982734688,33.00024112390264,32.85931981790429,13.20615847607371,-0.14314843621173168,11.05176004714042,21.96761849297536,-6.573853330603981
0.20800000000000002,29.615486161403908,32.66225727384523,33.04280531003849,16.38498097778421,-0.11951921434956603,10.05717640491821,20.554770298054677,-6.9949943433836665
0.212,32.094568768644336,33.36490575497908,34.38573120288481,19.5463809468024,1.5197914615092714,9.62425988792836,20.219502621337597,-6.439179867676501
0.216,34.388626080800975,35.20897721510198,37.06862139654231,22.018953709142068,4.8908357573914145,9.477530003118204,21.327413517526793,-5.752865453402421
0.22,35.74878440702369,37.54408204506916,40.50289112780683,23.09076118504231,9.045511656857911,9.187651969396029,23.413256081219174,-6.006699492827693
0.224,35.73041310004419,39.34370022262476,43.568976923431364,22.337778594898282,12.48783073817242,8.44981171439781,25.507814736116416,-7.885193800412708
0.228,34.45284900663867,39.78621067146639,45.15763339637056,19.894554070987624,14.0040467341787,7.30414624433979,26.758876377929028,-11.171710504798341
0.232,32.61002221380036,38.73674295879158,44.747587769586175,16.516262332643805,13.309153647245353,6.1871210849130875,26.986095171342754,-14.658720049249837
0.23600000000000002,31.141966109742583,36.80885198355696,42.64337229963223,13.311103241055946,11.123780354118594,5.71109532466221,26.775910127490988,-16.630955963992108
0.24,30.70582946817808,34.96018474755715,39.75227058028099,11.236804044358564,8.651495199385977,6.289295564157328,27.033468060747623,-15.754246159593094
0.244,31.241946577859977,33.85242584620545,37.03677780114015,10.59682353013568,6.759274083813921,7.80243141705364,28.242573469314266,-11.950248825274116
0.248,31.86087234291506,33.3136533703306,34.920708356570685,10.799066735738961,5.372047083611392,9.483888523521955,29.865738137961557,-6.759836584789184
0.252,31.147474051641268,32.232133416370516,32.982979605501896,10.553260216516605,3.466747105496438,10.125810564621816,30.30261883293599,-2.90341287291335
0.256,27.827651680808344,29.038966921285862,30.174187896311764,8.48804493657667,-0.2971034009683535,8.565613109693231,27.56459653630077,-3.148664701644975
0.26,21.544179055894233,22.63363720475479,25.521063536074735,3.963445342248747,-6.647879658098532,4.279599531185795,20.413310668132794,-8.97420246178774
0.264,13.335247385059404,13.277695800100162,18.938160072268488,-2.337723567917692,-15.00529474574057,-2.211998894100134,9.360123413946667,-19.685931739398143
0.268,5.47191218224151,2.9046483719300795,11.628198466993467,-8.406785079683686,-23.43046952433815,-9.374086934432398,-3.1106696303439776,-32.46644194321698
0.272,0.6108478092978658,-5.435070199064569,5.760182504534214,-11.597836787326628,-29.301193357367538,-15.171116427768766,-13.347614598190603,-43.391587346710025
0.276,0.6271280468056943,-8.807832875332338,3.542105910857913,-9.743892272042785,-30.417721112314325,-17.857079415876797,-18.034316963438187,-48.97934183705485
0.28,5.737534299058723,-5.708281111462384,6.194678002645219,-2.166113567885759,-25.994699623346264,-16.650201788768754,-15.622198989342223,-47.56020859946943
0.28400000000000003,14.378678109777411,3.21318913699065,13.365574755766147,9.91480401710578,-17.047190458001978,-11.987423734432923,-6.967965439793375,-39.8390830426838
0.28800000000000003,23.88170734906413,15.360931639499313,23.249506671221297,23.764576118310742,-5.980489507096081,-5.277954164103903,5.10969719898867,-28.424623672262214
0.292,31.58296049872979,27.23376650934233,33.318227613355134,36.13455962157161,4.4107180844806635,1.685119244202724,17.08821664607956,-16.602840121847862
0.296,35.842221072805955,35.804417591788024,41.29740089237521,44.42282371657268,12.036287001721803,7.365928302759812,26.17000916234622,-6.983793296791077
0.3,36.52567725235525,39.603247258626766,45.94589517521047,47.49890789593178,16.17480606953154,10.930359323376933,31.210059847888942,-0.664655136038391
0.304,34.782924062009386,39.02989029058597,47.30774300109033,45.864260024345185,17.436657970324745,12.343637662012725,32.77330869461866,2.7721631560249307
0.308,32.27517934092202,35.804954026186806,46.37548742180684,41.15079830105606,17.14901097681718,12.150895224143596,32.40867990268009,4.576919487107602
0.312,30.266066991701848,31.905705930625345,44.39604834795534,35.25790752490229,16.543432604624513,11.079510699513548,31.602072293940864,5.929697404255194
0.316,29.073159229032626,28.59942486267562,42.235299479665855,29.575312953107186,16.18916873657247,9.685806480818883,31.019269933460237,7.324469075944876
0.32,28.15493978380215,26.0871218098423,40.15985515142563,24.657390871131838,15.936498945636913,8.224498031773237,30.43281629145008,8.524229040443515
0.324,26.695740181463123,23.849805094749172,38.071690309241376,20.39690383662378,15.306301351444517,6.717947582649231,29.25510645804843,8.996456305225706
0.328,24.256015112781256,21.357643166050934,35.91258386092795,16.474659127326163,14.03347248232501,5.103910915271854,27.223000679532106,8.47969602324224
0.332,21.073581873585795,18.632090690685118,33.903288650060404,12.76876507744646,12.41638112137548,3.33638715862935,24.74932078404595,7.315320990049258
0.336,17.877726420105205,16.30918283911717,32.456277688788305,9.496981347581254,11.246962573619953,1.3935630514170043,22.74302307943617,6.346917447079363
0.34,15.439085967821768,15.235708895538664,31.88156249612598,7.1017288356874815,11.37789681065442,-0.7226686487299503,22.06604318264567,6.4743295827163365
0.34400000000000003,14.194956938150028,15.904665074601212,32.12323363645601,6.018839696922555,13.187652251315171,-2.944381352384653,22.995499116728297,8.14377810331655
0.34800000000000003,14.14457714605885,18.09151053884591,32.70377715073539,6.483237605190993,16.283592059715602,-5.076381360694768,25.00691865015915,11.077032826629875
0.352,15.012799904633312,20.915285397028697,32.918705021221854,8.4634203184836,19.63655215638778,-6.783241693247419,26.984507520836587,14.380748116140978
0.356,16.52486762997063,23.289098276115055,32.180194629521566,11.709544513371384,22.072533603012175,-7.679508672841166,27.737777698973787,16.951055511372488
0.36,18.58478741367759,24.493905167510775,30.33351075458154,15.845952764645517,22.8430714424793,-7.493798836512042,26.56024403719539,17.94570677606066
0.364,21.236762099097405,24.532173953806932,27.76098810748954,20.419839335354368,21.953439114500725,-6.2398546616293515,23.53839957594664,17.076814719272534
0.368,24.423051321515914,24.034534347781005,25.191508156521422,24.88350555564159,20.080821048323514,-4.295922059069426,19.45521321677643,14.622598231862412
0.372,27.7199854554878,23.78139739461949,23.30223738476252,28.56761441976903,18.15280824329102,-2.316999679840137,15.353626891761223,11.20650083595558
0.376,30.301251046379036,24.15356415170993,22.34700148391744,30.739139329424802,16.83280423258418,-0.9922093622781176,12.009481434780582,7.484662786628064
0.38,31.240285730346272,24.87015003826582,22.060009436668906,30.804281889482468,16.203033748973553,-0.7252151740271984,9.614910971101153,3.908111230380996
0.384,30.023413314407094,25.181466687343914,21.884334041926422,28.59212943947614,15.803873539634878,-1.4060982072285242,7.807325867655209,0.6481098113703183
0.388,26.931622499719595,24.363900373693014,21.342654609493138,24.542282436794494,14.992568492455803,-2.4281051466591634,5.966825158839811,-2.320920214591638
0.392,22.99174920316392,22.17422008108565,20.29426206514063,19.632589252479306,13.38590841685209,-2.9909170146875113,3.58106388832266,-5.061697812706029
0.396,19.486840756801143,18.98819273260449,18.93923016927488,15.021858797009145,11.110349766319587,-2.55273000253419,0.4921750091125432,-7.536912777634939
0.4,17.307033543950467,15.573805237132206,17.619959800559627,11.565823157813838,8.719213161258494,-1.1655209707762424,-3.0332284665837506,-9.558941999396097
0.404,16.519052363409173,12.662117562828712,16.56999374966358,9.437008398338776,6.82935043998873,0.4949587683199752,-6.400841803668754,-10.844188583826735
0.40800000000000003,16.36002113283695,10.563038193915077,15.755217315089794,8.030452186633966,5.7154242765616345,1.4195291385153723,-8.911874037203233,-11.13364663864013
0.41200000000000003,15.643377288226475,9.042046711218745,14.88898300467008,6.215966164182305,5.130551636704922,0.7234745810719687,-10.023550186396733,-10.318367215181524
0.41600000000000004,13.381634525769584,7.541709437828786,13.619107024828281,2.860026751944133,4.469122432549057,-1.9531287434983824,-9.53406211194283,-8.514695849093073
0.42,9.31830638633511,5.617223504948811,11.792820618029964,-2.595653475523818,3.1719690368083775,-6.270939449288562,-7.618931957578752,-6.059004507582813
0.424,4.11442578589174,3.325287412002922,9.646391849725887,-9.755143559981889,1.1273067463866937,-11.318639866492049,-4.714161620852565,-3.421117749188511
0.428,-0.9179137226472562,1.2972848362088598,7.76988925428077,-17.281765532320378,-1.180218312491661,-15.972973762728088,-1.3470250018033312,-1.0676053674355899
0.432,-4.408989161587158,0.40979782713066015,6.816616203193007,-23.339266365797357,-2.8885637552139087,-19.327208339294884,1.9662222398089853,0.6582534395431594
0.436,-5.530244533841881,1.2547774839396197,7.132296413431959,-26.27096762716087,-3.2318601241813667,-20.98608657857676,4.741833988321105,1.5882571389586246
0.44,-4.275989171936203,3.73451715837723,8.541459501783265,-25.209135632716425,-1.9943570087123135,-21.0766869438894,6.526553823103541,1.6967316425012768
0.444,-1.325525252960574,7.02856317700639,10.41949877226557,-20.368703704219115,0.3053523233306805,-20.01914337472863,6.934109466746349,1.008868672843846
0.448,2.3858246005418096,9.956011426557552,12.005820949503004,-12.911199883917789,2.6376270210478197,-18.212418055125,5.734641627691872,-0.47246081627986314
0.452,6.107338728559739,11.523983655187862,12.767540402468057,-4.471342297636966,3.9843765489165435,-15.83104127616889,2.9535148704580934,-2.758835706409286
0.456,9.494953063670323,11.367044359765032,12.618368032548688,3.423558963388359,3.863412275561359,-12.839305295908161,-1.0667096959286937,-5.782600961478693
0.46,12.568687011489828,9.865237741657666,11.908202240438868,9.805503532609464,2.567765681191304,-9.16706787758676,-5.682081087725919,-9.27943104958149
0.464,15.474736838792523,7.891123924904605,11.199407397616824,14.401162862942329,0.9747138823265686,-4.935363152830178,-10.07277777773038,-12.754482505065994
0.468,18.18970013878652,6.321279990067865,10.935370524791097,17.430296007819607,0.037765191999596937,-0.5927702716776366,-13.474471327109313,-15.590426353430075
0.47200000000000003,20.329975666446785,5.570712808572694,11.166939805284983,19.22122839022404,0.2545973210230841,3.123876774271139,-15.447949297357582,-17.27678868937039
0.47600000000000003,21.199580545062986,5.41445414743896,11.493243637092746,19.888529171272467,1.3964376240980982,5.41297764090632,-16.047906082125337,-17.651683059541824
0.48,20.106927233735064,5.205698222741262,11.28448418859034,19.274341434027747,2.6486111215594974,5.751520505070403,-15.758806286009758,-17.009317626340362
0.484,16.79765745024838,4.3412454179748465,10.060605214439875,17.157508407598925,3.0474171583139196,4.181322074160562,-15.233536134405995,-15.998255088125916
0.488,11.744677105754931,2.665306429281486,7.786721781098777,13.561138177547264,1.9614420883472121,1.3754621619546015,-14.99063085532157,-15.329841446779142
0.492,6.091006730049401,0.5585861676420336,4.899304130127803,8.919010927733325,-0.6358663707385404,-1.588419998430254,-15.232389126722865,-15.43651896694314
0.496,1.2258510376845493,-1.3336697123642125,2.052975223439489,3.955327207556593,-4.2299227642586175,-3.672555877447394,-15.868655947190973,-16.266421388907474
0.5,-1.8127966568422949,-2.5394725534034706,-0.2268014617186509,-0.6535748778974266,-8.076581857895007,-4.317766923562431,-16.674115381701085,-17.323972420882228
0.504,-2.8146767952870277,-3.0667765495885533,-1.768941065299714,-4.628498818579487,-11.554557267798145,-3.673929943839539,-17.438579799517584,-17.938295298698336
0.508,-2.5042509610163393,-3.3778196735793244,-2.735998348504836,-8.202964479900174,-14.33411009345241,-2.5020690716419267,-18.013290136001615,-17.605831449960192
0.512,-2.210789860665386,-4.0500335824586955,-3.399125386506057,-11.903659770680633,-16.30027518297379,-1.792853153672695,-18.250543674578466,-16.226437890537795
0.516,-3.223345018433008,-5.341622143487484,-3.8642494861478554,-16.092918370301277,-17.343929156410923,-2.278902824686611,-17.911725618688934,-14.116086920167731
0.52,-6.096108754584975,-6.929716279916988,-3.9156722416103094,-20.53023708086789,-17.205879065488716,-4.052290978723249,-16.649279748662366,-11.813616447014738
0.524,-10.242936871863833,-8.004612413883478,-3.0854190669040236,-24.246662664897485,-15.534657906824123,-6.485559103805144,-14.121297757522825,-9.820826774833904
0.528,-14.101351289177899,-7.713944957289414,-0.9516429387247172,-25.872710197075662,-12.139993329707977,-8.504094084908274,-10.229165432494028,-8.428739872937399
0.532,-15.843331727059137,-5.715630933697639,2.487384530810232,-24.29985824005962,-7.278402191660916,-9.095023463198459,-5.3447889465705885,-7.7136261977714184
0.536,-14.279001836360464,-2.491616604262731,6.615556838639122,-19.318274962736723,-1.7522148452284227,-7.799589241894182,-0.3498291197824983,-7.6615146767506985
0.54,-9.468551599554985,0.8162319874030572,10.36449011716195,-11.841098623037738,3.2979307612089315,-4.912758581618846,3.615615898832175,-8.293888776040262
0.544,-2.711410146880553,2.9914382100512285,12.703836280898713,-3.5565645743962477,6.828626486204826,-1.294713738712744,5.617320722794375,-9.674327879621046
0.548,4.070146347069965,3.4083007790364945,13.187722160224212,3.812446446722106,8.346988961932993,2.080724362913543,5.354211907621448,-11.777078941536956
0.552,9.220311838644648,2.376249434944043,12.230006436138183,9.240830956401055,8.138162331381523,4.583634102266387,3.2982938876150456,-14.305384146382039
0.556,12.043318776614456,0.9440898688491188,10.922740683704887,12.726896214735689,7.1192188256640065,6.135854573192319,0.46668526423263756,-16.61561979848682
0.56,12.967521225379244,0.269543635376408,10.482865217251856,15.057932469914817,6.381471614164411,7.090203664016826,-2.0443614487044215,-17.86091461942135
0.5640000000000001,13.13770920986508,0.935167961674324,11.618592786990575,17.17657068869471,6.646212807583879,7.869541735381517,-3.5018331371575186,-17.330697439576852
0.5680000000000001,13.67237902647048,2.595546101826585,14.129170604399178,19.520951791908374,7.909766122235737,8.593979011259762,-3.74759718276232,-14.824487435093033
0.5720000000000001,15.012032168045096,4.1654749363075325,16.948148904555637,21.71686791976049,9.458352640355542,8.933249193101574,-3.118553869713878,-10.844354491603667
0.5760000000000001,16.713137144990924,4.450428381062579,18.62764260072879,22.781444014067006,10.225174050839428,8.281840525430653,-2.1741697869213112,-6.475163652738615
0.58,17.78597576622809,2.86810185031959,18.044584278457023,21.70860305644146,9.305420785514343,6.181944708145238,-1.4033158381910198,-2.9682232801443433
0.584,17.356831154668896,-0.15846671121494182,14.973239370520218,18.077187326620106,6.36452111051176,2.734116885000276,-1.0579388872440632,-1.2206728698681673
0.588,15.22844722823993,-3.383021902146993,10.216762289160556,12.320396536942098,1.7609081492902305,-1.267421503633841,-1.1743693777780209,-1.3953102457013529
0.592,11.997058176654605,-5.399588851338649,5.225208432501745,5.520163869465364,-3.6275695625953404,-4.60110719824911,-1.703384180945136,-2.859471052518302
0.596,8.671673277221032,-5.411468853558404,1.4022680624146915,-1.1364638698095177,-8.764061179734313,-6.176355252106077,-2.5959192412426546,-4.4754011070978095
0.6,6.083012722289595,-3.6422654769157816,-0.5088553719878064,-6.879989347761921,-12.810587561042553,-5.564313000948232,-3.7529172408710565,-5.093980254250255
0.604,4.465357061262125,-1.1564686215590427,-0.6538303606406544,-11.55394718647915,-15.343052862311652,-3.212959415531941,-4.887555988963072,-4.020228199648386
0.608,3.4360477416797153,0.7825334143241207,0.15960375650035985,-15.418382756930214,-16.362815470153237,-0.22269204709596124,-5.464279088359945,-1.248836324851709
0.612,2.349552408639113,1.4292493519767504,0.9759335440016912,-18.734423764357302,-16.147971131434588,2.195744282508713,-4.856484323755581,2.609818333612793
0.616,0.7812806230560341,0.9306095356860169,1.1885131661581454,-21.431043527209567,-15.05921331898628,3.2913734231510716,-2.6887901295835945,6.636943837661761
0.62,-1.1600757450842707,0.16636405942142574,0.779428910688921,-23.06851007378657,-13.392550768492924,3.0922198504608787,0.843822335878599,9.9771873565428
0.624,-2.8550514884874474,0.18769341687470842,0.22474006505228772,-23.10650694318133,-11.32773286916813,2.3163851790313856,4.914692033088841,12.11024768296943
0.628,-3.52156031484202,1.587072257624186,0.15061481038594593,-21.294902149670065,-8.95431544553162,1.940616195028042,8.357297154219395,12.939637192950158
0.632,-2.686853849622821,4.1474566193986675,0.9355421613769295,-17.932710030993917,-6.332247788913719,2.656575230400449,10.183096721689253,12.703383480259674
0.636,-0.4963082739287188,6.952373756486452,2.4754014270940843,-13.817865517441305,-3.5517006931293054,4.5063497570911295,10.060035991553036,11.794557261030661
0.64,2.3274643010950626,8.884735510122653,4.241384129656922,-9.895466093060577,-0.767527745824168,6.8937981918625155,8.479922127283544,10.594692141731912
0.644,4.839881569424733,9.219566282381606,5.565538094935505,-6.82157511605817,1.7805118024790545,8.932586888361811,6.508137985094777,9.371844708618767
0.648,6.32399381704289,7.971942096869782,5.963929358988366,-4.696516996220794,3.76958832652042,9.925890039070055,5.225243465272229,8.253334012355026
0.652,6.57488676154685,5.82121803769445,5.317469496117724,-3.1223010750860567,4.843402177069265,9.709133847746898,5.163551830786787,7.249767196591165
0.656,5.894171154565015,3.697692052188927,3.8372664447516627,-1.5474739351623157,4.7052802374001885,8.671929429410966,6.0561230130172135,6.290717639291643
0.66,4.857664038772725,2.310526678675899,1.8967640214485755,0.33268870754056934,3.2392440019739297,7.496249704645152,7.050144503896718,5.2556767045525135
0.664,4.024543632231115,1.8794491190412828,-0.1381512880217315,2.3500984900853155,0.6009246074867178,6.773174001885309,7.261065085125097,4.003598980689674
0.668,3.729857188181711,2.1707896289925657,-1.9929880813122054,3.9288030228776734,-2.7673598726245245,6.704699982766897,6.326351445280579,2.4160310403904077
0.672,4.015656530674789,2.7429924457362063,-3.4846017697755087,4.381280511140403,-6.2244836661599265,7.030171708762737,4.613289940331924,0.4495375793195535
0.676,4.680614552658653,3.2194728764718548,-4.490972971466931,3.2575713183015296,-9.116803659326706,7.194441971518245,2.966179179558708,-1.8185675599470983
0.68,5.398765844499167,3.4383544460038706,-4.938659086835969,0.5775765077551682,-10.995176669367652,6.66685033370004,2.175347836289461,-4.17497212737095
0.684,5.83957999918087,3.4303455392320075,-4.825330792055752,-3.160702691495999,-11.77163132861358,5.2321443821099365,2.5040263405098813,-6.304969482425804
0.6880000000000001,5.762948963360316,3.300453188148481,-4.248230393572953,-7.1638488436781245,-11.71593823019657,3.1249639003123093,3.5798154599026475,-7.863719422002703
0.6920000000000001,5.080941989119395,3.117990977660554,-3.404569228907235,-10.606219557388954,-11.276362717105599,0.9472563844159367,4.697331050848106,-8.556759208572885
0.6960000000000001,3.883272246208435,2.886444676000167,-2.5386576820797018,-12.859690962612888,-10.81801404935186,-0.5945437379557461,5.319801763293071,-8.210201649006706
0.7000000000000001,2.428093194501173,2.5987996229464443,-1.8262782898738124,-13.60744296837862,-10.400223200457049,-0.984767236042785,5.476612391981007,-6.805241311294594
0.704,1.1077807473451173,2.3217111578338745,-1.251098786389889,-12.827946553189747,-9.721107381705053,-0.10003151347621042,5.793537446804635,-4.470919664661778
0.708,0.3454095203539964,2.214069609014075,-0.5731133289574473,-10.720943125204315,-8.265833271833515,1.758001092056361,7.117218850890595,-1.446657717426831
0.712,0.42275645352651736,2.442195813117735,0.5554889096580382,-7.642496906755014,-5.591242381642758,3.9863441227092835,9.945092704351737,1.9603972923460447
0.716,1.331164879813798,3.0551980016728635,2.374560233047987,-4.054529645494597,-1.6126386790977563,5.900827959413164,14.003429823312672,5.410225149326038
0.72,2.728887582136025,3.9240870284502307,4.826611808466851,-0.4682125314815835,3.2573738808411576,6.983419956480816,18.25286518565042,8.554805363361481
0.724,4.060655141160225,4.796735419236427,7.516487523079036,2.636763315882888,8.19953558799358,7.059545334343284,21.34702749397684,11.058868775140013
0.728,4.7948109516090085,5.439154926085109,9.85194017374306,4.911974954054642,12.275665182738578,6.354409414361612,22.287031856196904,12.636789702901297
0.732,4.655112254713174,5.75598185932904,11.293559548295548,6.214634460650473,14.778158636278874,5.402656743746434,20.90396828834514,13.115042251676641
0.736,3.72300619388551,5.798017126320531,11.573551736681225,6.610711045337155,15.476479221521458,4.826952672187417,17.89853403021607,12.497781678136846
0.74,2.369311125481545,5.660660456724429,10.786708466085884,6.308793340303339,14.648031875329934,5.085377789517338,14.437079665844067,11.00524543399797
0.744,1.082515439154463,5.3634596259951195,9.326259551362568,5.567439113795956,12.889139630821774,6.283238156078937,11.551608056700957,9.05013735527774
0.748,0.25998649449482514,4.802868232250944,7.690564503281962,4.610272592534329,10.819509634636859,8.116036271613666,9.672499595191539,7.135483077254207
0.752,0.06100460249245998,3.8298013966290227,6.257599919520146,3.589943281223725,8.838869354466851,9.971246027550364,8.532010846462526,5.702928415364738
0.756,0.3824775090343451,2.409649305555263,5.135711469820308,2.600995352104121,7.040372089431912,11.149253371760437,7.46153678535353,4.989140474072656
0.76,0.9713615014499055,0.7685299842216864,4.168978588590505,1.7233501741289956,5.305330689572372,11.141944684224086,5.890898296755495,4.957491841989395
0.764,1.5977469880511137,-0.6075079360076074,3.0745811216820016,1.044314101040186,3.482792947128985,9.853792534204672,3.7484362758375482,5.336689709344739
0.768,2.1781497782567385,-1.1637761958037913,1.625344545771668,0.6388072140146619,1.5395646754693075,7.666764353182316,1.5412675791076254,5.760253537789708
0.772,2.782740601402679,-0.571202915808442,-0.22408230851920052,0.5249847824504741,-0.3873940750775091,5.315770380713275,0.07699038999749064,5.9485995153262365
0.776,3.5217372079230813,1.0312034220360715,-2.329518000176563,0.6227048242014916,-2.060446387521722,3.6000576706959464,-0.015107691791172329,5.840057207497807
0.78,4.401381466105363,3.023569135206799,-4.425497851580076,0.7716722502148059,-3.2612762766370906,3.0638430214365826,1.3341592184980868,5.613829464584541
0.784,5.264407472258995,4.580700521372989,-6.207001045394122,0.8259191710780556,-3.880906016139363,3.7935205588156578,3.5691309870427403,5.590706422092126
0.788,5.848129019019581,5.096881835354623,-7.392803028114258,0.7780323824119932,-3.9252193735771357,5.423474622316235,5.775134213189233,6.061992757716922
0.792,5.915701911632709,4.51342935428562,-7.768791801577777,0.8224325565540767,-3.4522102264662635,7.3397924899679765,7.11880575915086,7.137485182977343
0.796,5.385959260614754,3.3520177974950798,-7.233056382258212,1.2902641733591622,-2.508200143562476,8.976836151287443,7.227778494170423,8.68580465724915
0.8,4.394362799436863,2.4210643585064986,-5.838748686716087,2.469523132174743,-1.1164205839519923,10.071780046390131,6.322085079692215,10.394407768792945
0.804,3.2350841774351693,2.342547995215483,-3.8307505405092,4.3766064359350025,0.6528813743163937,10.734530052559762,5.054627941941135,11.904693504182205
0.808,2.2089423169644533,3.163681620321654,-1.6421032417409265,6.6144667546791425,2.5864816704811915,11.299229349857,4.1527347419406055,12.946630248701638
0.812,1.464420024351682,4.277858613290306,0.186655974445614,8.429841319474065,4.302380272634821,12.04605028279775,4.053121458470628,13.417387390119842
0.8160000000000001,0.9245686050083748,4.7146217231407945,1.1607519387512184,8.98202244972424,5.338154133871171,12.944343532680023,4.701494519619416,13.370620183911228
0.8200000000000001,0.35954225001859186,3.6601740458658583,1.0233090285528306,7.736547307933108,5.346040658270567,13.591642607483209,5.6105466515562625,12.934960173498098
0.8240000000000001,-0.4253828561204216,0.9281727454290944,-0.09730280604134123,4.797461711178471,4.292965631673098,13.395698584217257,6.130665836196556,12.208609538545886
0.8280000000000001,-1.4049222182413246,-2.8761658296213,-1.6815093329755655,0.9899337811886539,2.555162511403637,11.91875802608024,5.787734787748207,11.194247549088374
0.8320000000000001,-2.270932255189223,-6.585687254739838,-2.992742601679936,-2.3885981689157347,0.836933348927289,9.195486191104237,4.52483170353878,9.809724196859293
0.836,-2.5528036954749496,-8.98172154894499,-3.3826620088993877,-4.07639886715134,-0.08179217799380467,5.826451737806906,2.735407454427616,7.9708792840999365
0.84,-1.8677459023582514,-9.315577541287837,-2.581242596384982,-3.391858209223699,0.3348441347601465,2.778886889747241,1.0917514795223724,5.708055120507964
0.844,-0.14578884260041036,-7.578390761208482,-0.8237500352112761,-0.5430384555771752,2.1248614384852544,0.9764779413732185,0.2567628263201982,3.251189710081036
0.848,2.3043061139806866,-4.423942915150633,1.2483541190321148,3.4569399910378706,4.764102936029019,0.8879304725661541,0.5972001027024589,1.0362479811601304
0.852,4.916548402398661,-0.8468368856691768,2.85632504685816,7.233182663870366,7.320594663797408,2.322012169247728,2.0102530173106175,-0.3960575790685823
0.856,7.090757004134161,2.179605415322584,3.3859252226194485,9.62570754496619,8.763844045498956,4.517664594208668,3.9242834334810937,-0.5933425204512162
0.86,8.402371067347019,3.9446995213214393,2.593705579082439,10.12981581695567,8.322782650532815,6.495484578395917,5.484741939674791,0.5983101408681648
0.864,8.696662259384937,4.078427315272364,0.6485483474816647,8.995794394105445,5.7564796219602385,7.483636920736785,5.872297980373389,2.89804349647423
0.868,8.043398627729559,2.533356761766015,-1.9787406815108284,6.977907348140917,1.4569907515076466,7.2126279608716,4.634330253352289,5.624769310487039
0.872,6.611099518548542,-0.43878658294048023,-4.700333367464282,4.895501135039609,-3.647747732545753,5.945050869837871,1.895398313924261,7.920332608348531
0.876,4.566556272361979,-4.285679272776463,-6.985589695461158,3.241940750550924,-8.368977349501137,4.243720914563767,-1.661086625154951,9.079175722433092
0.88,2.085293157486248,-8.172081113890641,-8.450113072729152,2.0594850801512052,-11.616072075468566,2.6407172626905435,-5.038254854781144,8.846952491700335
0.884,-0.5455098857919154,-11.105709212214322,-8.859904222490172,1.1106945749409647,-12.731613663334343,1.3894500024957779,-7.303038280817532,7.526189994542705
0.888,-2.862864559330035,-12.22932561452106,-8.116973188994166,0.1920552865225602,-11.693133299023884,0.4127138058108244,-7.951105585389541,5.814281878557182
0.892,-4.311909594918816,-11.189162625337815,-6.271489574470593,-0.6283395007995409,-9.096649746528044,-0.5550892925747348,-7.099165659151424,4.441982800289026
0.896,-4.486834190055916,-8.375375401043328,-3.5561493577388887,-1.0107656610014146,-5.913773547196115,-1.7443610270764793,-5.415691033196538,3.7929718817017033
0.9,-3.412893171218684,-4.84596907283435,-0.38789513817795296,-0.5731106423266397,-3.10910817929323,-3.174840393050431,-3.805963368761468,3.7210322721669797
0.904,-1.6593196092895823,-1.8940027554160395,2.712390582857438,0.803696003792993,-1.2774563984283418,-4.618841143440704,-2.9948797829213163,3.6770841790577435
0.908,-0.15218965820980657,-0.44060067025688454,5.274191470254607,2.799412783990249,-0.46041774137563607,-5.69820370951561,-3.211795991332963,3.0725456776610827
0.912,0.24617366205359303,-0.5897736387473742,7.028916171811943,4.721240182060114,-0.23183842854405157,-6.052679173146089,-4.1378995655032895,1.6716362764340147
0.916,-0.8139604429381961,-1.6283842404167217,7.966111757390763,5.782515326868918,-0.017103838180332787,-5.50315963213211,-5.144003341533107,-0.23062069634534055
0.92,-2.953419961831287,-2.4994663118067137,8.267698004335784,5.455083272732168,0.5241040383198197,-4.1205800572925,-5.6822535308346005,-1.9636976328581
0.924,-5.208452439210333,-2.4763920666219974,8.173289803312969,3.708883098539218,1.2646349813524012,-2.1776625173347384,-5.5848896186612365,-2.8865669866220287
0.928,-6.497770630015566,-1.6417671663545548,7.857898301102637,1.017525737134065,1.6689491613689142,-0.023824773406204258,-5.102831361760764,-2.798135642042894
0.932,-6.185918559518484,-0.8723183429787582,7.388398666824401,-1.858883701034074,1.1100398110504557,2.0433920241198393,-4.674557983133695,-2.0927680211423194
0.936,-4.439278153179032,-1.3151001894078718,6.759960614454599,-4.195688532596932,-0.7396098651789771,3.8400034244165226,-4.581148689750762,-1.56109652747449
0.9400000000000001,-2.1696387515200968,-3.657986430292226,5.966093976757065,-5.570671744314495,-3.6717411176232417,5.282446788940206,-4.732385671399243,-1.9496623086618001
0.9440000000000001,-0.5851989150794736,-7.632235159480786,5.028815086512623,-5.965088262230495,-7.015493150280804,6.318186422559847,-4.730087186199057,-3.5402445535838183
0.9480000000000001,-0.6017565320453571,-12.068324686616961,3.9597821543229657,-5.683456143183662,-9.981420373747255,6.857509624136583,-4.174633490668157,-5.994151804753983
0.9520000000000001,-2.4241363766854533,-15.489653816455075,2.694504782778722,-5.159123124162761,-12.065130698344547,6.76051019285228,-3.021964920233586,-8.534166604247503
0.9560000000000001,-5.493075059368721,-16.889020802970606,1.0874006358706083,-4.7409053232941005,-13.256138050494656,5.902529472542938,-1.7282441588272377,-10.331681584909006
0.96,-8.798493445294184,-16.215338275685326,-0.9591043559468062,-4.532733418986481,-13.905112497894606,4.312676238855602,-1.0159245698544055,-10.837126495079644
0.964,-11.358036421461748,-14.282490282651679,-3.2741128567072337,-4.347085826997954,-14.34142331334715,2.290956129474125,-1.3714413341938325,-9.880508034043828
0.968,-12.59395000772571,-12.175147403980986,-5.2654714772641,-3.7767525420513266,-14.499604817970976,0.4044927515933523,-2.5859403315221243,-7.547823504633357
0.972,-12.471354621072862,-10.561990560875984,-6.019393583527744,-2.3760332960288224,-13.842218141305693,-0.6949210171333107,-3.6921117214442347,-4.012377100813353
0.976,-11.40693596775202,-9.382933821349525,-4.716140941158187,0.07672466079611695,-11.698178676472025,-0.6096223641579854,-3.44722097844965,0.4669302727070317
0.98,-10.05452453776337,-8.119650586104626,-1.1930571701375356,3.3281575978871842,-7.842274200212614,0.47217858265980794,-1.1569315083170295,5.33634933304802
0.984,-9.097854797694367,-6.45524604187176,3.659176393497205,6.534273824297543,-2.969136478894484,1.653657524369919,2.6249704595961703,9.484391061745555
0.988,-9.123340364989303,-4.845529871034159,7.9781966550399375,8.390698666163416,1.287370340070538,1.5623517263625217,6.001753871319579,11.227130949739717
0.992,-10.558502795792265,-4.559587137255221,9.574279305431446,7.53104284492008,2.909761972917181,-1.086746142274933,6.432671808070609,8.750908898044827
0.996,-13.590173848605332,-7.059087469363021,6.905851885723223,3.0914277799829506,0.41574565273299413,-6.821767124419466,1.9630979066555483,0.9411310241586079
1.0,-18.027080974899604,-13.021730814642751,-0.0641674164471624,-4.762808799790491,-6.299729916028127,-14.948187197536981,-7.612201199562151,-11.7713404700321
1.004,-23.17165739827385,-21.598817198279676,-9.598021504873032,-14.612950865218522,-15.671699613674491,-23.57424930216257,-20.283607335766874,-27.057951679158805
1.008,-27.820384997593806,-30.408889241866518,-18.704255081820975,-24.033045760569166,-24.91893211627155,-30.189754421437783,-32.388200784959736,-41.16936272820067
1.012,-30.498440080519174,-36.376205595736565,-24.264379347690692,-30.28589697205814,-31.067047955064254,-32.58936061796476,-39.99861395915241,-50.15108221183698
1.016,-29.921415654288012,-37.053802037644914,-24.28850344083321,-31.253168698633772,-32.09334222064899,-29.75708012267478,-40.51697750738276,-51.31449167030769
1.02,-25.517419200023028,-31.746302826419537,-18.707771302775654,-26.218000124611308,-27.658537507570827,-22.290793085090627,-33.72360066949341,-44.28602726254576
1.024,-17.766351591615546,-21.84163999065231,-9.343847096358331,-16.160197700469098,-19.122557230589337,-12.165203881749676,-21.79473922327861,-31.125751109153157
1.028,-8.166625394827463,-10.19116821005332,0.8931014259483163,-3.4280292299990833,-8.893225099003757,-1.9414736642829666,-8.318890401242243,-15.460674778630619
1.032,1.2128697659165937,0.13272141563106743,9.180101537741393,9.09184954057423,0.5503458444959506,6.200322794844851,3.17665598044141,-1.0559348637191306
1.036,8.421894518505269,7.06006666168696,13.77492095234652,18.948458472918674,7.502591207603018,11.153301863976594,10.4740526385865,9.504657701577344
1.04,12.26264634810616,10.135206764111217,14.429682646919673,24.842328846030796,11.41854236197787,13.03298781979447,13.177123345305972,15.461038629612972
1.044,12.625780722357945,10.302204663402676,12.157203802031518,26.812461660339522,12.766769384261352,12.79549229013719,12.400212901933855,17.65361222189881
1.048,10.39505877075078,9.092074824979818,8.576568281906475,25.883406465007283,12.532448425531129,11.593806718760788,9.944231864457379,17.692696777216497
1.052,6.9807662583021965,7.712007320653129,5.204277102857304,23.396540488724213,11.6745806815386,10.231641147681785,7.442076368264679,17.034799413470523
1.056,3.7083816461216657,6.521357154065299,2.9881596502100365,20.368186103921516,10.781581933415282,8.949662415466264,5.850383075063974,16.423246577476107
1.06,1.3369351534220186,5.1090086504220835,2.1975318647298536,17.1850572298481,10.027534225330783,7.583906010667761,5.410785238775816,15.87753707434672
1.064,-0.09917009444666292,2.8218783022812204,2.592596996309112,13.72845348724627,9.347043494066611,5.906855995572641,5.923625346719973,15.075241603978839
1.068,-1.0850409117724666,-0.6185646474596069,3.7083355461372776,9.790580593385812,8.670305784912443,3.9154212927796834,7.070308930482952,13.8062566173503
1.072,-2.1977771780458397,-4.774784225424128,5.094909226533673,5.499660944489051,8.079731076229564,1.9001479111811932,8.58313645280623,12.202177967082662
1.076,-3.714144532618434,-8.614459028138754,6.432837528113851,1.4716997947050459,7.8115671412153915,0.28341739893085105,10.229877485377983,10.644196402289936
1.08,-5.454847624292142,-10.9865833005083,7.552200221143721,-1.4012396402083596,8.139203207752416,-0.6250275135198535,11.741004145521856,9.49280288170712
1.084,-6.895902955850147,-11.160818167393927,8.416305000126158,-2.3918901557826757,9.217841735294542,-0.7817869159212023,12.811150449873821,8.864445229586636
1.088,-7.464418585526346,-9.14339735366525,9.09249067296605,-1.3416649338744264,10.973546719386604,-0.3805019346041263,13.209546401812986,8.605586687222512
1.092,-6.8473663050110645,-5.637418602754678,9.7020558175318,1.2129916615717775,13.087902791147826,0.31689266046168996,12.915458929162014,8.449207318450362
1.096,-5.130031131727151,-1.7006838271445304,10.339615554438751,4.291158173220538,15.08047223911035,1.1479782190908736,12.149346955204237,8.215853217887116
1.1,-2.71412768852133,1.7019048871432005,10.983755202759767,6.95641150725055,16.463334090260105,2.109870454378779,11.252908269688305,7.908520199962368
1.104,-0.08477255736693223,4.041658332717134,11.450882217974595,8.763066855145098,16.894233894049876,3.2793483986092724,10.48176567114524,7.632432303667429
1.108,2.416128006182589,5.335335043836494,11.44582926445446,9.901368804482672,16.268353793356482,4.669739844884134,9.857856316901689,7.421037767649068
1.112,4.6627661129588205,6.00591690069291,10.701828687629131,10.951638761071536,14.711733377169367,6.136508627254898,9.18865054396474,7.11670383253545
1.116,6.6365607106693005,6.592108099548113,9.138967712086924,12.395791655928406,12.490912037176258,7.396187110633946,8.24374640274982,6.409321817453701
1.12,8.237352509176617,7.4659788865913015,6.959286569061078,14.199511311360538,9.896900352419834,8.162875970453115,6.976155268954244,5.032410293495786
1.124,9.183726229280978,8.67842619493672,4.61340889731855,15.733970887181158,7.154088096081978,8.295056317947456,5.6276528472335485,2.990479006511805
1.1280000000000001,9.119581540310037,9.987135448725894,2.651251353787302,16.114799311726074,4.404893842000092,7.860967240347236,4.627219641434749,0.6597818627856213
1.1320000000000001,7.8895131628323725,11.030478530665732,1.5294727370205692,14.76684015062051,1.7769869838402883,7.085321409712378,4.3395326255995315,-1.3217077670492472
1.1360000000000001,5.796498744755354,11.535311308809696,1.4523703567183475,11.862022395444,-0.5390236752109558,6.194610057948921,4.810083805051363,-2.3391001039249204
1.1400000000000001,3.6174887077759195,11.43675875788449,2.3097155004033993,8.334233877241786,-2.2672276694920583,5.271281123742483,5.66909914389862,-2.1060151558790494
1.1440000000000001,2.293598606302112,10.850073989759267,3.719634816395228,5.409408976742725,-3.1280101118818493,4.1987207449674315,6.276226347697502,-0.8306966667473716
1.1480000000000001,2.437282306405905,9.939717129790324,5.163845982397561,3.9185814087609288,-2.9841590627020196,2.7521963093640807,6.05549488059205,0.8609197392825081
1.1520000000000001,3.9386265742612068,8.78488461687607,6.163714837361113,3.797882509285955,-1.9568850002006002,0.7880718222195355,4.837499129389471,2.2089774944045075
1.156,5.915734462546652,7.32458273427892,6.422314064226157,4.072919831354284,-0.4356304039465613,-1.6034974816693648,3.007746361585305,2.6541874449649185
1.16,7.113025007550505,5.433697137039417,5.907233566525974,3.3903312338070464,1.0594659996349947,-4.066627431941015,1.36437716697219,2.0570986958446156
1.164,6.571858291490571,3.0976705992961797,4.856720878961369,0.8144126782817693,2.0920365649849373,-6.102014662791589,0.751414334933088,0.6981124825715597
1.168,4.21099165962778,0.5680549764977059,3.705007845794171,-3.560592722124966,2.4864326930819516,-7.2862069886650715,1.6483396387957328,-0.9253654112792447
1.172,0.9599499544731316,-1.629637561272375,2.935526734591349,-8.539060634559519,2.3693582729133595,-7.4727496140058065,3.916812158510311,-2.37740633737576
1.176,-1.6685538599124357,-2.875875673817063,2.8892459275989495,-12.354067040868358,2.052728480818587,-6.877735846858741,6.8235114088738555,-3.4867460949649285
1.18,-2.3631393273740287,-2.7594329638995987,3.596984309637719,-13.514632511795753,1.837847302640057,-5.994681978542758,9.316784021159947,-4.376456113159293
1.184,-0.7282739798413331,-1.3393201996045718,4.718438561081712,-11.519928639090267,1.849642520800444,-5.3766684116280885,10.422501010731139,-5.326278274048946
1.188,2.4934355259342738,0.7996477202959795,5.643411887545881,-7.060004032166489,1.9818631308971817,-5.38855472598334,9.587515922862622,-6.565125763564083
1.192,5.815575099228909,2.7500469552373943,5.732284125193928,-1.6298928209803307,1.9720636494967039,-6.043961488143395,6.841100785103663,-8.115371402687742
1.196,7.788756736382766,3.653244403163626,4.580279639750188,3.187265210987789,1.5339354969391934,-7.021440623522722,2.7188946420856155,-9.773823541581805
1.2,7.7246984029750365,3.053543349867141,2.1798302856354894,6.372608738053259,0.4718785337472582,-7.843022612536515,-1.9965158432196404,-11.224709577317299
1.204,5.974643027768252,1.071966028877796,-1.08739669378474,7.73745673051917,-1.2712580239317504,-8.122251602836513,-6.570322443535588,-12.204493254552744
1.208,3.6207960185943193,-1.6867902094072633,-4.623662281238921,7.73262429657143,-3.631313714670796,-7.754132757330808,-10.515579153597173,-12.61910024221379
1.212,1.7956662095907632,-4.432792713917024,-7.849520066480636,7.003398008477234,-6.445099376143389,-6.946295978611488,-13.630006920921005,-12.547568350629717
1.216,1.0439203637304217,-6.531664168111092,-10.38476442463525,5.995464414080743,-9.448250022272532,-6.0864255617061644,-15.892623572503908,-12.14215857422596
1.22,1.0696952985301778,-7.734426779290061,-12.107159224977295,4.8165628719871165,-12.270760244573012,-5.522827023971331,-17.316843823808995,-11.504644991510304
1.224,1.003930121651365,-8.18776933365507,-13.080262056599167,3.374121869941064,-14.484241625821141,-5.380836665427523,-17.857185724500596,-10.626594167069015
1.228,-0.01276262766077707,-8.255626060400573,-13.42390608682399,1.6158646030485215,-15.732292228024562,-5.506989859090936,-17.42320791316979,-9.43153509054082
1.232,-2.3054206378458275,-8.276563243167857,-13.223893929100086,-0.32893074989578963,-15.896964385051433,-5.5632069939347275,-15.9886259918012,-7.8858769547496195
1.236,-5.504587752026509,-8.39320589173758,-12.53404920910998,-2.206333220421584,-15.201728475821255,-5.223633080664513,-13.718085553372475,-6.100590237331744
1.24,-8.80219264299626,-8.522935764441627,-11.433849909758464,-3.816796363411868,-14.140945951944559,-4.350103076110827,-11.015099162133993,-4.337037569620406
1.244,-11.402419380295669,-8.450905770920144,-10.062049035585915,-5.138438445701922,-13.230344743505611,-3.0508561781180106,-8.43033835028291,-2.902669139356476
1.248,-12.86348723474589,-7.9668110340076055,-8.572340058180998,-6.271630154720697,-12.706221201641256,-1.5936735732220768,-6.448766441592852,-1.9969615560680722
1.252,-13.145715159062775,-6.962988197377854,-7.038763179189118,-7.23440889596759,-12.351065821957036,-0.23055424744416086,-5.26754506711859,-1.604964512078368
1.256,-12.397463938196324,-5.4607636492969505,-5.395867371856184,-7.7693020575038645,-11.58277510654625,0.9465841767341772,-4.6895355913384265,-1.5034851821446864
1.26,-10.689143397502676,-3.576454917580577,-3.4870409313480195,-7.338148823470419,-9.793694836678696,2.0438926267979696,-4.206759116211288,-1.3810281579940238
1.264,-7.924216969197005,-1.4619006874554543,-1.2236161841719877,-5.374790544271491,-6.7671066684251855,3.2700306092538085,-3.2534788346283676,-1.0089267884036417
1.268,-4.000395786110175,0.7478416483581896,1.2480147567439417,-1.6675546777655654,-2.91430080414284,4.782807830773891,-1.4977249299427058,-0.3582366651976372
1.272,0.9145554850572353,2.967086906494842,3.5037280035494405,3.376216012711211,0.8379936563924275,6.579443104321399,0.9746798065643816,0.408051807737138
1.276,6.213867268684453,5.164794653079298,4.989844921897202,8.76897137410515,3.4705018354961794,8.482582944832757,3.680858023674773,1.0602348880488535
1.28,10.952286073088544,7.33567132475082,5.309528682470045,13.30741526887914,4.389312001922917,10.227944595026202,5.952464284566304,1.4691856656427262
1.284,14.207830053310317,9.463702475024547,4.496292917766368,16.08594675156928,3.740188155627038,11.594509286420362,7.2522987706142885,1.7152157658442775
1.288,15.495882895836758,11.494258530814022,3.0999624639825925,16.87624868281091,2.3303486980721573,12.489760767330154,7.441444111273995,2.0745367447648277
1.292,14.972932571386082,13.321379875787898,1.9905749910622035,16.160465915760142,1.2035028027821681,12.94891061985436,6.857106952807953,2.8902135755147356
1.296,13.292983376101802,14.79580515993166,1.942750626240013,14.797895028361381,1.104513067636617,13.057644325219371,6.162729793107246,4.393210972606539
1.3,11.185161166173202,15.754130983618325,3.2139166893330184,13.525809073185883,2.1329180357661244,12.86553160456242,6.04344908703024,6.573056119267676
1.304,9.02219815238277,16.067458338828146,5.357455511310036,12.579344255212163,3.7582368814355505,12.352240946194797,6.889458384106547,9.151964709547883
1.308,6.673898101199029,15.69503547392651,7.410422647156338,11.649045765076153,5.172098388939958,11.484273796562775,8.623364946422043,11.666078702964114
1.312,3.7479888590341943,14.71460449623737,8.381826034996266,10.182878348040504,5.757352252536293,10.322612520136317,10.74726151969935,13.615266462328691
1.316,0.04831275209608066,13.313478763200237,7.779799555914906,7.8241518775457735,5.403538148239022,9.083567182207844,12.574491665529422,14.619149417057997
1.32,-4.064789846075655,11.743696322795586,5.899067208915767,4.7170418123787385,4.533671404466077,8.103161118568096,13.543737675579905,14.533844082011456
1.324,-7.663200082369258,10.268405955834169,3.7112678441162643,1.5064182892483586,3.867200854489056,7.701239372798227,13.483214529489487,13.498959165612632
1.328,-9.641059975752341,9.126598533256583,2.4192000769771766,-0.9521307453223926,4.077918379032781,8.0180942239258,12.709610358908321,11.904667054070615
1.332,-9.291472865920241,8.522601257083807,2.90606398806176,-1.9834776166771917,5.536088747729082,8.928895274726528,11.924728447273083,10.287005681510436
1.336,-6.740135398677467,8.607655126698774,5.3397421577974455,-1.376459800216253,8.213103940642213,10.080048345140312,11.936062658792252,9.157271143600155
1.34,-2.969676821174744,9.436035602902848,9.11977954046597,0.5697487281631766,11.742570456998692,11.046999964124552,13.311766338822054,8.815607312516477
1.344,0.6209961386662144,10.909591419218486,13.169879407086228,3.2264282863507106,15.539435821546249,11.521938279387541,16.105312176285224,9.206941880310296
1.348,2.8962471162726615,12.75512812593297,16.41985184836267,5.91608823810202,18.916537643985976,11.437317643394636,19.775890250138218,9.902340261557583
1.352,3.5276542693050033,14.573831918201904,18.2389562727476,8.134525103163469,21.203060912393994,10.962505350798892,23.349782324879925,10.252247076484764
1.356,3.0989902897122192,15.961971301144331,18.615771357054655,9.626148826492681,21.881084473635383,10.37860470551459,25.761127855241284,9.675061535287568
1.36,2.7081292751472574,16.647383267487385,18.031302098869674,10.332192279172887,20.745377654652657,9.914219748052346,26.236652326823787,7.967931988464443
1.364,3.298749602826774,16.569079948785657,17.125533972536687,10.29545288756799,18.013403560211373,9.625876371886989,24.570472148293447,5.473123655859126
1.368,5.103697608345556,15.854783482212952,16.352854154565648,9.606012490507055,14.30029807230494,9.400046663206012,21.1842242037701,2.991388686928076
1.372,7.507672817594994,14.703552189892434,15.784525864817624,8.39592518489826,10.409144834547988,9.05867165255222,16.950558832629213,1.4476145569988148
1.3760000000000001,9.385327448267617,13.234511977417242,15.114718015638573,6.833758626778035,6.996465336138499,8.48105647562079,12.85701178279487,1.4546446412468867
1.3800000000000001,9.70538428439113,11.403418045115359,13.842607567396954,5.077570059874233,4.2918032872903495,7.670019522920484,9.651517766089455,2.9953335208010685
1.3840000000000001,8.079892438583556,9.070288819246343,11.542973797504601,3.2052369170296515,2.0539730123891786,6.728354281623979,7.615262593360967,5.401875374653173
1.3880000000000001,4.968561808307186,6.196099706441601,8.11165313744732,1.179929890531639,-0.17395958163160685,5.782109889079948,6.562300430661708,7.673779967534756
1.3920000000000001,1.4441691475121843,3.0437469653579683,3.888910802681494,-1.0846892359577396,-2.6357818225606024,4.921738602613914,6.046131398974467,8.980903024475992
1.3960000000000001,-1.340057238636291,0.23324605830384826,-0.3878122618289126,-3.5603691093074303,-5.023041152842779,4.201143166241309,5.6454019129269,9.093417455030249
1.4000000000000001,-2.6817166958580856,-1.424868896139742,-3.7857004891138786,-5.9321082241085605,-6.455427082029928,3.6948987343203044,5.182773337908657,8.509355281389617
1.4040000000000001,-2.588848701208917,-1.2658320892114716,-5.460051123238372,-7.567909528428572,-5.8514451447572355,3.554685659126335,4.785611602666904,8.197964176139976
1.408,-1.6621088440342646,0.9052167092741001,-4.912689722186769,-7.711086796231029,-2.5177834624410025,4.000128244795633,4.777539133252503,9.086038506973637
1.412,-0.6907255798641927,4.686570623482112,-2.138116836156769,-5.83865785202488,3.3718471725042036,5.209028710338316,5.470443835240076,11.549545196990039
1.416,-0.2070320559537322,9.230109908599843,2.377368442908846,-2.0153361375105305,10.694222985301167,7.144348114481545,6.963569044874021,15.174171749273228
1.42,-0.24981438631266428,13.590731235551175,7.798871826764298,2.973944408765419,17.771891713520745,9.442225797698484,9.051476529653883,18.912222813909466
1.424,-0.42565744389958127,17.091723592248854,13.173627164982463,7.845743197845877,23.04248197423567,11.457391397671017,11.281773713979419,21.547112541667957
1.428,-0.19399917001146605,19.513226349557044,17.670013122206,11.333317616546992,25.65844187330913,12.494397439633758,13.129830788089748,22.219862681014092
1.432,0.8000262096243205,21.015291947188416,20.75122834490321,12.74744900384212,25.710510715971395,12.136324245566357,14.198705328544747,20.75552814859293
1.436,2.532245895793949,21.864455765812636,22.22717624381221,12.278432230224098,23.984822787162557,10.491643794273841,14.341333440541348,17.653093274044295
1.44,4.6232537508153655,22.143547117457274,22.193906538137526,10.857042363191795,21.440612655514997,8.208234101113703,13.647159411448229,13.788070479944508
1.444,6.540990500478074,21.638133789017957,20.913131836663524,9.625517042491992,18.7167590443687,6.21122842560726,12.317102758357578,10.01167604930015
1.448,7.858434875398871,19.982799711756343,18.702757046556144,9.309684578816814,15.935552467566595,5.282638635226249,10.530453830106126,6.866719785904024
1.452,8.419518950228394,16.97009696789246,15.87710771906859,9.844463700819688,12.87359332696451,5.696146661293824,8.382360971148955,4.536001898054565
1.456,8.338844175724716,12.81787967632863,12.72610210154744,10.461164055309382,9.33395419500539,7.096331058170108,5.922366856588269,2.990504687464636
1.46,7.8505051976435425,8.203052650700556,9.499599026881697,10.186054606067046,5.453125771301529,8.694865218489213,3.2631768925857614,2.193840200045088
1.464,7.126856508844867,4.021310287950655,6.3821427618258895,8.464160088681638,1.7460283189693655,9.683791428073164,0.6779361436601903,2.2052042956674995
1.468,6.184760969763374,1.0083428663519953,3.4790961258313473,5.549293813625809,-1.1187634676671223,9.650534550844895,-1.3898192630276753,3.1201935980097915
1.472,4.924530882921317,-0.5799850417806738,0.8313622978712374,2.417575900508382,-2.656864815748122,8.773367974914436,-2.4389982415486884,4.90509668102095
1.476,3.2729759453354745,-1.049562536234589,-1.5351740749829332,0.24839850677471986,-2.8030849222013785,7.684706327772801,-2.114454761172965,7.259009655547743
1.48,1.3211759253472337,-1.0598141226291773,-3.5405554616227164,-0.2278170312729344,-1.888962037219244,7.0883659851224365,-0.4010161379155761,9.631599190120141
1.484,-0.635697628158141,-1.2445831535642355,-5.004170235770289,0.8586643811431713,-0.4097498546325369,7.345453816429654,2.3053434021258,11.415486310880624
1.488,-2.1758808059639705,-1.8645095796300666,-5.647117645654362,2.591389905865981,1.2579651407977508,8.269380988074772,5.3155052965157665,12.21082075416416
1.492,-2.9139769950443224,-2.6727441747043486,-5.15918195382983,3.7936482325703764,3.016353607770725,9.244364170968765,7.9197324875422055,12.011211937056032
1.496,-2.6678129255792555,-3.068835041215607,-3.3242738693024876,3.6985814304061932,4.995898587012562,9.582226025377167,9.676529215479604,11.193779192090915
1.5,-1.5542007114518128,-2.4627375752988883,-0.16215518401259033,2.3667925275776724,7.347554010617387,8.916573202819563,10.559788892431243,10.304055531712038
1.504,0.04811166670924649,-0.6413419370583142,3.99100284549786,0.62041667050471,10.022703927903422,7.408730387505784,10.896852764803043,9.745809264462878
1.508,1.667149550681188,2.063527467559652,8.517749903945514,-0.4477458386127182,12.682535482656021,5.664805228843761,11.134404668728166,9.549660576552924
1.512,2.9525538500547555,4.893313924660106,12.66819970294273,-0.11113741812823719,14.789280032360693,4.420932138480566,11.560521354003868,9.349668149212448
1.516,3.8400385177992575,7.01339210637525,15.758653738408611,1.5782476051508638,15.818694379426233,4.174650215325528,12.1296310062462,8.5815710676452
1.52,4.582166269800837,7.915120301258867,17.34653326433545,3.8427543551388226,15.476929395244952,4.973330243403325,12.489061260139351,6.799355575240952
1.524,5.621349997211837,7.665656612651219,17.32914752645229,5.641939777935477,13.81175304682256,6.442142317831895,12.2000157335915,3.9466278666459402
1.528,7.372398892897763,6.889992565003922,15.9458997829679,6.267625507729463,11.181257455573359,8.011378625415091,11.026626649649188,0.44549678217117616
1.532,10.008369619329642,6.48337209121928,13.69747567864033,5.724339607208094,8.121730444101559,9.21477453170155,9.12847918227817,-2.932093952478681
1.536,13.318863949300976,7.171323669456797,11.191306537384662,4.66230559334781,5.1737979415574955,9.870396443620848,7.029190005912824,-5.354755944729732
1.54,16.70275969600152,9.114920842911488,8.941628916463742,3.914491038043707,2.733369692161432,10.064653833767807,5.352562533977107,-6.255307078850819
1.544,19.32172351078043,11.758085878066595,7.197269198260983,3.929647161738103,0.9589321471703443,9.983810720186739,4.473406146425987,-5.543428850935925
1.548,20.368411918031597,14.00436130649905,5.856954069055064,4.447382827895126,-0.2500935761981964,9.729258915620449,4.2870169187353895,-3.6271619229519274
1.552,19.369091318128994,14.667743166897708,4.530111239939288,4.626688000596914,-1.1865667928832409,9.2498410968401,4.244074195346911,-1.2349209296444315
1.556,16.398110954989534,12.99775107098776,2.7284716367867077,3.5483092439062602,-2.1942973864515807,8.41085904740612,3.644883926081093,0.8827157424120742
1.56,12.105854444160286,9.041277414732576,0.13124283459001163,0.8031867688805505,-3.4754791927225597,7.1510233809895,2.0458242281838466,2.257348043272941
1.564,7.54937458824179,3.6891748362168073,-3.1778714067495457,-3.166782111653447,-4.91502526667864,5.6094355427558185,-0.4297899690536724,2.896473550358678
1.568,3.8531478405870985,-1.641748153264416,-6.6329277136028395,-7.193446960111032,-6.029997856527189,4.118441212722246,-3.062297027132445,3.2713680061388004
1.572,1.8307121693414956,-5.549637895889646,-9.325381465432656,-9.906438214846276,-6.097145437184736,3.0638334091490833,-4.824322322485386,4.0963887505040475
1.576,1.7036465508390393,-7.169464043181506,-10.334938070303906,-10.38183026752813,-4.440240201080087,2.6790208733436884,-4.856250345261287,5.971648890334109
1.58,3.03709916214666,-6.446535306275109,-9.104902331981066,-8.55997480195947,-0.7518680657867662,2.911259132615669,-2.8873900127327943,9.044362314109094
1.584,4.927824626869551,-4.047780520551896,-5.685323219307975,-5.228528485939023,4.696392722449673,3.4340339194459375,0.6063792717741308,12.840024231285497
1.588,6.378946365833144,-0.9692552907799836,-0.712791079775343,-1.597775985923363,11.086362729904067,3.8126194750730065,4.598107506713859,16.36966815231517
1.592,6.703459244317855,1.9448717728719203,4.860302689148739,1.2886142574325277,17.327449294269172,3.7351872898179863,7.948430552931313,18.497322565975992
1.596,5.777611204798177,4.320057726813502,10.126588692792211,2.9791937193012927,22.433192591111947,3.160107439710373,9.84382623470674,18.413947201777546
1.6,4.021507255066581,6.246276362306617,14.477368246472906,3.668101258986553,25.813487824752883,2.297703096330224,10.015312405293571,15.998667164700237
1.604,2.130631027149775,7.992592935141147,17.630752034190664,3.8883792352953606,27.3312746527763,1.4376719727697491,8.66096309534987,11.881676145841993
1.608,0.7079099328002485,9.647524309320943,19.47870262307515,4.060391360195354,27.131096662393247,0.7354663422811427,6.175021106517306,7.170636787761396
1.612,0.0010419617392471991,10.927059646593989,19.908625091049544,4.179787438235508,25.383071068563368,0.10317056005442282,2.8865320472632447,2.976045794017409
1.616,-0.14937806070884108,11.273603907004144,18.744895173927944,3.8176254563531984,22.121588369522215,-0.7347846786287846,-1.0222491679905943,-0.028827385778640746
1.62,-0.13617097210590146,10.20262722102052,15.883807482336124,2.428967377900335,17.31588744171495,-2.0326154810391017,-5.373163700636724,-1.7798412242837003
1.624,-0.2910432768235296,7.681252355919241,11.532018836309362,-0.2326137760974234,11.10486577487245,-3.790469075924193,-9.763900053274483,-2.667934744478771
1.6280000000000001,-0.66474971275602,4.283874081173053,6.346173939644359,-3.8515420239164087,4.009549092079396,-5.649782492037048,-13.472332765024476,-3.178434260593349
1.6320000000000001,-1.0185437909622124,0.9995114471867055,1.321923544832316,-7.597241091385513,-3.068780395527938,-7.004074543998286,-15.630324588584699,-3.551151606525309
1.6360000000000001,-1.0270172225118586,-1.2384925055584972,-2.5821535762243,-10.473752307949326,-9.129884739930276,-7.29401939455056,-15.626183927770398,-3.668490229269082
1.6400000000000001,-0.5742273346149886,-2.046863344173289,-4.8957962296954065,-11.773834704883484,-13.48790607079718,-6.318783265596721,-13.508664237313496,-3.2047652029523306
1.6440000000000001,0.06627955667772767,-1.8125985301430774,-5.879275283739844,-11.385658394658094,-16.06896267960292,-4.396124052011146,-10.124469757225597,-1.9272447696012023
1.6480000000000001,0.3205549347494525,-1.482271063358894,-6.361772596679657,-9.787027761976788,-17.37060348119121,-2.2548049927027023,-6.825456137106812,0.07455431410471647
1.6520000000000001,-0.35760788972311275,-2.0103587987059655,-7.2221457922223635,-7.7426850113315595,-18.067682355431316,-0.6942819081596099,-4.843749394443876,2.383550703903893
1.6560000000000001,-2.1082396894603335,-3.7818127765458485,-8.80801773251369,-5.899159002457964,-18.48933304653474,-0.2119218458501564,-4.67121173947271,4.460201401967424
1.6600000000000001,-4.466939654737871,-6.336280355081726,-10.644837793111947,-4.503916076934729,-18.300567547197716,-0.7898018515043077,-5.80551603544518,5.906311288471443
1.6640000000000001,-6.4956571386346695,-8.565908164735447,-11.637699375778539,-3.3929903860571358,-16.63393034164983,-1.956195199967624,-7.031396352917,6.600336176515157
1.668,-7.210506429871657,-9.298688395932913,-10.698982189316666,-2.228833179864523,-12.64211555172551,-3.092609877916402,-7.115062692440915,6.628505802520522
1.672,-6.078093020331835,-7.93483664469386,-7.42612309431388,-0.8040512444440537,-6.159638068422282,-3.7826797907764558,-5.510735853988081,6.092902083204535
1.676,-3.310977114087109,-4.7867385440949874,-2.424484863093312,0.7843968643264816,1.9293845685897395,-4.002616826459416,-2.6658833698729723,4.971591654680196
1.68,0.20044483684614534,-0.9348113518426544,2.922311715559772,2.197151199035943,9.893321583016586,-4.04956789226344,0.2512900175188406,3.1702946846935447
1.684,3.295422681288528,2.313600298279198,7.12939248179282,3.0940467195396195,15.86630365540259,-4.265033899762784,2.0421769097847573,0.7382852703431126
1.688,5.060383415408523,4.032296742318977,9.322244294064149,3.357176071383037,18.671801939557554,-4.770740199270222,2.14271989298868,-1.955889802134152
1.692,5.18047734706488,4.0171935031712565,9.576310114438456,3.128286208134341,18.281825343448872,-5.3965093385922955,0.8505797544348752,-4.295092450207449
1.696,3.9459266224230305,2.6817447611529133,8.67254830636557,2.6028175596702567,15.625714175734174,-5.873936435476935,-1.0422347260591778,-5.791465776475889
1.7,1.9112126456334408,0.5893740825495115,7.411506736523734,1.7035577999267844,11.86491158941135,-6.185574073457246,-2.984106825884737,-6.577609115352061
1.704,-0.5495261487444623,-2.0422614729777706,5.950229523306916,-0.09899108319586958,7.587812707752164,-6.805474811957538,-5.259006668253278,-7.652423432649812
1.708,-3.5076823716945,-5.535977224652925,3.5873114560927206,-3.6330756769266372,2.4334246815706138,-8.617757225350942,-8.998753230576767,-10.60354985433878
1.712,-7.374871689240081,-10.486789886087536,-0.8072246722749696,-9.529180358142185,-4.57260906535339,-12.462225496421524,-15.491950041598102,-16.805869026880828
1.716,-12.466407649726534,-17.16818979251093,-7.936719359398921,-17.610721103043034,-14.143237825565848,-18.51739710845868,-25.143958900234793,-26.45669503305453
1.72,-18.512797156484794,-24.991269677820128,-17.32674171023973,-26.55261193633487,-25.84870590612809,-25.885277407938702,-36.7272945079967,-38.005729190403144
1.724,-24.44459846449081,-32.39599416267083,-27.153618300148082,-34.091753957815854,-37.80012327932309,-32.67412588755178,-47.44922323958599,-48.40537651570412
1.728,-28.640649707063403,-37.31982545472965,-34.836167825265875,-37.80470022215741,-47.18179872345536,-36.64733482482188,-53.94696000949989,-54.20322331395437
1.732,-29.568913781624815,-38.04520163135203,-38.104874176140584,-36.12771718456952,-51.40978624520358,-36.17246713093846,-53.759882626036415,-53.01295985303568
1.736,-26.519242785377173,-34.00539305455732,-35.99453324404203,-29.133752631492825,-49.311965907548256,-31.01038102678649,-46.52300122212182,-44.642627262519454
1.74,-20.049731119730495,-26.123722487571285,-29.24618820024625,-18.647160081801303,-41.677478587736005,-22.533628449282332,-34.243685978639405,-31.2774421675158
1.744,-11.892304573943875,-16.490091202565964,-19.90522254058851,-7.585364830388244,-30.86857190761475,-13.219450580421835,-20.471324691705377,-16.586138606212444
1.748,-4.331188617497446,-7.5241943279161205,-10.369082576820801,1.1752266242701808,-19.717065837361588,-5.650457806688792,-8.77742925236089,-4.194392016543134
1.752,0.6911644869874181,-1.01712876057627,-2.3694773262977833,5.903690265010482,-10.289991270326937,-1.4724814088003768,-1.3001746089812514,3.7231872764841683
1.756,2.3263453125682645,2.4769197524474293,3.5938765016635443,6.565258755429568,-3.190647635937239,-0.8119436479792057,1.930555175675181,7.045464037671991
1.76,1.0737694156468933,3.628381201573575,8.11247320467919,4.5787130888747924,2.2814825841205675,-2.420399752130834,2.5870761441856303,7.278840932263847
1.764,-1.5607343215287983,3.7763586460750957,12.206753282091086,1.9643564766720374,7.310132494959362,-4.419103278107286,2.870133872147562,6.431284799479727
1.768,-3.8068083119151197,4.160272614429232,16.55873665432955,0.34792679059501097,12.623484298772382,-5.251163161758086,4.251435689595382,5.849310278642406
1.772,-4.396584473364328,5.3497452072188025,21.096120170883296,0.32764343372855365,18.00121779721576,-4.340512200147714,6.80926915953205,5.644124120480228
1.776,-2.9977443616685377,7.14169037989177,25.116977111963934,1.4644525583726136,22.470900692273972,-2.176472646948241,9.456608282658635,4.937574622081229
1.78,-0.16832512691416923,8.897114831261206,27.789149191003162,2.7983475640739925,24.999238635189613,0.1352087533377926,10.811731569536278,2.677733280850589
1.784,3.0716598910275934,10.061933553848576,28.68332867569643,3.5267487926075773,25.198803387631415,1.5566631695764954,10.136426888044298,-1.5231312850273753
1.788,5.787612391649418,10.541231354536649,27.995568683809324,3.438648665181063,23.577822860796005,1.6344145602924982,7.767033231239111,-7.030027167675144
1.792,7.515386031956041,10.733924102439232,26.366638095089,2.9084312443910676,21.200289845019142,0.6106265099842858,4.841458047803826,-12.472160837621232
1.796,8.32561661366617,11.24412232715622,24.464090156143357,2.523798453521522,19.004268998090993,-0.8697189271915704,2.558791078165086,-16.4413308933772
1.8,8.597455561960032,12.458482100302717,22.600401146495642,2.6351408607260964,17.23786016799204,-2.2226596496366255,1.4582597508197068,-18.148779875314176
1.804,8.679519163994883,14.246216828784782,20.629391869107167,3.1237705227285915,15.37629523018768,-3.253771078254431,1.1656990333831345,-17.673633438791512
1.808,8.640991901747384,15.9365866895414,18.141220705139858,3.4989664338427247,12.557054668305682,-4.191674070558292,0.7206339700405806,-15.722171928971875
1.812,8.249896624038229,16.590643619726507,14.819676482235991,3.237394252669219,8.246482137617932,-5.4250429842104495,-0.7313431670554564,-13.109116326514595
1.816,7.167932961737279,15.429591536961198,10.72644478280381,2.122019157998693,2.6995881807824844,-7.146905148920268,-3.3321440649506258,-10.312991091000185
1.82,5.197998615772121,12.198694875625733,6.321700057840644,0.35483471072893735,-3.0704510181913065,-9.153981604364162,-6.373362540940434,-7.360848251721109
1.824,2.4361156853719876,7.315401120927163,2.253456240289779,-1.601854294101031,-7.771174919955229,-10.912004967778557,-8.691973613821574,-4.0478341278330845
1.828,-0.7544256605715418,1.7567743744575637,-0.9297231592881872,-3.3312094483999317,-10.446442875974753,-11.85578306471507,-9.346266618744266,-0.28448517878769053
1.832,-3.897277717938323,-3.2411854237689113,-2.935314817697872,-4.688932456341718,-10.845210879243496,-11.716132651647058,-8.145597708967216,3.6965175147734044
1.836,-6.563679971637612,-6.5477671787157306,-3.666540636242644,-5.8033227038431505,-9.35029552459855,-10.673649213971657,-5.722296901938535,7.40502983802844
1.84,-8.464764769492831,-7.466911106880616,-3.048035351708677,-6.872197352105104,-6.566638462500123,-9.266315985407346,-3.144306394036903,10.356220688808207
1.844,-9.446380927731752,-5.9329115817618,-0.8917194082914648,-7.900293565867287,-2.874514241284487,-8.102257256306984,-1.3006109935358836,12.329795727715464
1.848,-9.439983859709173,-2.5312739414102907,3.0363708228405812,-8.588756390387061,1.7268954612918606,-7.560290491344858,-0.4480898899855674,13.434631553863255
1.852,-8.424543344077847,1.677083307862631,8.767301356317148,-8.449816656891016,7.39978583656557,-7.62350760031768,-0.1635185568648012,13.938034640808837
1.856,-6.442502478128063,5.499866920151817,15.858029199279372,-7.07759334747243,14.039801815814826,-7.9376029452214425,0.29752159912914067,13.988445859945841
1.86,-3.6671681579455253,8.005441736279863,23.280723391279025,-4.414814436368033,20.96312728560497,-8.048854955535717,1.4512265614084754,13.447841824210627
1.864,-0.4501685208779236,8.830688447225839,29.616598832883028,-0.8442052548452921,26.964510381227228,-7.666072641093706,3.1813205831267624,11.967446302237931
1.868,2.726452720834004,8.274192451481213,33.50285826799427,2.9539995790046305,30.751105075124542,-6.816747771459632,4.708492569156988,9.269825971000955
1.872,5.39503047771359,7.1150176452511005,34.14740099853407,6.295480649323508,31.518949542664814,-5.818052530892601,4.953270070516737,5.450313886414278
1.8760000000000001,7.271278001706378,6.221691661368368,31.659085988919287,8.758021630614166,29.32994532803059,-5.093614492459892,3.102652037256121,1.0802297818272564
1.8800000000000001,8.340317713133572,6.115549819163789,26.9983544957322,10.279082136311445,25.06510341635112,-4.955621633598639,-0.938981019887251,-2.978495553101311
1.8840000000000001,8.800077126260021,6.7048728514218965,21.57273988547604,11.05603265308855,19.976013977000548,-5.459768472290307,-6.436142729881794,-5.957932263237581
1.8880000000000001,8.887677323225489,7.329008085519945,16.656822577690036,11.326955966394962,15.077486195532401,-6.398404153263982,-12.10049474347943,-7.547819477396388
1.8920000000000001,8.70300602044972,7.105763925972042,12.921107660279631,11.189351948041804,10.72697889844676,-7.40229385920793,-16.609891243773745,-8.016903476847801
1.8960000000000001,8.135723505706665,5.407928187759353,10.282050527853244,10.557691940400218,6.596187043680402,-8.0926525677678,-19.123818659357312,-8.015868277865138
1.9000000000000001,6.924436816032539,2.203102043336912,8.096457740255573,9.249069431542921,2.0199925345505108,-8.224773181189448,-19.57879883282112,-8.176961003140605
1.9040000000000001,4.809381576223814,-1.9251590878257048,5.585065449775357,7.126647848613175,-3.4949096979080423,-7.75843337765582,-18.636981542246758,-8.74072826739257
1.9080000000000001,1.6808336397841686,-6.087473938871881,2.2560008519540133,4.1994267652148665,-9.890913050289782,-6.854797573003452,-17.335642990930864,-9.42115080767826
1.9120000000000001,-2.356650492145718,-9.53701880423796,-1.8427428482127652,0.6376898649059513,-16.48185682104213,-5.803964077758792,-16.59006499509087,-9.57195081605687
1.9160000000000001,-7.01707511793802,-11.9924171667667,-6.127696399938031,-3.2782829047300766,-22.19105587548529,-4.921622278006907,-16.771951627540147,-8.55601236972143
1.92,-11.919731537055895,-13.665318120732536,-9.723644276083178,-7.219263747535479,-25.95719147543241,-4.460770431203855,-17.570385474479735,-6.110141266175106
1.924,-16.65053244664091,-14.985059191121309,-11.805867312649752,-10.821409946255699,-27.090531806532454,-4.549577281750317,-18.189176028536167,-2.511567492441827
1.928,-20.768538722652465,-16.21187423880565,-11.90805516171713,-13.678023181375465,-25.446633108370406,-5.172754620761225,-17.7994165764012,1.5162082558035763
1.932,-23.784237612210518,-17.174214712572848,-10.063480034316854,-15.358385881536833,-21.39885722993131,-6.1824450279546,-16.022807380173617,5.077860921776846
1.936,-25.185889971419556,-17.30269615598081,-6.742938327763113,-15.497347415284821,-15.676916923762292,-7.336588791244139,-13.194597902673195,7.401245259643474
1.94,-24.56674423223285,-15.9536513408043,-2.6573070341792118,-13.943231936958,-9.16216643393409,-8.35887304060634,-10.26945658834029,8.019644503664495
1.944,-21.82070654444965,-12.833657138329272,1.4879913437143841,-10.88662204069351,-2.7192037124650597,-9.001352148507067,-8.386106027297501,6.800976792681013
1.948,-17.314120646914034,-8.285764274249232,5.168634137333356,-6.87779752386723,2.9125950805359935,-9.111160356354048,-8.305313982051302,3.8718223688406397
1.952,-11.890480836587358,-3.249485349389033,8.102561342068839,-2.6721143808053966,7.1871016878699265,-8.666875392740621,-10.002345542871808,-0.4605802000487529
1.956,-6.653553084061286,1.0946877038300045,10.203419440040307,1.0381133392988886,9.795500624538818,-7.780491271927531,-12.63860047658818,-5.733249461296509
1.96,-2.6140680816563417,3.798598026442505,11.454029482511942,3.856776836871177,10.679491221729677,-6.66740814386776,-14.964202343712714,-11.32107840374556
1.964,-0.3523504655472607,4.504936222355809,11.798847514301997,5.764533208046032,9.993294405446704,-5.572202960249342,-15.94479166218025,-16.462192520054487
1.968,0.12873829111072155,3.5218042064470865,11.110054122953443,6.98163475495312,8.008395457165989,-4.691789786369554,-15.292015027408524,-20.384894868584524
1.972,-0.7027667836805449,1.6055137056214335,9.25472909837481,7.707615489138334,4.9867260795585935,-4.111022857699936,-13.600405016719378,-22.52212009527784
1.976,-2.1869264432937143,-0.4048050823134872,6.2303712649481895,7.909735007773179,1.074566185603544,-3.770451942827094,-12.0010498566171,-22.718534771621762
1.98,-3.781314816007125,-1.9215526091993524,2.25788660067019,7.294157261479086,-3.7263887707968024,-3.491577232070995,-11.53475556489866,-21.31147525537699
1.984,-5.241130985294149,-2.7686048470409332,-2.2413226160560953,5.500384714423035,-9.494832083122219,-3.052072943452913,-12.58586801241563,-19.012897163869184
1.988,-6.614555858090398,-3.144805222710147,-6.804326909368228,2.3929762168331763,-16.262834725842367,-2.2955768739984705,-14.702925538493218,-16.62377324021645
1.992,-8.085262981612686,-3.4434307958131285,-11.11425611999448,-1.723124741956326,-23.861205206042087,-1.2057626608366263,-16.879889761514278,-14.693418902792928
1.996,-9.774453909488784,-4.03329866744707,-15.099441497235148,-6.114215522696213,-31.811217260988997,0.08894666800279083,-18.123043966861133,-13.293856567264356
2.0,-11.627492908490467,-5.108484134809714,-18.877981419619573,-9.88331271620109,-39.31151495758968,1.375759325161198,-17.971276398319333,-12.024060007156095
2.004,-13.409771340455109,-6.629407222610553,-22.53610027146351,-12.33565836882508,-45.323879109845166,2.469038951540824,-16.653743641930305,-10.24233256441994
2.008,-14.797764949642442,-8.345752567975978,-25.87156935169469,-13.244203343774643,-48.75549261204469,3.2960263202930946,-14.815441307539004,-7.422847055717284
2.012,-15.491504790132694,-9.861539898397496,-28.2645786696462,-12.856317156948535,-48.6968509850667,3.913988401433926,-13.000775301554313,-3.4699161912290037
2.016,-15.30110970319356,-10.726916658391929,-28.799619347381395,-11.66229191814,-44.67778452299308,4.442352309200032,-11.23721149206358,1.1493778922351794
2.02,-14.202224577589504,-10.542605795774307,-26.625318768082707,-10.073785171633972,-36.858968532171275,4.950505303504542,-9.002863131497179,5.528908847148841
2.024,-12.354104050790966,-9.057140439384057,-21.38786822886641,-8.201674294202803,-26.08220163801343,5.382087082427461,-5.600483787942267,8.652012944811531
2.028,-10.089833372907833,-6.250140512258895,-13.537088262160523,-5.88651070114156,-13.760868396710976,5.557435731070655,-0.7280288674528492,9.77950051274047
2.032,-7.847594245342407,-2.3576255611797023,-4.30804957969076,-2.931022293548267,-1.6040551427981882,5.278316253736193,5.125510996676894,8.739738725613961
2.036,-6.007141726168811,2.1844058477893213,4.65047958624109,0.6382997583482393,8.762089074609321,4.4818497818605465,10.725545820332172,6.001165848583469
2.04,-4.69613963746815,6.8489947779505655,11.82563008517036,4.457378938749116,16.16172844955645,3.336456712522704,14.572635096436898,2.4930271592820645
2.044,-3.666481506290438,11.140236064297824,16.32788231380391,7.953082101021664,20.113503049694373,2.223068377823438,15.575407801016809,-0.7504307546375912
2.048,-2.3499969263857565,14.675178209982732,18.08772320985736,10.628291797230759,20.858407610469385,1.5835723967602462,13.545099629734977,-2.974755851723785
2.052,-0.12863563243354292,17.203889034489748,17.700378901197837,12.316435549262224,19.17428671687594,1.7143305458785107,9.259417207576462,-3.9572529519318778
2.056,3.2847527010605972,18.578053116447336,16.025521957534693,13.231084252489836,16.04254720389372,2.6181746938846118,4.083891448963641,-4.024027668791632
2.06,7.532983661809794,18.704732846010984,13.739860569328812,13.764673250220767,12.2929365336513,3.9851826790145424,-0.6416726005704732,-3.827570632336119
2.064,11.585395907196698,17.540464380081175,11.078444839281474,14.17421603701996,8.372169366454727,5.334161998726813,-4.106554326786409,-3.977102370572993
2.068,14.081219113103998,15.123431787917525,7.8488583133671455,14.354982301535074,4.29987418762903,6.2296507082483,-6.204961907797497,-4.698363174966744
2.072,13.910894139056268,11.623477001529409,3.687291928140894,13.865009357384679,-0.17908593471565837,6.463925059246321,-7.3465753683876756,-5.689368836837957
2.076,10.764015345564076,7.370364640454227,-1.5907496567106136,12.20591115801335,-5.32186658855062,6.103785118362794,-8.060249268352436,-6.246530586631934
2.08,5.33639863877022,2.815613583862614,-7.738145547868044,9.187950380690836,-11.116302422929948,5.390438403318512,-8.644357460087122,-5.608961053587109
2.084,-0.942977498360392,-1.5661480664118699,-14.032252221693852,5.147604122066468,-17.123807934451634,4.56923804910457,-9.03173275529798,-3.358822264228138
2.088,-6.539415027862901,-5.400984091404553,-19.47397650918765,0.8686326397262292,-22.525826224517232,3.738207562277239,-8.910999427871047,0.3069472952399792
2.092,-10.457342982680984,-8.503484969877718,-23.127073175970054,-2.7550860796764027,-26.360602933515565,2.823296120892337,-7.973600624313804,4.578777382482713
2.096,-12.572731504889475,-10.888342813246027,-24.447577072809054,-5.13578147625276,-27.877022693922754,1.6796003852100512,-6.121627506395271,8.31317129047602
2.1,-13.494325283992566,-12.706513231081317,-23.48498719922827,-6.24822440806247,-26.857992903658896,0.2402280117553346,-3.539204531195537,10.463197518357902
2.104,-14.057944673436737,-14.13759016095264,-20.86384642459234,-6.57351468872389,-23.75943887618564,-1.37392858451949,-0.6220178806097465,10.468650893029007
2.108,-14.774411594280878,-15.29137524707312,-17.561615709976195,-6.776758928191157,-19.59604347223126,-2.8692281993239703,2.1502382889329965,8.43154066941247
2.112,-15.543184995637603,-16.145209931003365,-14.550035873186744,-7.2981679170875395,-15.581975769574,-3.8971144443016783,4.333406556376758,5.025580663575283
2.116,-15.774642241471497,-16.532124808750723,-12.433256324896774,-8.08831278783282,-12.669449271414805,-4.206897203774588,5.603774866121057,1.1927241488651816
2.12,-14.822533274685952,-16.199207073655998,-11.24936076416816,-8.641401988046255,-11.181250283598501,-3.762028346191528,5.8077158833611975,-2.2250650397370464
2.124,-12.436913458242884,-14.907106484907217,-10.509724644732387,-8.284605394942673,-10.701998855226975,-2.7514664956815977,5.00921931917901,-4.744387103276722
2.128,-8.963885278530142,-12.550155791103634,-9.482480917615248,-6.568302945665664,-10.292100783761043,-1.5124021432648078,3.521156727689913,-6.303373924007019
2.132,-5.185714322104673,-9.257762745870195,-7.592928568365323,-3.540076672335317,-8.939745562453936,-0.40682197946853194,1.8802410291132219,-7.141440347834987
2.136,-1.9176515688432119,-5.42636060918494,-4.747725114668356,0.2365490035529092,-6.058463796562364,0.289027390893807,0.7121451570008048,-7.585712327964757
2.14,0.36475568493938226,-1.6594336276466493,-1.4413919759088003,3.892179274158025,-1.8026704929325206,0.4381270859344113,0.48986264309451144,-7.860995410897203
2.144,1.6686665066055184,1.3903780833916244,1.4301860101811599,6.582568893771395,2.9495139246685085,0.06453083385713398,1.2929844340485488,-8.000454491302548
2.148,2.3466823221600634,3.2353159090116606,2.960593878578038,7.7787833590218725,6.9321157476226745,-0.6500256336189523,2.695780370272132,-7.878050814724361
2.152,2.8114894100363017,3.740830365655711,2.6426490994724645,7.407887491452584,8.98687990645908,-1.3739245672113611,3.897517673641687,-7.314201905835034
2.156,3.303141403478321,3.1921525579869012,0.5816000944398638,5.8093664636098765,8.486045594221196,-1.6703823432026184,4.073518862824585,-6.20313010423672
2.16,3.8270134192259775,2.179223458378374,-2.605076251751143,3.5517138959678505,5.502037745980488,-1.1223633577064902,2.776349345708468,-4.60006981268134
2.164,4.2626175433763365,1.343382011224321,-6.124414086484194,1.2136157106870087,0.6899641374186558,0.4917029778143842,0.19999320152146538,-2.7263299697206094
2.168,4.5045169919787895,1.083655658963039,-9.415168130439724,-0.8040010261520365,-5.031887414171024,3.0178192094344922,-2.8669835848088496,-0.9119712211926299
2.172,4.521067219004806,1.3747662164009853,-12.37682079272804,-2.363871680174043,-10.812129545360904,5.865284904622513,-5.381569819079232,0.5104018756376263
2.176,4.298493345934162,1.7994051494379164,-15.291575760059004,-3.5662059087701437,-16.05733809110825,8.14626824671359,-6.506507170966188,1.3209076839996214
2.18,3.7365343466093464,1.7801819815920226,-18.506491247937902,-4.641145178702459,-20.42726908882696,8.99818283176819,-5.969747772497158,1.4859418694228452
2.184,2.621445068171738,0.895847043116305,-22.060710387200743,-5.796610156857014,-23.696378473312052,7.977990191096978,-4.129096904698372,1.164972521171876
2.188,0.7326965978008957,-0.8871543033549187,-25.505990184001575,-7.09994029417021,-25.631461317109938,5.309648424794204,-1.7365975958823583,0.6403030991552896
2.192,-1.9614820927668006,-3.1889823325880116,-28.03589574329544,-8.442086680705415,-25.99100891744365,1.846132626742019,0.4486768883784862,0.18601429635896238
2.196,-5.170542829753629,-5.416377486212355,-28.868106199590784,-9.609932583256295,-24.668921783652195,-1.2824341300749893,1.97711620581822,-0.07349631742590645
2.2,-8.338936945418368,-7.079894400253352,-27.67507393823462,-10.434335674102613,-21.879258322947635,-3.184494011294646,2.7857314654929723,-0.24317997501714217
2.204,-10.881422698315987,-8.048711457255877,-24.801808654454817,-10.921785331396904,-18.232658070390585,-3.6071812692009644,3.0329395109947654,-0.6228119715938192
2.208,-12.475589676928337,-8.6037073260419,-21.149526348541826,-11.29263357611842,-14.616342023936795,-3.020411015344507,2.8283867703557917,-1.569514785854608
2.212,-13.210793445094964,-9.247640347228298,-17.768560609480005,-11.861978724852861,-11.879848215853144,-2.309612668771024,2.074308498207756,-3.309159090668345
2.216,-13.46722341895503,-10.373786086589803,-15.377051346256735,-12.811598630286426,-10.473143361448592,-2.2340655845446236,0.5312826027853816,-5.791761596567085
2.22,-13.591091804841994,-11.983483397292503,-14.072864418976451,-13.994742749109037,-10.229886452295318,-2.964376046361849,-1.9337262364769003,-8.665782404455854
2.224,-13.570617192168129,-13.61179194096485,-13.376226802611654,-14.90313193102702,-10.428799529363232,-3.9627793923273202,-5.078237414113914,-11.392258941600971
2.228,-12.940442127108895,-14.520105010797238,-12.57798443042725,-14.864824723766333,-10.144065149430844,-4.298903580247497,-8.214777592990913,-13.454666233363128
2.232,-11.011496648481796,-14.068264633605509,-11.182657253582533,-13.397691189825991,-8.727005538116373,-3.2172253286987598,-10.43350124281983,-14.55505644964478
2.236,-7.332657344979623,-12.079956886487139,-9.205229009073832,-10.540524627835907,-6.199961492420698,-0.6363746766487566,-11.021163608369761,-14.706396625104105
2.24,-2.128196318576272,-9.016783043628152,-7.180916194181691,-6.975102725757324,-3.3552157119154344,2.7089302211184076,-9.85518463002154,-14.181037681513203
2.244,3.574526371378653,-5.853453764190249,-5.888366926225672,-3.825135000401019,-1.4737996387659678,5.597166473493417,-7.531409413495794,-13.344056740751569
2.248,8.239239838732857,-3.705660685031603,-5.958316870098997,-2.2108446754559736,-1.7770723664003754,6.939928735095236,-5.124595065780227,-12.464222736360284
2.2520000000000002,10.415957211426246,-3.3866754343686694,-7.578345879675453,-2.7716907700345814,-4.856355804079612,6.356996908449673,-3.68653773872461,-11.60492417042451
2.2560000000000002,9.354650638562106,-5.098025525815274,-10.427794885464209,-5.391324031717318,-10.34979913079951,4.38076902468265,-3.7338469198811026,-10.64659773053478
2.2600000000000002,5.323458923233886,-8.396135105929943,-13.858217964214532,-9.26445101420137,-17.0245443314343,2.166381552854091,-5.011859915450714,-9.417892155447419
2.2640000000000002,-0.5197112843811738,-12.4305494966884,-17.18529934147955,-13.247024468645066,-23.224186555162078,0.8881368319400735,-6.656031188933753,-7.8500119329133895
2.2680000000000002,-6.631057411418396,-16.33136217776007,-19.94283924629167,-16.31739240868717,-27.489692035023268,1.1410383446890364,-7.679172954198862,-6.0693591222772625
2.2720000000000002,-11.685110067826486,-19.540143347943967,-21.976551134407657,-17.915277122814246,-29.072218566610445,2.6847321921245566,-7.508714207735352,-4.367069790761207
2.2760000000000002,-14.986497617987254,-21.931081430236816,-23.370743044590085,-18.024480161348833,-28.127783785512975,4.64889942025593,-6.283386047812201,-3.0675481341256727
2.2800000000000002,-16.53615300571954,-23.693979008398003,-24.30556882158953,-17.02463650940524,-25.541461348587177,6.051152340622139,-4.768161806991429,-2.371355840934939
2.2840000000000003,-16.785336842642437,-25.07291401642817,-24.935336733691884,-15.43760611677169,-22.49026677193831,6.320360879715167,-3.9366565077401106,-2.261347472699754
2.2880000000000003,-16.275191090302968,-26.13599721583904,-25.3621604773395,-13.725176726544419,-19.968633305871435,5.5200815744378815,-4.460300861555027,-2.526371672321261
2.2920000000000003,-15.371034997752531,-26.706693070277538,-25.677774100910824,-12.198283916984394,-18.480998233842854,4.191616207535162,-6.374252060835204,-2.8837061860382107
2.2960000000000003,-14.20522235680815,-26.498337139963496,-26.001641966644797,-11.02312415555258,-18.004727213795206,2.9463930891633936,-9.082314754526749,-3.140600031884418
2.3000000000000003,-12.795805971657472,-25.3521980867298,-26.463399562525694,-10.241440227661059,-18.167548120021365,2.075227345379062,-11.677514622242825,-3.3002139580337086
2.3040000000000003,-11.200493309631568,-23.415825429500615,-27.105842468008746,-9.748825319528464,-18.49520250581088,1.43162318059899,-13.373184985490923,-3.547880989428279
2.308,-9.598025348655483,-21.142765905088055,-27.787823175343988,-9.277691852500311,-18.603496648636337,0.6198794919256443,-13.821905446737674,-4.132912680621985
2.312,-8.2291927473768,-19.081231098382005,-28.155862844313106,-8.439414588711259,-18.26408962567615,-0.6552732570569333,-13.16826678484324,-5.206806905903505
2.316,-7.253094960107376,-17.57725692669024,-27.736156337329476,-6.87772141017814,-17.389089728484464,-2.322519113298995,-11.853179913952658,-6.707699764512768
2.32,-6.660542632363928,-16.58762950491706,-26.145364061127736,-4.506213313288583,-16.016209472210846,-3.949257258544776,-10.331638420447462,-8.355430194709982
2.324,-6.293296739840741,-15.71706359860383,-23.305096281407316,-1.6733576986420644,-14.326683340631462,-4.996264293377067,-8.870332499382016,-9.753543975599172
2.328,-5.979881348185074,-14.485843458518616,-19.55905182679794,0.8662959994784956,-12.685476205138684,-5.1594818584882205,-7.522601718351382,-10.549692018485388
2.332,-5.67920296527879,-12.667121942876065,-15.601434993521991,2.236689207361451,-11.607172358824243,-4.552293096702897,-6.233958922159729,-10.549559267930647
2.336,-5.499865470266002,-10.476317976556345,-12.216714723550467,1.8803867452992336,-11.57945759763868,-3.6065028622984983,-4.963477717185697,-9.724102313473622
2.34,-5.598990749890589,-8.49471082137859,-9.966367614377077,-0.09287903403202336,-12.792430306700169,-2.7731498873677083,-3.7376642867420173,-8.130531612306129
2.344,-6.0163432093185065,-7.34590627391259,-8.957992711469444,-2.8546854259469114,-14.902738642151121,-2.2167465676749316,-2.60055426958354,-5.802908105406914
2.348,-6.566534755505785,-7.319524753296378,-8.831167902510174,-5.175286688698463,-17.008906913989506,-1.727192992021628,-1.543346890251314,-2.7043188577954425
2.352,-6.879955355428251,-8.163397630951692,-8.955667067293689,-5.959243829386708,-17.92270749684519,-0.8977981783817768,-0.4944957838920345,1.22054627797894
2.356,-6.5787410012099485,-9.168213601921536,-8.735720988511503,-4.7174911658045175,-16.650051995810372,0.55145252591592,0.6142855691115301,5.926562943967042
2.36,-5.50090768173618,-9.519099988075368,-7.887117764911181,-1.7410927173130517,-12.867401391350882,2.5191113386646293,1.7393940707845559,11.161235494341838
2.364,-3.8263797759310023,-8.711134105546591,-6.542075543034002,2.1139735941409867,-7.135767744975624,4.525880759313054,2.6971511252222626,16.45921914283008
2.368,-2.0345273474806334,-6.811917801050299,-5.162020337067247,5.8760790068673145,-0.7327703869043489,5.961501360775856,3.255666759398423,21.254481441464463
2.372,-0.6952631396834477,-4.429037735464988,-4.318829671682806,8.88063494850769,4.832917501563713,6.43407332847903,3.3049988883665264,25.05415761202181
2.376,-0.20245289884775275,-2.3964098002924175,-4.4537512115547315,10.93770013557986,8.380740945909736,5.993413891339969,2.992126268412676,27.57673951028903
2.38,-0.6102395875789455,-1.3722967838563704,-5.739024001358416,12.176897830387986,9.413950078919243,5.065443574961023,2.6812564601144686,28.775243831595674
2.384,-1.631725607143494,-1.5475744835694059,-8.055154253382625,12.74067284288492,8.143806534027817,4.171503616437576,2.7301702054763837,28.75352012842569
2.388,-2.7857036179968304,-2.5902815422393815,-11.049825712995357,12.566346069137353,5.22489092630974,3.616658686679216,3.219888595321436,27.65139240872395
2.392,-3.589811000387897,-3.8124466232623035,-14.199828860176808,11.436056159213535,1.419001450742826,3.3725704203880014,3.8514720384725933,25.608062711202535
2.396,-3.695434575526633,-4.442534007944687,-16.842999927412393,9.259541642021532,-2.607956594172265,3.2288625784158285,4.126523921854755,22.83594459679091
2.4,-2.9508543806147145,-3.888990218774609,-18.235236697851292,6.354159167027717,-6.295907733818012,3.068318472741339,3.735546783733298,19.734452825500682
2.404,-1.4176158767140237,-1.9239792004047445,-17.70264653827178,3.472390355492678,-9.116738932031012,3.0451902545344183,2.8989466668308523,16.89870418263132
2.408,0.615325769677554,1.2175857435807416,-14.923843797734662,1.4712751937881308,-10.6030191060687,3.4777695512275386,2.3658766237261943,14.922072920703101
2.412,2.613474453533229,4.8220257354144564,-10.251545177784578,0.7753084115523166,-10.556135073174914,4.495534433839794,2.9678504961511862,14.031264677600575
2.416,3.838889381100273,7.78569932324109,-4.880755983506333,0.9635485977842109,-9.34499690679911,5.680310342036137,4.931059530257357,13.745211272321512
2.42,3.5073603090646372,8.843224059357283,-0.6791651681260191,0.7853319931747365,-8.041043539834618,5.991449283939119,7.377890716341767,12.822943447327305
2.424,1.07628999821992,6.955062972083795,0.4027943906374958,-1.3039417616107585,-8.155805543034376,4.150408168091644,8.441436203223134,9.66385311974392
2.428,-3.4205752419109103,1.7771412337592096,-2.838767728835137,-6.308301374786993,-10.980355823255422,-0.6579719728854343,6.095976643365361,3.0799009041739396
2.432,-9.17522989533569,-5.983454370223853,-10.14424058160796,-13.974970388234851,-16.789645052544984,-8.13067440298073,-0.6306395979232775,-6.892367667001793
2.436,-14.712103889073035,-14.556879773890103,-19.578254670600586,-22.60675895046529,-24.361469234340916,-16.6464700822728,-10.725077678621005,-18.59299703892617
2.44,-18.340442612312643,-21.565655364599138,-28.05673568899158,-29.567066069358702,-31.176011688757853,-23.742696737639562,-21.17238723122955,-29.068671352398667
2.444,-18.785033543072757,-24.83200888575692,-32.46787910336059,-32.27068518149383,-34.31667597620503,-27.089113449457045,-28.01934964113866,-35.088197751694906
2.448,-15.712859399342051,-23.227628276028213,-30.9416638211394,-29.226746498166904,-31.715695226788398,-25.50595064939671,-28.110555598598808,-34.44395728571112
2.452,-9.89091548010498,-17.168702009290882,-23.67479578578798,-20.646893213486578,-23.14072945490284,-19.49499002580137,-20.630422287177225,-26.930620557571956
2.456,-2.8811473551340328,-8.488010471674329,-12.892002651767712,-8.366463668997085,-10.411487277210199,-11.008990330965617,-7.616099601563974,-14.509994545454731
2.46,3.5758430457592,0.27960847203451067,-1.93838503339407,4.8392287212857354,3.2933441957991363,-2.5798864719320136,6.886219386018752,-0.5478210126405543
2.464,8.202628700710079,6.882525329331429,6.109399508482284,16.226345406874998,14.716059065708237,3.7610807097530596,18.634369580097996,11.537212566604637
2.468,10.553171476366458,10.14661919421826,9.64493095438013,23.91757284705716,21.759030173829274,7.20659560185436,25.033845889583972,19.56655650554137
2.472,10.962128643461881,10.227538398584215,8.99449643713001,27.2959417311547,24.10485092665226,8.225546060226861,26.064016741013802,23.231704653854706
2.476,10.180687434208323,8.268241832863055,5.978258893978477,26.90524696112925,22.978870551937916,7.99899753452064,23.843929489852485,23.80334963241728
2.48,8.944504268333958,5.7002155678338795,2.8480630505110867,24.008760014879613,20.275876460539962,7.604655726724104,21.147659333301704,23.144647210929406
2.484,7.72148263954233,3.594884441309091,1.2049968937606081,20.055626743949915,17.582258538176575,7.444080958131053,19.768607935610248,22.600375582197444
2.488,6.719050770946751,2.3684912097522783,1.4289409336286099,16.249755768740215,15.591683954109953,7.193754520848643,19.65922101065655,22.356499595218793
2.492,6.056224298704251,1.9094687319038712,2.8474259138965863,13.32298363978964,14.147069654851748,6.241418572676594,19.27997956109425,21.570549333266058
2.496,5.9192691270440605,1.9517088881980271,4.44433471100524,11.502924583099912,12.744039870513575,4.283726908135122,16.864402024809806,19.12930510289118
2.5,6.542522516164183,2.403631187204155,5.613395539786552,10.612937030913372,11.106431094572827,1.6824004632276228,11.774327307752628,14.552898445413803
2.504,8.035146755747803,3.4326718647282632,6.518678542391058,10.253984115109688,9.465897352278603,-0.6283581299780963,5.105326421213022,8.498985193264502
2.508,10.195631566599786,5.290551881680358,7.874383445883495,10.011640063637628,8.41058304178273,-1.636319101552317,-0.8285981854280635,2.5715552950365463
2.512,12.478119075747202,8.043513837464275,10.33899694170782,9.645667574558502,8.467675178253216,-0.8301674737720077,-3.7884343976293167,-1.4460233867650913
2.516,14.195324590106964,11.422022358940012,13.95040209705985,9.208308825804806,9.728537053235527,1.488425620465705,-2.882959333218878,-2.5012876132025212
2.52,14.850560725462003,14.881827318476326,17.959599735486563,9.020813323118091,11.772947207623929,4.326932953084224,0.9404181873762809,-0.8118571528929124
2.524,14.398774246932533,17.827916626794263,21.17809704789761,9.504486087412488,13.926338982541552,6.491964304537078,5.471026954164472,2.264492350139335
2.528,13.261278863317841,19.84388266973042,22.60627892449247,10.92371157905302,15.654925583047998,7.15688246665195,8.499007939184821,4.948536043564218
2.532,12.071765424074613,20.79303616244556,21.94973131196457,13.167575290254945,16.832720152249976,6.201302003504225,8.994291002708223,5.945090686125809
2.536,11.31117671455388,20.76391777030517,19.716975296631517,15.702905768518235,17.710069432202545,4.163280030132228,7.528407826894409,5.050207002652542
2.54,11.025093827209673,19.932303741518922,16.841098828536587,17.729176506629756,18.607617397596414,1.8536267973177019,5.7257428297491515,3.1496586341485227
2.544,10.797773665581246,18.46529513521091,14.092158417778819,18.4847075169057,19.557475590809645,-0.11220725363091333,5.153688727865301,1.6400952008295917
2.548,9.993067787735754,16.51788788034912,11.642323986571682,17.54915835557415,20.13991207030699,-1.6082378438711658,6.34674115635471,1.608886967966896
2.552,8.095674003446561,14.272769501642642,9.05342507001933,14.981750708228901,19.637035020375606,-2.975122659236604,8.538523393244304,3.2272154069189583
2.556,4.972641815980921,11.94805552457342,5.691686816906213,11.24393797171308,17.426776373018356,-4.72622069810086,10.222283226889203,5.678637689985521
2.56,0.9172734102311892,9.717614995294639,1.2884982029058847,6.961253760976888,13.386890938578517,-7.175361933136628,10.125778230357582,7.635902628722306
2.564,-3.491026486122564,7.5907385950037,-3.695241326179712,2.685857907625973,8.07663221938742,-10.192282611243627,7.988270950699189,8.000198949557785
2.568,-7.594956668060149,5.362625541971624,-8.143449952054652,-1.2092795403494847,2.577266163199738,-13.230478621307611,4.665803071064829,6.488274957760723
2.572,-10.820033004313188,2.7219512728466952,-10.772095426871147,-4.477033815667369,-1.9292425788637502,-15.586069487892473,1.5456623904181015,3.754829946298173
2.576,-12.736961937693764,-0.5108112982489956,-10.75711681226926,-6.873642527796164,-4.631945338325522,-16.736079219369913,-0.31305741681740074,0.9967053125819803
2.58,-13.075790882915612,-4.161626360655077,-8.16551725581553,-8.099803357272435,-5.383617329752951,-16.58430453494111,-0.7721301432425207,-0.7228472900393399
2.584,-11.771021717834344,-7.661741155009963,-3.9462333492374455,-7.896156294577395,-4.686756855310932,-15.48658467567111,-0.576114034434795,-1.0473996609615597
2.588,-9.05590240764866,-10.269249504567483,0.4933318029734437,-6.265242088255945,-3.4102411156898143,-14.073604018337846,-0.759409520259851,-0.49206812032184644
2.592,-5.52757753133244,-11.453819314627708,3.9001647863435664,-3.653070307290591,-2.3853380088676204,-12.962503201445998,-1.9002402488674761,-0.11647819435290785
2.596,-2.0647423435569294,-11.207815895874432,5.66976398818656,-0.9226717315482347,-2.0865299403981226,-12.503822984916951,-3.7099032761898343,-0.9091351928716449
2.6,0.4373534468810476,-10.076001149688977,5.9838456423071875,0.9286844040966571,-2.5189950036783557,-12.68990280055732,-5.225741249367502,-3.2385210374844746
2.604,1.4424347126405337,-8.845718574225202,5.580862566897849,1.2114490544890941,-3.325363813299191,-13.226899678427344,-5.466700579557255,-6.668766780199462
2.608,1.0497749971207213,-8.074951669621782,5.31113004377994,-0.09622864251650753,-4.027781700515106,-13.724559658886392,-4.127539204086361,-10.22315663460688
2.612,-0.02710955776387891,-7.74304141806067,5.723700310006052,-2.288718063775832,-4.25030354778869,-13.89080331962441,-1.8736419520200798,-12.923758302630972
2.616,-0.7971093282657193,-7.248137791710747,6.880109886491937,-4.232962127243809,-3.819962202754141,-13.63296539068915,-0.034534816256154954,-14.282788498351465
2.62,-0.5141534678382413,-5.795773209341974,8.42220164045375,-4.909599962658149,-2.7366913095481777,-13.041066885280088,0.11327113257993915,-14.468735374508924
2.624,0.8933526993605483,-2.9506703627486104,9.824163903223962,-3.9165818216836215,-1.0705361982554678,-12.277360825921278,-1.9340339899736136,-14.074605493466947
2.628,2.738812881718104,0.9756564117130893,10.649131424478128,-1.6735902732459635,1.1082611064839512,-11.462203559814043,-5.613075625670035,-13.652666102948388
2.632,3.9073575495590376,4.952367346376263,10.681830850937331,0.7811367179012905,3.708961086199224,-10.616036634783086,-9.58529709146842,-13.312444236218084
2.636,3.4392939219853815,7.684718630607449,9.919573680913118,2.28635029299312,6.5133141211931616,-9.690333936032403,-12.432586778505765,-12.643229040551432
2.64,1.025407241550056,8.230479561311768,8.455869581376191,2.0664453721306018,9.057879477290044,-8.669397678808764,-13.373116761388928,-11.01566629534625
2.644,-2.830880208943995,6.459086670085071,6.391779510563765,0.028732067755981916,10.645382867186981,-7.647012574123892,-12.587220942325303,-8.064037533168744
2.648,-7.064976357452224,3.0994663001299614,3.834987788747412,-3.277658289194278,10.534659377170783,-6.826357835743693,-11.011999160926052,-4.054543441647525
2.652,-10.5659167862201,-0.6333328147825341,0.9874591612317545,-6.968554314636322,8.265281107662531,-6.424471050577722,-9.758004596202454,0.09649424312488009
2.656,-12.645328193666728,-3.5888490278143763,-1.7509317124279278,-10.187102075803523,3.9692633668562394,-6.522822578380783,-9.492137456788214,3.1794620959140047
2.66,-13.2167813705762,-5.104099502109648,-3.777413405073503,-12.343789899662397,-1.5038035826423766,-6.956494717890564,-10.141274750170851,4.2332300823447895
2.664,-12.637029366097522,-5.101126588500165,-4.414791230435185,-13.15452756208333,-6.76139307487847,-7.315560786327296,-11.047252027984541,2.97239610282395
2.668,-11.365748294034574,-3.879397369460321,-3.15354509889562,-12.546712526675037,-10.321923950105656,-7.098270135929852,-11.438633548857979,-0.13118056292819347
2.672,-9.686053933025846,-1.806065949155709,0.09561038292576995,-10.570388385394608,-11.158303365162283,-5.9527907593487726,-10.916091764576322,-4.137330820987472
2.676,-7.651875497103106,0.8704727888032266,4.886807919997864,-7.400116137430132,-9.089843260405132,-3.8891783441081316,-9.658106477539832,-8.110610599934944
2.68,-5.259852637618678,3.978380228662445,10.32928068336264,-3.4147142235449337,-4.840101246830727,-1.3503886725848133,-8.245134612209313,-11.50709235737827
2.684,-2.6763165236970963,7.2424239672202475,15.380197820280728,0.7595246419409705,0.2747480505393014,0.9273017618465929,-7.229109851257817,-14.27955494336561
2.688,-0.3204009714864924,10.159857857362795,19.209393753387758,4.336564003287322,4.885864311613204,2.203924334417934,-6.743881214627436,-16.68813253714802
2.692,1.2939511482754824,12.095565115711679,21.478346135147603,6.62158443463295,8.096096108745996,2.0573716127560147,-6.4057148164179125,-18.974347034301445
2.696,1.8713914371960527,12.591658667780848,22.407732532747104,7.318668355693035,9.747842038734461,0.5940100678512863,-5.562696479300939,-21.113358126616504
2.7,1.5822596996080165,11.694502047001833,22.58894984039739,6.702721003175384,10.330874096709977,-1.5733329128115656,-3.7582611796879064,-22.794084094436812
2.704,1.0640617895027162,10.073655166462459,22.657590738437648,5.532458584669939,10.621795618962324,-3.560758380592688,-1.1018671949345844,-23.600062109446753
2.708,1.1270033420602203,8.7853010733279,22.974286312223285,4.702490867005736,11.247065319741296,-4.578832386358954,1.6917523801753305,-23.252377600235604
2.712,2.292864702159818,8.753535786948078,23.45758234669529,4.7931761419881695,12.388365690044566,-4.255986524090076,3.6386269709946646,-21.744131805718325
2.716,4.455888585242519,10.256328851284252,23.65379465644719,5.769791685553855,13.74980501764594,-2.765234519774822,4.038630292511698,-19.283001435185952
2.72,6.861160207903254,12.706548760369515,22.975726733809097,6.9979038230039805,14.757169478813012,-0.7113164662141571,2.916217974957817,-16.103328891173987
2.724,8.443165175504646,14.881412462683329,20.994708729427202,7.584535244676545,14.859407189831018,1.1774629153774185,1.0870281596467066,-12.297453218107648
2.728,8.35557911642718,15.501667912637004,17.63814450092832,6.859642483784455,13.761883856088389,2.3876024525120556,-0.22206476907012984,-7.803698320791
2.732,6.397789651474341,13.861179330644973,13.217828632374676,4.732377128763801,11.502033168374282,2.8298056583635116,-0.014672042525489815,-2.5680920695094756
2.736,3.115447250810803,10.186555168478776,8.317047588672267,1.7400555771407653,8.378236835270854,2.826912428955893,1.9368877913304914,3.2261393225413713
2.74,-0.47896621204643,5.537036970564827,3.6090518451444495,-1.2383834008080612,4.811798259483112,2.891819482968913,4.953860102274348,9.025677870388108
2.744,-3.387143163948167,1.323720660142044,-0.2825477652797872,-3.4122072032698725,1.244210098278927,3.427744490344594,7.808943390659351,13.99491825992061
2.748,-5.037484935748353,-1.2873329744020339,-2.8504159607123256,-4.4124064996217385,-1.896386062288002,4.501769062452695,9.395502140600911,17.30308574091282
2.7520000000000002,-5.423303639319101,-1.785826425480991,-3.715970560386495,-4.348525917363986,-4.168643690742101,5.820045564202246,9.349987598908228,18.470276699468627
2.7560000000000002,-4.913355655669648,-0.36205009474474537,-2.633834931051524,-3.5737140649109733,-5.112584673932361,6.9112205132264535,8.280548876476814,17.58533446444801
2.7600000000000002,-3.8852912657574734,2.3656396656832612,0.4496621776590928,-2.3465322083497995,-4.32535786886001,7.405818887346868,7.452032122724631,15.273892950855839
2.7640000000000002,-2.4176187040416153,5.7371343795998655,5.313889890776636,-0.6093685051509965,-1.6092347550581962,7.265209980495001,8.103345285267778,12.429429470822924
2.7680000000000002,-0.2344098921199702,9.314644486918496,11.409510806319304,1.9533783954339015,2.867703332669862,6.817446085179199,10.759634773202379,9.847560573118812
2.7720000000000002,3.0573976636658244,12.89590950398565,17.895740793944015,5.597838560679293,8.497547250108482,6.579577427080949,14.912695803198858,7.947315202682148
2.7760000000000002,7.597686699270298,16.34192220065256,23.801825883483843,10.16184205861623,14.314858957363867,6.967083312832074,19.257660764819093,6.711682137928165
2.7800000000000002,13.005788561988425,19.390313729219088,28.263449832837523,14.913069110705692,19.241207716359668,8.048772621890294,22.34013388432345,5.848332618030781
2.7840000000000003,18.394000232580083,21.619181624323573,30.75963591628829,18.747408249850423,22.403407724532826,9.495391908840702,23.26890895424026,5.052324624653124
2.7880000000000003,22.655660230926628,22.59132809355492,31.22827054078357,20.641940708094808,23.384863080534387,10.738980568325587,22.100808743748075,4.212309340239585
2.7920000000000003,24.884342393939505,22.08047291491357,30.01310609001098,20.12589281424539,22.308868470655852,11.260130160821063,19.710467850603663,3.457395863628335
2.7960000000000003,24.71263139373025,20.217684399499376,27.674203089136427,17.500535682307373,19.708678660836085,10.842541561755752,17.25439500416678,3.0426000740551444
2.8000000000000003,22.38971371373941,17.43558942204072,24.7338560725766,13.652905798516713,16.24400403674713,9.639310297671727,15.538289113338351,3.1671737471306187
2.8040000000000003,18.590552809676296,14.242810282497203,21.48129684613764,9.575305265960651,12.409785257120802,8.045054236372835,14.6530432808338,3.851362948276801
2.8080000000000003,14.079715560448676,10.967713201802326,17.902962395456825,5.849345396254421,8.370646890172338,6.449771644593511,14.063818788884191,4.941861977044823
2.8120000000000003,9.416995527531412,7.641484727580064,13.773907415590884,2.4038345263493284,4.012169085028972,5.039486030830631,13.061823945820151,6.232528836094161
2.816,4.870456696545261,4.11696100814936,8.885281154900895,-1.2910986185497677,-0.815636246948543,3.776875279664182,11.287310320924462,7.606072895340162
2.82,0.5505852482694991,0.3506559961721223,3.297200752530898,-5.703606230083551,-5.99730861075227,2.5564446760795363,8.998642534913415,9.096584473853568
2.824,-3.3466374631221925,-3.3291819385424333,-2.469899203867044,-10.696065786385134,-10.956869535685655,1.4278705463966617,6.954672156890183,10.83110770704593
2.828,-6.372297334734526,-6.171364781512011,-7.4283517219396344,-15.308574687013106,-14.704049703715555,0.7040611312659166,5.983055034310155,12.879352162811074
2.832,-7.866387360756789,-7.253905585126631,-10.354484655409578,-18.04070546439766,-16.13427291432913,0.8573031573737353,6.512182052908429,15.107525624788195
2.836,-7.206382872657798,-5.92542020325709,-10.191337241743895,-17.513478399005635,-14.457233458217615,2.246920662292723,8.359609112919543,17.139500943326198
2.84,-4.13880618083374,-2.2044333302986843,-6.495034024511142,-13.175170647035202,-9.552821039546643,4.831754239577094,10.87064958447354,18.4586946410393
2.844,0.9967390847288584,3.1074622051283427,0.28034490076385055,-5.666592179803047,-2.0774715167690943,8.06711808551563,13.307430402533555,18.612191998128537
2.848,7.281256082843555,8.687644096392944,8.808461810754807,3.3554445836019227,6.728837962541434,11.072926917577888,15.233606149691695,17.41229132092974
2.852,13.49732336144882,13.231456193256008,17.27923310158735,11.875333801063334,15.455192623370976,13.011763618376335,16.657087469291582,15.03080503269473
2.856,18.550462552587533,16.002812169525782,24.016842697397124,18.321066039462266,22.95334406166262,13.47158376934567,17.875269672518925,11.944657700349126
2.86,21.830643991826605,17.10206372144046,28.04951411475895,22.099287012149034,28.589911250460773,12.624809124163676,19.147911191022786,8.76412820393955
2.864,23.35692683580578,17.32126089009239,29.38827243951164,23.630279349099965,32.23559642415262,11.087976699642695,20.442948914014096,6.039637955569674
2.868,23.634561194320725,17.64863337337738,28.85612855435261,23.902646037154454,34.04328930981478,9.554454710417303,21.424730299760085,4.134194307483654
2.872,23.304400811581388,18.6757484231631,27.550644010296537,23.81998907759396,34.17569003635549,8.421022828487821,21.681521969581127,3.2011058459778496
2.876,22.792053947114027,20.233609073429648,26.232589599025005,23.714040079283222,32.65699768632737,7.639575527458874,21.026315156051396,3.2442424277369355
2.88,22.111803679852414,21.439847647192437,24.95090471272465,23.25856562805211,29.419845714044527,6.86219839253863,19.647920296614302,4.188448363302086
2.884,20.91515315802036,21.13908048424105,23.112887863170727,21.788486044528895,24.48962644342612,5.7812358413307265,18.00201091976578,5.8980579122357994
2.888,18.749981734803214,18.50818438692727,19.94405745218387,18.792596695357133,18.152976370409988,4.4182791481180175,16.51153630587328,8.144645844789466
2.892,15.364905550345895,13.508200400400028,15.055880859810486,14.271834640784164,10.979128422681356,3.1734292086150617,15.281891671192625,10.573684797417059
2.896,10.903950880863874,6.9598991215273145,8.791026312097983,8.780737005366518,3.665338472717167,2.6012834136035963,14.042058540227117,12.742583837467237
2.9,5.890764134365554,0.2092318855721942,2.131238836101602,3.1526992919070835,-3.2011019075659988,3.0446166590595567,12.375707436081484,14.252609974768575
2.904,1.034134155166555,-5.428937909865681,-3.753913857421594,-1.8830898016869924,-9.29679092726667,4.388742693188988,10.114749527451295,14.929495232188515
2.908,-3.0250469259144097,-9.16426353581312,-8.048741105970748,-5.949376088056624,-14.521401366340001,6.094417090989282,7.621517711755359,14.94684677446162
2.912,-5.887876150506656,-10.92313367591737,-10.600594327668205,-8.999787515686194,-18.78153076181104,7.499061255523657,5.745114056412035,14.795563955308694
2.916,-7.407052747312832,-11.169338947353936,-11.81268447483535,-11.084824872602098,-21.753761269624533,8.20455586573621,5.4352089278947915,15.067723581040582
2.92,-7.5786180868968245,-10.496588274658052,-12.226395133788628,-12.105686983642386,-22.816931954293636,8.294797820021131,7.200022362777645,16.13395658862953
2.924,-6.4062363898904096,-9.224901446372883,-12.05810949234558,-11.732316220080747,-21.24407750304715,8.257848777111803,10.743561073820047,17.88176880683079
2.928,-3.8598961589804617,-7.241167091296006,-11.01084397344755,-9.570590279802332,-16.597824505553945,8.646426593007163,15.010547137323215,19.666554994574028
2.932,0.02825976073751235,-4.160258057006274,-8.48917798474099,-5.477862878707697,-9.11457669889296,9.701476885293232,18.640443592645966,20.537405084945192
2.936,5.0061413436425255,0.3122082698729969,-4.068988331581295,0.19219596883124268,0.16124578902281428,11.17793845622964,20.608611173643112,19.64842191071864
2.94,10.498748630929526,6.032923728428159,2.0666319103576143,6.58382166431727,9.607646993723165,12.465227773323704,20.687891099706462,16.662767854028516
2.944,15.669213651774442,12.308035460674148,9.020240785683654,12.609164438052517,17.54507315342471,12.935003047154396,19.496189224315458,11.95551520295379
2.948,19.662247348851054,18.09155213881627,15.476080298195939,17.35538823470381,22.798791493309523,12.283229785262847,18.105323915989857,6.505969224774333
2.952,21.911368057440768,22.37827787515738,20.227920651263503,20.397825204449646,25.039290810032526,10.663485662345693,17.440481751044103,1.5330638387744102
2.956,22.348350760843175,24.58268008220864,22.638971013610558,21.849495669735006,24.74524699790743,8.543651080650534,17.817002445178673,-1.950986313149997
2.96,21.395962482580842,24.699231479543016,22.769448582872997,22.135480604978284,22.834309987492134,6.403784483807613,18.84873224051671,-3.4652003398709894
2.964,19.742804442368282,23.183565411865914,21.150929467833976,21.65600689649534,20.182445068823768,4.50381078305827,19.755113365250963,-3.13226551609074
2.968,18.003674533003647,20.640545751788864,18.373965011343444,20.541066644347154,17.277531114579233,2.8549765157849833,19.850552002306586,-1.5068723215919135
2.972,16.459618351218978,17.520164837331833,14.77092721077372,18.657536969871273,14.160630190908478,1.399401858549595,18.916193438588152,0.7248410816262094
2.976,15.001792769069908,13.995987589628214,10.385503140178571,15.836903486764015,10.618702006475246,0.24098732016750546,17.250699568400705,3.0089876008368037
2.98,13.275612939318535,10.05401511656936,5.180028373093933,12.138623047116937,6.4612770530969215,-0.28539196487611207,15.400125922247298,5.046446091528935
2.984,10.937780460083474,5.713970599160746,-0.687306914212968,7.9685963924506495,1.7178533299073706,0.22736318809847944,13.783936726423235,6.775235292981563
2.988,7.862454135321514,1.2134154669851114,-6.744554775209963,3.9449309114745006,-3.3396995884658054,1.9463583543312097,12.464366092083992,8.273002047661805
2.992,4.190692263317089,-2.981661414569203,-12.34596858709483,0.5877045450097285,-8.297434580566005,4.554844113731406,11.197638875959797,9.66416107441745
2.996,0.2291908750293885,-6.354488994372218,-16.96245537925347,-1.9648184266335988,-12.716776933349252,7.273200931740803,9.708371716868555,11.065539560326329
3.0,-3.711411169302494,-8.593803364067412,-20.411290332294357,-4.01547689922586,-16.175810204718573,9.172967942783544,7.9825916592971,12.557167801468154
3.004,-7.404962834848078,-9.746305191814258,-22.834971008886725,-6.057702286872654,-18.22818275750774,9.644095414759818,6.379687590860385,14.147146474691397
3.008,-10.664179271770138,-10.163295307719125,-24.439514061628984,-8.359475877486489,-18.37520196399214,8.733316983614486,5.468481891218573,15.716384233968654
3.012,-13.218492927713783,-10.255510199456864,-25.165988958317485,-10.630731483798513,-16.146061166461607,7.1503275950559555,5.692979797436749,16.984895020609258
3.016,-14.631012899673635,-10.197471034547391,-24.54047501924572,-12.01183700103843,-11.310932418079574,5.914809315192542,7.0817112245266,17.550822105456803
3.02,-14.375574573962183,-9.784946196782641,-21.869713850584617,-11.45884692787422,-4.1341436773411715,5.818018074701627,9.17688347776624,17.01995195936985
3.024,-12.068410143643632,-8.535202367974733,-16.68234664261223,-8.327981961390378,4.512267697510538,7.016076770405675,11.24941049159213,15.202819892253359
