Timestamp,O1,Oz,O2,PO3,PO4,TP7,TP8,Fz
0.0,-1.3073986337985843e-12,1.0516032489249483e-12,-1.1368683772161603e-12,9.094947017729282e-13,3.979039320256561e-13,-2.8421709430404007e-12,-5.684341886080801e-13,-2.0463630789890885e-12
0.004,52.6926302906204,48.55785034854452,104.8583871419595,60.30228483290483,48.918281452452106,59.727787363293714,52.42855879102228,3.101548743440958
0.008,91.04006610892733,83.80864586375725,181.52377818737608,104.18752300950831,84.3491314946038,103.68911215367962,90.80383422447306,5.275797881661617
0.012,107.09105558326141,98.41184005793039,214.22656414989564,122.56570973841542,98.80071054620106,123.06361318006009,107.23519913460882,6.068862882468011
0.016,102.385955702339,93.86237603493447,205.68210622102578,117.21684142118937,93.70277260290379,119.37007410474769,103.02656484500693,5.708996192635595
0.02,86.29730358607603,78.90328784869243,173.9586140988804,98.87552316474932,77.88352559472389,102.70687329547371,87.17336799963391,4.922332740177239
0.024,70.65416396678754,64.4925213615077,142.15657800346287,81.07923025377926,62.56881065601931,85.9716922507377,71.28511795677446,4.495692351670584
0.028,63.76152100875993,58.252295754721075,126.83588104685788,73.33510122957995,55.77170864904775,78.3742034499964,63.821497328719545,4.833464064461339
0.032,67.02645761751342,61.39907588339511,131.38377132115505,77.2856841345399,59.06732900774949,81.72304845756378,66.70153673573031,5.764860192604431
0.036000000000000004,75.6940979955532,69.51507035095776,147.25108665504234,87.57714575934887,68.17963852227751,91.12790772445334,75.76732235818417,6.694433758551213
0.04,82.78399191017132,76.24575785132183,161.34391076727962,96.34128281765715,76.55809794574833,99.14747618734776,84.34395960219251,6.958511900263488
0.044,83.52052544644661,77.3636111574782,164.44837597529556,98.19683793092196,79.48637851383023,100.54046152564302,87.4303952388999,6.186283610258727
0.048,77.7292865683234,72.85392142868284,155.83490747858394,92.88924850733366,76.36773749310419,94.88140471572615,84.13567288457432,4.447880555241852
0.052000000000000005,69.16242895590332,66.13938282146628,142.0813636084277,84.45631040162243,70.22077105265078,85.93822595532606,77.33576015989752,2.1540766849389
0.056,62.63950968371853,61.37275821976459,131.79106344835606,78.00395878561645,65.1763439716197,78.73125102087283,71.26018827579196,-0.1668225285727658
0.06,61.04091069532822,60.754101929880335,130.0343873562203,76.42309559036886,63.801246096286036,76.38603692452034,68.79485421420628,-2.074531901370392
0.064,63.875335040680085,63.44888211829439,135.77849918729572,78.9693193114017,65.82677782646118,78.61012271082694,70.06526320004195,-3.2818398671952878
0.068,68.08393781830654,66.58028508051106,143.46879303257828,82.33707449708714,68.8486502313819,82.46716925309511,72.94482118995472,-3.60849165992596
0.07200000000000001,70.29031465683835,67.40761122635462,147.2248160542554,83.22562546156487,70.27432231639492,84.64348929148207,74.85450823590287,-2.9266280760629115
0.076,68.93733987317793,65.15663385235595,144.69261123618747,80.5796753648576,69.11137244195564,83.5994936585721,74.52180631510993,-1.191320846732026
0.08,65.0284432823077,61.36098314854107,138.16896400858107,76.1058596583861,66.46062694120954,80.28230710766064,72.59435073908202,1.431166507032117
0.084,61.11755926573433,58.57711794291157,132.46832365652813,72.83392669875875,64.4912036482834,77.084728393114,70.81214799285232,4.4673773684205
0.088,59.4458572809487,58.50685345649333,131.33864230733673,72.89795763249435,64.76555572249876,75.98981665060973,70.51750465629809,7.180144108905608
0.092,60.54211337110485,60.85726574937944,134.98706621078037,76.11173558354795,67.1331574500949,77.26529320173768,71.63090283813506,8.808048101877262
0.096,63.12533903127215,63.65288234422495,140.25420475763786,80.23059350183885,69.90804470009297,79.51911150661795,72.75997985214445,8.916167342534408
0.1,65.20622888888437,64.68718456971581,143.0551148980404,82.57939724002445,71.09767535273971,80.90838851822934,72.26337449917469,7.634906832647744
0.10400000000000001,65.43531797449026,62.99128100004961,141.11120416526694,81.77434328068406,69.71319171362981,80.46969654498017,69.38899835107347,5.644162859207086
0.108,63.82751642140169,59.37066797948651,135.20781919636954,78.4337821420002,66.3025093289906,78.66258222035688,64.73716115467269,3.8569709386571844
0.112,61.52216735623989,55.76064655211081,128.37954960759134,74.55497224690785,62.45127069405849,76.87442850776955,59.823443956571694,2.9612506282612117
0.116,59.88782797081532,53.92391485896792,123.81209597593151,72.1109211825534,59.691132974395316,76.34968625485936,56.12553320206675,3.07449515515799
0.12,59.64746734303378,54.38816034299978,122.94269815413347,71.84896649931818,58.569214710920676,77.31704000022009,54.28342226641914,3.6842971250769665
0.124,60.487219734345175,56.20348806832176,124.77275451660421,72.93672223088889,58.38902600445658,78.80425257895922,53.854052240470025,3.9250238464935876
0.128,61.350714483166556,57.63105613795064,126.71893269364818,73.61457161720311,57.74951262694428,79.23878665484426,53.725502240016965,3.019527943623274
0.132,61.15930804719663,57.27102040528818,126.3457390227075,72.37771705711882,55.499730863488395,77.4334313129944,52.878066350691824,0.6592965670174351
0.136,59.48263977886067,54.91019599075432,122.85533953366752,68.93374626537341,51.509676163521846,73.34988282443913,51.00297047286054,-2.8518586358013067
0.14,56.77729525541207,51.601638604258156,117.46833907532977,64.3695833161956,46.80144070121959,68.1764049453102,48.6316438226622,-6.756193190031212
0.14400000000000002,54.028994961391604,48.91361060745493,112.4532634770012,60.42092610073105,42.952432366906635,63.64883904012251,46.70032240818844,-10.157412134993791
0.148,52.12911704966844,47.91508504165655,109.62558620833394,58.40691660449173,41.207240533922544,61.09135283870779,45.926829198260975,-12.341365011651021
0.152,51.41331124322451,48.56982404879069,109.35261823424617,58.525988240710745,41.8630407926253,60.785340097848206,46.42745727562797,-12.969320284894394
0.156,51.5994017026581,49.87074932302387,110.60385799756278,59.89391173423357,44.24063127489242,61.9931054591151,47.77319424229543,-12.104379164424586
0.16,52.07827389859612,50.55628509492986,111.83780093519266,61.19379147724217,47.15368651973802,63.505680880093166,49.360086963205646,-10.142597795687578
0.164,52.224425757310755,49.83681701994351,111.88553310996974,61.38341095093466,49.47121363216817,64.25326284561407,50.717316637097326,-7.6840810619872
0.168,51.60112371831288,47.737406017383705,110.369022875611,60.09979880541604,50.49074007927578,63.697136309867176,51.617863204149046,-5.392852149475061
0.17200000000000001,50.06399736131401,44.954290377482664,107.61400690559188,57.67844787999718,50.05445721975002,61.92113859071759,52.02905961614451,-3.839823451936468
0.176,47.80521998415681,42.40063576883948,104.30226441251045,54.900606441838704,48.47776229647613,59.49788769017334,52.02464917761755,-3.3215881414975286
0.18,45.35222665485618,40.748132013960856,101.14591578059188,52.652410597340676,46.38555765767212,57.241103137813326,51.753105725901975,-3.7344483127693024
0.184,43.3832683191325,40.12139308603422,98.57249691304366,51.54848303099823,44.457494934881694,55.85039707676549,51.37000037559312,-4.5714751260853745
0.188,42.4434049074281,40.106645039945604,96.58274443728638,51.68650147722035,43.18450313320129,55.600142077314615,50.96050091689237,-5.119434449487187
0.192,42.699671608437754,40.051792550747464,94.85535972965812,52.650464545335694,42.736499985812756,56.22928185282029,50.50465609893128,-4.793304164185628
0.196,43.877696451699904,39.48559792504403,93.03795044560155,53.75753075577428,42.990674985567054,57.09607160021244,49.91494144130522,-3.44454447915075
0.2,45.434512145126135,38.43357972416,91.07024617428988,54.43063823981309,43.692322176005234,57.51851241562488,49.14566071945376,-1.4798129791470558
0.20400000000000001,46.80282544627474,37.39823792190715,89.22460105218144,54.440858423025674,44.5985347658727,57.064382357587874,48.24729521067147,0.33209083947750173
0.20800000000000002,47.64129696548504,37.06825335240562,87.9437042322528,53.96113481668007,45.569726729263735,55.704034978810796,47.375371199398444,1.2600703231592547
0.212,47.96977507815885,37.9308890100468,87.6199644941305,53.44338261843062,46.59027881401191,53.798269434798755,46.747328768352645,0.9927115323143312
0.216,48.09414401193261,39.9659174585957,88.40057562976833,53.35752397360032,47.686449980462214,51.91448558787309,46.528315095098435,-0.23768471639601785
0.22,48.340319835792315,42.5476457552754,90.0492941461651,53.88359259055845,48.75142511624722,50.52429949804608,46.66485601739154,-1.8938545316900104
0.224,48.65634131231998,44.52111523125015,91.76739758528359,54.61712569928531,49.318516015167845,49.657277523370254,46.68249568928826,-3.5874712807504068
0.228,48.43843439908726,44.53547953997685,92.27996220862897,54.575298247157846,48.53098722942801,48.78428808524842,45.69866313406678,-5.459761018848042
0.232,46.77705289034229,41.58190915576064,90.32089933970084,52.62364488738193,45.45300161295333,47.08486664775481,42.77460977547025,-8.187564707793172
0.23600000000000002,42.95766972563261,35.4693255743168,85.20906283923884,48.0706039458838,39.566590262294795,43.90206242896272,37.41226251031492,-12.545992586565603
0.24,37.007186902856034,27.08310007950206,77.33298316871901,41.18963883089725,31.252250872845593,39.19504947737323,29.988173370105812,-18.762851640652684
0.244,29.98554566407745,18.295477104867757,68.32551063990618,33.4023147234181,21.993606887802912,33.780041303797475,21.895310102161915,-26.04173403296943
0.248,23.75824796235797,11.458785142308841,60.66647084113606,26.905749475587726,14.071362582579155,29.140103296128814,15.19953523252002,-32.59896315220004
0.252,20.253185709083596,8.586130979575188,56.705879143655466,23.80222608339335,9.756725132610768,26.80389488794134,11.855742278870338,-36.28012820959816
0.256,20.56954624456897,10.552679458187185,57.580960873386346,25.149946035138328,10.35989615165704,27.602415166222386,12.859507098052802,-35.47973178368585
0.26,24.471160128513446,16.734796767325804,62.7145384722258,30.495112883811345,15.66642924112486,31.266753875320433,17.82458573679122,-29.8942180602034
0.264,30.533949277645718,25.271411965036407,70.1727770004592,38.13459080020641,24.061322266923895,36.58312572329379,25.21244436716762,-20.698776833270415
0.268,36.826111753957434,33.801507872329296,77.61568211749241,45.91101273649144,33.23300522342785,41.96261401203469,33.05476992398815,-10.066105812264937
0.272,41.704413423550534,40.30379065525821,83.24240497999799,52.062583623979634,41.06649619404965,46.06690738352711,39.7241397218815,-0.276831861782739
0.276,44.35057210479437,43.70391576071677,86.2956864503264,55.73486597022074,46.32169960433998,48.20690738261624,44.38833312929762,7.117746375670379
0.28,44.89869738505115,44.08356972381486,87.0662994456693,57.03308011247205,48.86961817559575,48.43728069913254,47.04465923561247,11.669358319914295
0.28400000000000003,44.16438365192485,42.456417280058304,86.50030536643845,56.690361245055584,49.45913122752614,47.37469931141368,48.20323441368299,13.84699676574246
0.28800000000000003,43.1471549446116,40.2266090769578,85.60611843145449,55.5589273707146,49.16243921129811,45.83213677510861,48.42016734946657,14.479640209350976
0.292,42.52464483100121,38.53982403811801,84.89266087164731,54.15612512444267,48.76513973699252,44.40918603767534,47.920180422645785,14.195625164722799
0.296,42.38497758612036,37.82915426526861,84.14742024423492,52.50482505542348,48.42047537890426,43.25523509471833,46.52432331478502,13.18805677279363
0.3,42.34574447460298,37.78613600066214,82.73967328329286,50.358609201395126,47.74822329139903,42.143384801556465,43.93972808739716,11.370168648377557
0.304,41.92456606116215,37.712777665943776,80.22432716896151,47.609657764446666,46.263054590316926,40.781705380682865,40.193562283657116,8.746977665585462
0.308,40.8738721586856,37.003513735064274,76.78069591240569,44.55027816779884,43.808829012199,39.104765101855094,35.875758995950946,5.701132389780923
0.312,39.25968064324883,35.46075193868725,73.12664412834238,41.76594030353857,40.69730680732158,37.32159632831684,31.972519013103636,2.9859926791148155
0.316,37.307651595964614,33.32057022527039,70.01907397631788,39.766307286408846,37.51078086787351,35.74562614901646,29.394642568227823,1.4292714411483303
0.32,35.240248603799046,31.08976246830946,67.80884129657079,38.68593897684349,34.785933021452024,34.609450824695614,28.53903285632316,1.5288236008741478
0.324,33.243774927162406,29.321011652773308,66.36219002141428,38.27150942905246,32.792707623413776,34.003956827186926,29.137696357279196,3.2013801132501385
0.328,31.534806772892495,28.410098051216977,65.31800054399861,38.11220517576152,31.491247902956104,33.92444055105318,30.455236464674158,5.817531910771606
0.332,30.376211473523227,28.442550800059394,64.38052120106596,37.88364603692884,30.62031815848121,34.30541659026744,31.647021808266913,8.482164816722957
0.336,29.97319888065479,29.147576760777696,63.45152485516684,37.44693164561056,29.846689562440076,35.00655604395763,32.09373739371665,10.385792830426453
0.34,30.339625431848788,30.029261481307003,62.624201895294675,36.81768467253886,28.9387661370983,35.81004326284233,31.619056365742495,11.05342222220122
0.34400000000000003,31.217291761998183,30.612995375816183,62.07387359870427,36.062799973797155,27.894560813855946,36.46223509870879,30.51304961608929,10.413023848686066
0.34800000000000003,32.11910961926719,30.682843701123375,61.897986128823675,35.20345475984607,26.951176578404215,36.73755147710665,29.367038412674617,8.715773113762566
0.352,32.47728413535765,30.36215820240983,61.94679940073138,34.167037890940264,26.44195423901874,36.4749119558428,28.781580495988237,6.412706947975607
0.356,31.872976331863384,30.013769344508887,61.79521147523883,32.84744537471249,26.60333920979633,35.6051548013786,29.090749140520302,4.066367931383638
0.36,30.292244678272993,30.062672914386155,60.98310168357824,31.27885539079432,27.46860934045401,34.22556935883347,30.259738252168518,2.2819705657528857
0.364,28.242531454006212,30.813842855848293,59.37004277553922,29.78119038453019,28.88224998725633,32.66301406554942,31.95852785500324,1.6075416480556441
0.368,26.594418827116215,32.306686618153094,57.30620526113677,28.899385567464947,30.56640274450234,31.410047276166893,33.707714266179664,2.35838850325581
0.372,26.148839649946865,34.22683487824537,55.40108604764828,29.079696000808326,32.14648902094473,30.891177528514618,34.989583790208826,4.41702279015135
0.376,27.159156473876294,35.94042424886976,54.05190940241272,30.281199757856314,33.154724683454674,31.18534683383632,35.31953622401352,7.134104361800837
0.38,29.149238942000807,36.71772002844472,53.149662287459364,31.84972479159012,33.10396629806468,31.93838999431557,34.36752118579045,9.440375268654293
0.384,31.154679247529373,36.0712277010723,52.182223780633706,32.78772289840663,31.654830757601758,32.555146554187786,32.124520479972716,10.195189686722642
0.388,32.23960152830091,34.031384277616894,50.633024096268684,32.26523059564943,28.792600618562517,32.54643148359344,29.009726679327855,8.637236403009638
0.392,31.95443795605445,31.166429208546788,48.336200986195195,30.048373405079133,24.889949850411313,31.790585357960936,25.772239766680173,4.7353245266581325
0.396,30.493103909005242,28.320374402476546,45.56560554475766,26.609846340358956,20.608253371772207,30.57228337912511,23.18434455960403,-0.7513338454874656
0.4,28.530897191263875,26.24615798446581,42.89799463783652,22.91791232706771,16.712570458142523,29.42412918663001,21.702841388384854,-6.556166834060491
0.404,26.848885684936192,25.30545321124839,40.94054237128728,20.026268990533254,13.868794063406426,28.864709149205282,21.268995335243744,-11.383111670306334
0.40800000000000003,25.94927928878036,25.35741892960357,40.04489129364924,18.649425324177628,12.472071000095013,29.151349072148264,21.354710798207066,-14.354285357476101
0.41200000000000003,25.832100900864134,25.85407594276404,40.10231573403951,18.884756198782384,12.530877448252397,30.131276668614532,21.204979436075632,-15.229740110432317
0.41600000000000004,26.04958068638649,26.103216764217052,40.561420781451716,20.215145958991513,13.66546037317039,31.284635769911574,20.18597635027163,-14.329840101212426
0.42,26.03134670510144,25.622654725158668,40.75472218325979,21.820761364380644,15.27297727457153,31.986673952816773,18.11961310317554,-12.269045431024097
0.424,25.47076913693246,24.407618002122547,40.34039153061565,23.018612477656916,16.797313747484964,31.854831075974403,15.424305341203876,-9.671870477657535
0.428,24.51367932275474,22.94452460948804,39.53241887453612,23.5530249509942,17.943953385608324,30.9465641709362,12.947607211361401,-7.036281429758901
0.432,23.598139238693307,21.918292073329837,38.893138451936125,23.549990363616985,18.697889272197244,29.649051355790334,11.531196890574165,-4.759798120064261
0.436,23.06976179464567,21.765215652560244,38.83167265056454,23.21455867809277,19.158866200392367,28.343602793609307,11.540775598171649,-3.21995197704382
0.44,22.879086894591182,22.362092385711946,39.22854028031304,22.55240499940578,19.346511637279036,27.110322490626118,12.663312890600878,-2.7898099750856318
0.444,22.567199100247763,23.034957274616147,39.452339466134276,21.31409530719145,19.112807354589222,25.67944459820501,14.085440155130641,-3.7175298349505965
0.448,21.542588616893454,22.885932777452012,38.73913527950924,19.17080502768465,18.199194280100073,23.645922990543113,14.931409468902189,-5.945635108820397
0.452,19.434262739236715,21.239655766791998,36.62986287803551,15.956400314157236,16.370406231569632,20.77677419026304,14.671483645101716,-9.017122613537026
0.456,16.30472977669268,17.9844751834799,33.21024798272083,11.824415150377945,13.549006905661258,17.233633414231008,13.281637045967727,-12.182419092127816
0.46,12.645338346284575,13.678181934589077,29.09772771130031,7.268750154869508,9.90834575489987,13.60962609348735,11.148518724098267,-14.706972016819805
0.464,9.158837721892212,9.354353014600235,25.189367332932534,2.997300589095971,5.874287595766759,10.750308395000047,8.80692473095337,-16.219299171398234
0.468,6.440294168592516,6.09326395515734,22.280330202243704,-0.29637573419995533,2.0015970458819083,9.406874709753538,6.668089894261811,-16.898296145140193
0.47200000000000003,4.704449480478047,4.533150002894558,20.697636598718987,-2.187258081809432,-1.2355570183470945,9.853413501182104,4.861607315258993,-17.35255636165357
0.47600000000000003,3.7200543639913803,4.577552262663517,20.17104212144909,-2.662653289362538,-3.6071167913758018,11.684126868979092,3.2727714268764885,-18.22811796625888
0.48,3.0213673247430393,5.498502098203289,20.090379429041036,-2.0411136461577826,-5.1130198261606665,13.95585200622645,1.7647138425236335,-19.77335434644465
0.484,2.2578616752123253,6.383945224944796,19.984371562889805,-0.730017328416352,-5.806482539057583,15.618494653546577,0.41923831578469617,-21.612211881959865
0.488,1.4469594085200015,6.67068224137256,19.877629054188105,0.9962184771437705,-5.610085806554935,15.992400433614193,-0.39007091791700077,-22.894633652126913
0.492,0.93330047764141,6.430833275561554,20.218480388200533,3.0246672793830385,-4.3119045665711155,15.007964668146315,-0.18952854856718204,-22.77511207660882
0.496,1.097496716306921,6.257861978591791,21.43523967520821,5.254222168864658,-1.7723557681055127,13.121328679388853,1.2576604319058333,-20.956794270267437
0.5,2.0455949104906495,6.8586134567786985,23.497487704207288,7.437675555653527,1.8146427596715284,11.025615026387186,3.732306582062506,-17.98842972782745
0.504,3.480766771380445,8.588059985501218,25.793749532222023,9.156554382211084,5.796299747125545,9.336257784843383,6.606440580060166,-15.112057556461878
0.508,4.831015170870444,11.183105747016498,27.40908203735819,9.950982504347735,9.1869163058077,8.391959242267149,9.132521315090116,-13.714192870029592
0.512,5.517652265902086,13.822011686668702,27.594866851484994,9.501808913652667,11.011749780538253,8.19901387327991,10.782929740284885,-14.641550130300857
0.516,5.216203495521995,15.495313973326688,26.160282366573142,7.769904683410573,10.723266962440903,8.504076970753658,11.45085059621249,-17.73272631590089
0.52,4.0047379304801325,15.52814311453244,23.624265398456146,5.056871450414292,8.50823880642497,8.965047615137792,11.437225169677504,-21.821132923986852
0.524,2.326137624034459,13.970310138542345,21.02682333384996,1.9523383460424384,5.306592367677808,9.324854809859062,11.253670169677207,-25.20628799879455
0.528,0.7906724903801887,11.627628088209804,19.461280113404314,-0.8238633175676568,2.478208020988859,9.486501495189941,11.346854834755504,-26.37379971887094
0.532,-0.10987406996036952,9.668450647838654,19.511023016523154,-2.6494956198233695,1.2261470140446136,9.449234280936707,11.882001507060977,-24.620572965345445
0.536,-0.21447027359397453,9.02419150659182,20.927628604553433,-3.183371852758455,2.070929761988282,9.19640679639474,12.708551307049675,-20.304306823681145
0.54,0.3176741593939596,9.949510231120144,22.814720440550445,-2.383346708530439,4.676393344078178,8.664902376160853,13.54651264295103,-14.645138133870432
0.544,1.1884302615895876,11.961810621428299,24.20063549089764,-0.39483387216762367,8.102984615484274,7.832943540193128,14.25247287354955,-9.202138708737948
0.548,2.174803095577772,14.158770320497524,24.62765489148319,2.5672150148054698,11.30748538465184,6.837434705346141,14.962186247686532,-5.30187795437314
0.552,3.202731430083645,15.680605306907069,24.335820959830926,6.209911192584741,13.573754019919761,5.9759055687623,15.973483892198828,-3.6486750729459345
0.556,4.2511718231888835,16.062980329392758,23.939789592537636,10.048680070493333,14.658872881631055,5.56999072473036,17.434733778650298,-4.225435384169941
0.56,5.213486132020421,15.340451708654655,23.888518631306397,13.346865278847758,14.65733518685795,5.786908288045197,19.07971351246556,-6.457335942498503
0.5640000000000001,5.842441634408942,13.899280744120347,24.082462747889622,15.241580429324927,13.746905175650227,6.534033116803357,20.225245674098232,-9.483939466312677
0.5680000000000001,5.831977197931678,12.20190371976264,23.891821116659457,15.051823338577833,12.007320606812073,7.478169731738944,20.07179241130507,-12.427547870029457
0.5720000000000001,4.971764113594645,10.537256213377873,22.526398698275898,12.60474367183815,9.417217989459346,8.163558456480587,18.129371252274495,-14.58467901414042
0.5760000000000001,3.2935178073054203,8.943208136699923,19.54459465994705,8.411571629432615,6.022223989327131,8.193154369306967,14.538307511295216,-15.526738658353906
0.58,1.1512074026329628,7.343064547465929,15.249457852911291,3.6006787781243474,2.1515835376023915,7.426564794460546,10.119781875331455,-15.143720080679259
0.584,-0.8348760912678017,5.768440663013848,10.712964648086881,-0.4154657796115089,-1.5059913004083683,6.099405618676883,6.0990917240831095,-13.635899746555424
0.588,-1.9724729885797387,4.486990027945012,7.351274091372488,-2.438914979014953,-4.087569416106817,4.779137376637209,3.610852330795069,-11.448995019253061
0.592,-1.7913251648710684,3.8959820158626144,6.208213750491268,-1.9729108944712834,-4.958981171057985,4.1268432976999065,3.208290426794747,-9.13511867527518
0.596,-0.29737531114938065,4.248182009530183,7.356926217773889,0.5405240117497669,-4.098507108150216,4.577584592497715,4.632846559713926,-7.161045616991487
0.6,1.9835349236784623,5.421431198037453,9.837725977813761,3.9027579756765363,-2.1845312619400374,6.128870289016277,6.998729111129933,-5.739720729104647
0.604,4.198205703786812,6.89004301705063,12.183245091975778,6.6841850009188875,-0.28859760344744245,8.345199676137554,9.281661880134152,-4.762846779383835
0.608,5.504695875540278,7.935943165499225,13.21885857603047,7.82955007795249,0.6728978895962427,10.557031794484146,10.827238092487733,-3.8891195446346956
0.612,5.3866392908602165,7.97154066460314,12.627827170228556,7.018132620502229,0.40107220264599164,12.12545096494091,11.5759670568616,-2.7522826322813216
0.616,3.8137485159081734,6.802301566620258,10.980115569470172,4.641348813065861,-0.6640813255207831,12.650282296767045,11.90749881466877,-1.1903189278434638
0.62,1.2382430298699774,4.720640935284337,9.30830158185313,1.5018844938979328,-1.5988302785547148,12.076575118810979,12.27389141226422,0.6320875017272556
0.624,-1.5612558403538515,2.390218046531686,8.513035780707696,-1.5678971729303157,-1.4797187846356792,10.669703225361445,12.866063290600323,2.289230836998968
0.628,-3.7300811976239174,0.5849133334262433,8.945136762878064,-3.9650912278918895,0.16542314766843447,8.87363276415067,13.528162549944682,3.315941615837801
0.632,-4.622305857323454,-0.11929851556146787,10.320930313830559,-5.393605472648915,3.1445856976731648,7.104879027404877,13.927988558385096,3.4728833133140142
0.636,-4.031284227169863,0.4397647125407502,11.972468514631146,-5.796033368182179,6.715183200883757,5.572311234839617,13.841543502483546,2.9050843295499362
0.64,-2.2431279085118376,1.9966938695113186,13.290586656549522,-5.209770967904888,9.958886825419086,4.239150242191499,13.371714578857109,2.0990408115944774
0.644,0.10693843095305056,4.022011874145619,14.074068564192885,-3.6716044892013997,12.19491598506852,2.9541336956558553,12.935522925396754,1.6622149034271843
0.648,2.3102339883236027,5.960413086572089,14.56528414338436,-1.2359910366822078,13.20379638486088,1.6555570684649865,13.01283429583873,2.0297098374421694
0.652,3.849848558956637,7.40262814362768,15.12789548583146,1.9014920858940059,13.150635956920269,0.4915284527151016,13.786713585165899,3.2516716344325687
0.656,4.551449862431582,8.137817750869772,15.813957533107441,5.298828476589961,12.311307871593954,-0.21720067756496064,14.92053057408225,4.969230051622162
0.66,4.601797872712609,8.143819134568275,16.185769057623702,8.330116059874854,10.83612923868236,-0.13221291134823332,15.677018453403889,6.584005736111976
0.664,4.434869914950809,7.5537933882060315,15.541976323446534,10.421045581548924,8.72038727448512,0.9202183989937112,15.324517692946074,7.542286653078008
0.668,4.538466261898066,6.621045751716792,13.41650888991012,11.33031841651632,5.979955002493398,2.833674709728257,13.593850403481383,7.576693605768469
0.672,5.230062789612816,5.649659700887469,9.978245259778987,11.264585768652523,2.861615788030349,5.1999784999979966,10.877869124008612,6.788368700164028
0.676,6.494411921319738,4.885796034793884,6.059926096855634,10.743826620327354,-0.08921424927007138,7.404975976669448,8.039793102727117,5.5478047702094955
0.68,7.97966723587183,4.420294907290781,2.8109547756105258,10.299669075368456,-2.178769778564856,8.835336285942503,5.955246726083942,4.264521312112265
0.684,9.152596299516517,4.148454290175096,1.1536170601036702,10.176971315707988,-2.8665400615905128,9.111017559871016,5.051211669421264,3.1659686622911067
0.6880000000000001,9.542052403119328,3.818851693315537,1.3470867485023064,10.214226528116114,-2.050264676128336,8.227507919166328,5.121727619650983,2.191969251797218
0.6920000000000001,8.929890468609415,3.1430185073345456,2.8575686652643526,9.945960965665336,-0.17899782621543636,6.524703597858206,5.5007970238973485,1.0661064261930733
0.6960000000000001,7.409479369595374,1.931942215803474,4.609489792542263,8.875441427123633,1.8964429631639632,4.501725504199385,5.480935931418571,-0.4959894644352971
0.7000000000000001,5.334923493728411,0.22279128072341337,5.532173789201124,6.795534488519934,3.2992981451518517,2.6015317538858653,4.749628572296615,-2.5685267158328315
0.704,3.2006109499056947,-1.6713535664214305,5.119395339860148,3.980749361646076,3.549492694462515,1.0856623094414317,3.5814617413691394,-4.891964208588433
0.708,1.5096441210528155,-3.23068063919618,3.6988472654511497,1.1291072216231441,2.8046835084069244,0.026090160783951433,2.673176909584754,-6.935578609174627
0.712,0.636987194528615,-3.927912626770194,2.2206505648484836,-0.957697984662218,1.7581362594860366,-0.6385874678449,2.7055806927273807,-8.125569135049773
0.716,0.7184999367143519,-3.4752771141913854,1.692947721010114,-1.7944385563305332,1.2482069768670954,-1.0393482784725165,3.888264262571056,-8.127150654912839
0.72,1.6186983242093902,-1.972651094212324,2.622875495474773,-1.4812678121732006,1.8056963154251662,-1.3221604661871424,5.7753751189384275,-7.04433114010817
0.724,2.982753587332354,0.12277001063944226,4.763634083727538,-0.6632221204909001,3.38005970117365,-1.6093138585529232,7.4643881563697505,-5.413687456730713
0.728,4.354374119583781,2.1905382072181965,7.283954979045575,-0.2029912791406332,5.366324440997687,-1.9753497969813907,8.058927191989824,-3.9847043256704637
0.732,5.302245497324975,3.6874284125074155,9.192596261776544,-0.7572670782760724,6.886516381297952,-2.4495342214436278,7.108334850415758,-3.3808299628321947
0.736,5.527985557354441,4.32480677249896,9.774430085981749,-2.4686236962472776,7.173191046935017,-3.027639265390917,4.7922364807677695,-3.808001176224934
0.74,4.950982051595247,4.127176535130275,8.864356123662446,-4.903026843876432,5.885145764247227,-3.667156293487551,1.79540118564546,-4.967720250701859
0.744,3.735110341598329,3.3585905001737046,6.844911212345323,-7.256289652885016,3.2286628693539114,-4.269606013776865,-1.0342526556651137,-6.21612072134576
0.748,2.241362512605974,2.378254694692032,4.414957930334367,-8.718299220058498,-0.1445138794358627,-4.682738797712318,-3.042937329909819,-6.914335498780474
0.752,0.881919194494003,1.4844669453750612,2.236829509108702,-8.832831935483682,-3.4041910709388503,-4.76314639606062,-3.9949947535424144,-6.779021810164522
0.756,-0.06679510572325853,0.8205102863678349,0.6458597360579006,-7.680493776338153,-5.83764829586994,-4.470050042333241,-4.090887061442572,-6.0425976984502086
0.76,-0.5749015765763943,0.38903825239140133,-0.40322317634309,-5.784664269963741,-7.0412678651348415,-3.906138527420353,-3.7888726586729717,-5.344936658122151
0.764,-0.8437767372261078,0.13780343092071234,-1.1703291191397511,-3.8062816339240726,-6.958129130449606,-3.270702293384602,-3.5632881122910476,-5.397406549844618
0.768,-1.1606216055783989,0.05495381990272108,-1.8679870448700058,-2.200659177932266,-5.796048880326907,-2.74957482203763,-3.7156215414720464,-6.599494269810293
0.772,-1.7216052992459936,0.18621929173514218,-2.5039923973231453,-1.041735367786032,-3.914193064674919,-2.423239029756587,-4.308863375314559,-8.801014636042964
0.776,-2.522608211554598,0.5634740274367687,-2.9183292761194934,-0.10127395959466412,-1.730619993959408,-2.2488568326816676,-5.220015868747396,-11.339659767915691
0.78,-3.357705520247009,1.1203716910156345,-2.9309253732781144,0.914744210151639,0.35189295748932636,-2.1110489098600738,-6.228510232868302,-13.346080710452043
0.784,-3.9297010918332944,1.6620894163127105,-2.487955058875741,2.1260398122317383,2.0174314313276227,-1.9065283090758385,-7.090184051626238,-14.13617187392856
0.788,-3.9942107066190147,1.9382823054070286,-1.691944454320037,3.393046921106361,3.11630852573262,-1.6086158729713134,-7.578273531668856,-13.4937078031071
0.792,-3.488284761996283,1.763062592799315,-0.7435981373821505,4.405348091791211,3.698974444843543,-1.2909645500708393,-7.530737956906478,-11.707963602788368
0.796,-2.5805424832361723,1.1194848009452585,0.14681213863798348,4.8708446444592255,3.970256074429585,-1.1054636290867847,-6.906956584436443,-9.372855971656918
0.8,-1.5952194367793595,0.2021123669473468,0.8570160396302526,4.708399591217301,4.188489877120787,-1.2111812147032879,-5.807385782474739,-7.07661109028561
0.804,-0.8659856751073676,-0.6519465417807169,1.3877396363966454,4.106960413181696,4.536166780628491,-1.6903619807803807,-4.441898857807246,-5.15927238231734
0.808,-0.586453722418355,-1.1033804648061505,1.8315732428977753,3.4216230247263866,5.026831000994207,-2.4951516184114553,-3.032514631640879,-3.6662817726091816
0.812,-0.7560396788298931,-0.9739047955217757,2.267761471853646,2.947342398417277,5.483249073472507,-3.4769516415872204,-1.7204199926645742,-2.48505367059488
0.8160000000000001,-1.2370468786787114,-0.3542817081292924,2.6446023953985787,2.7140617287327586,5.5995437745882555,-4.463536475186174,-0.5366632399368427,-1.5476567430141586
0.8200000000000001,-1.8584835153465065,0.42655286494641587,2.7639773683577005,2.4600909467885685,5.083481257164294,-5.321111284622475,0.5598306998476801,-0.9544080719383601
0.8240000000000001,-2.50197196123122,0.9554006318410302,2.3825350089109634,1.8100215862575624,3.812506246941439,-5.976891855099893,1.578187996537963,-0.9321269665310865
0.8280000000000001,-3.1147897194455254,0.9355533825373641,1.3789694714937468,0.5573597762752343,1.9220808841764665,-6.393752527997094,2.4073293034489325,-1.672604771188162
0.8320000000000001,-3.688557045935795,0.31133401863303334,-0.1476363714918989,-1.147272861045849,-0.23548706008887166,-6.548253948883939,2.7996380721897367,-3.1603428416401584
0.836,-4.223619169386893,-0.7390482534506191,-1.9094060741558678,-2.825995696437076,-2.23624129045902,-6.4455786328699105,2.4612580268517377,-5.1001124821591475
0.84,-4.690852636644877,-1.913959813650763,-3.5445549223695707,-3.8921434882527137,-3.7436920187367377,-6.140650250449653,1.2437078886091513,-7.000518696425843
0.844,-5.018335063383802,-2.9370533863948367,-4.756126390719601,-3.937953163035445,-4.602061167815691,-5.73424396571545,-0.6865222892793099,-8.363398739603326
0.848,-5.085218698945255,-3.6448907067067466,-5.3827369031623675,-2.912175329201318,-4.8230659573080175,-5.329815171997325,-2.8081481628482834,-8.876645984561492
0.852,-4.748442963291836,-4.000621145892637,-5.416670069989095,-1.1151834283391509,-4.509508843981621,-4.97723239676634,-4.418231625987573,-8.507708047829055
0.856,-3.902352444358712,-4.057153444294499,-4.989750831259698,0.9607505781780219,-3.788477728333646,-4.635198302481058,-4.959359183914785,-7.479889859031118
0.86,-2.5378494486196814,-3.8926471830554874,-4.3195283257068695,2.854376417043568,-2.7893191834525624,-4.181548356687472,-4.324456767996935,-6.174852936135267
0.864,-0.7893174632392856,-3.5685751406083455,-3.641030401595799,4.288445180539611,-1.6638717735881983,-3.4711374324174358,-2.9570278111164043,-5.011821504781437
0.868,1.0635222578025605,-3.121361768579618,-3.1334986622105134,5.1941725249519095,-0.6095578558354191,-2.420312275366541,-1.6485627835654668,-4.362747454352302
0.872,2.6472743539391104,-2.58345278847014,-2.88128545581867,5.616086803864619,0.1440569932831295,-1.082026799434061,-1.12820414818043,-4.4960716311129545
0.876,3.591499153150835,-2.011113487824332,-2.8730495917666303,5.579986988137534,0.39439516035531597,0.33017615216340346,-1.65745943367574,-5.5284573712306155
0.88,3.670909368159073,-1.477624097674834,-3.001140581570098,5.05161556962139,0.06417097392591131,1.503717105189935,-2.8466261095461505,-7.3687662964716765
0.884,2.921858227683856,-1.044286205919434,-3.078908036518669,4.009621936632584,-0.720273490162981,2.1492011336472387,-3.8284566572763197,-9.669606158869556
0.888,1.6723147683802608,-0.7285171459211597,-2.875918837088875,2.5705419034784427,-1.634986555543037,2.123443031914576,-3.7110854987602124,-11.85993739546575
0.892,0.425725884931353,-0.513634305077403,-2.2146099576127654,1.0367192072387752,-2.277708352690297,1.4829588020356823,-2.086736990068175,-13.282647520866249
0.896,-0.3572019977717673,-0.39000694788614965,-1.0917237400399245,-0.19221063639679414,-2.3452751682493727,0.44540963426698,0.6880003728440443,-13.408563619501365
0.9,-0.4537147650285078,-0.37063853018844384,0.2750746750161852,-0.7846212034953624,-1.765151391354948,-0.6905757114450353,3.631513803314192,-12.038356296510756
0.904,0.03918525789094929,-0.46139149593750517,1.5183969008164695,-0.6232969366549241,-0.7034970388717738,-1.622473849969083,5.6444769766762874,-9.37623997591163
0.908,0.8076263850192618,-0.5784932066453621,2.3131026819644376,0.17252153804724912,0.5618977680264834,-2.079491347487874,6.127208532637951,-5.947994403961275
0.912,1.5231658284826608,-0.498568934987361,2.554914818999805,1.3378421613863338,1.8029956256125388,-1.8546450010999251,5.3209494993152475,-2.41011885802709
0.916,2.0049698464367793,0.07378711474370903,2.3896567352724105,2.5759734941482293,2.909266702110699,-0.8674497654014885,4.140835879876931,0.6361667654236953
0.92,2.2532384185684577,1.3293720115368615,2.0730680880105865,3.6230987160747645,3.8120386625848823,0.7476333501240333,3.5589992685468133,2.709192560452493
0.924,2.3197833138585793,3.133275583137106,1.7100870673477857,4.221814427512527,4.30772589060598,2.5658575554766685,3.8698636539863855,3.3883368164079
0.928,2.132270539293927,4.916924844698542,1.0584358109692857,4.070945543235666,3.927095963562806,3.8993491856149376,4.293714640222333,2.231649644907293
0.932,1.4034854597715594,5.785674230088034,-0.472665982656963,2.8286223647958195,1.9800104791777358,3.963350637935264,3.1958981324887645,-1.188633158255925
0.936,-0.2768132718265406,4.8590611417765786,-3.563310265831433,0.23579753673129744,-2.1623978722129777,2.157497569634643,-1.1106696369363362,-7.064499647508228
0.9400000000000001,-3.1591054336242905,1.7312174019037911,-8.527459525915447,-3.6525836525675004,-8.626511710221394,-1.6192029554586043,-9.342744286494508,-15.024058488884066
0.9440000000000001,-7.031485821862702,-3.19165902744669,-14.90330035392003,-8.28164652364876,-16.669838873305025,-6.780321322354666,-20.55236313458977,-23.89963098263479
0.9480000000000001,-11.083212761596997,-8.665844148511042,-21.31885673707825,-12.597059813952342,-24.61975600057349,-12.113538883675346,-32.16596233059431,-31.81110208948826
0.9520000000000001,-14.080725866436296,-12.983011193192965,-25.81808268293048,-15.32382311752258,-30.261626141431634,-16.125728529517346,-40.833102711997526,-36.63597803656876
0.9560000000000001,-14.831530545748592,-14.620585662290864,-26.584335538115056,-15.450974886666927,-31.5936135480938,-17.56480763722243,-43.73736473474855,-36.733286627998496
0.96,-12.710713907960667,-12.86612264594703,-22.739843926904086,-12.679518350716535,-27.63980366637145,-15.8965978216454,-39.750624596358875,-31.60355454958153
0.964,-7.978801941649635,-8.119179818585735,-14.840181844198014,-7.583927419704878,-18.939431182394856,-11.510437363818937,-29.899268739514582,-22.142137284858563
0.968,-1.7056627547066228,-1.7146335776981232,-4.7674235944869,-1.379886784660357,-7.4457594456857805,-5.547109055901274,-16.91747081151607,-10.350505854847142
0.972,4.649660802629683,4.63094763100105,4.941983100220114,4.578755846356216,4.146664670752557,0.5578571693129106,-4.149223208391277,1.3878395319463834
0.976,9.78471546846265,9.477997323959244,12.030908986520785,9.312995882677228,13.36149836974937,5.5963891606554625,5.67163792330598,11.123578219106093
0.98,12.976446260633566,12.132085924309308,15.320080061491922,12.500207853633356,18.779309812478346,8.956836164365768,11.234193075064695,17.866596851592476
0.984,14.198385155037386,12.732800593016577,15.015637216236314,14.410809105691214,20.397649979609696,10.701821946916652,12.75880684030085,21.62957686495065
0.988,13.953307048648185,12.000326991101133,12.444806084340257,15.60224335721864,19.397077077301333,11.371701004896522,11.514733452066935,23.04897761801135
0.992,12.949589035769066,10.806091874578556,9.361698473834394,16.56414748542261,17.461064399004613,11.641127723215277,9.072028067819133,22.865238310396535
0.996,11.806259030988485,9.793257805417966,7.16713966758914,17.49697859191997,15.990008467546545,11.991192189658705,6.667993588395348,21.567677773587548
1.0,10.909887873616071,9.209338554319174,6.412370972931853,18.305909681389494,15.570479849729054,12.538868908673749,4.933409634126065,19.359046971036832
1.004,10.411029634815122,8.960474187132945,6.7626877453780025,18.737533952971376,15.905056353337386,13.071162719719496,3.954199291556847,16.38355835231414
1.008,10.29443965775863,8.798055887735472,7.388331855771753,18.543355926569234,16.17295945016656,13.226304273864798,3.509727769089409,12.982290800985993
1.012,10.423674269854871,8.491506933733717,7.505302344306756,17.55911112022443,15.577226732496797,12.7032735890798,3.2876689923660933,9.772692177245972
1.016,10.536397913360702,7.899920566390506,6.763928057630437,15.691131516031078,13.777898386438096,11.389615969617807,2.9777039622455277,7.465069221992053
1.02,10.269018065335615,6.966285821141696,5.333736312266183,12.901197524482086,11.031308816846263,9.38803971874404,2.2995263048265997,6.52385516300501
1.024,9.270250607126798,5.6867697435169475,3.7006088124026064,9.26272507250087,8.017583917527418,6.9709825879358505,1.0573145523133007,6.916381116719549
1.028,7.4028668799999195,4.1226755852781025,2.3637448300801225,5.083062293685543,5.497059743063346,4.508148425609079,-0.7355768082064742,8.11002696171272
1.032,4.907202213356982,2.4303897603782616,1.5896503445585495,0.9626295326156651,3.978007537137387,2.3836040860398953,-2.7507007494325535,9.335277142318773
1.036,2.3814090623765196,0.8523693351439761,1.3208899969936283,-2.3321274484205787,3.5387408520790586,0.9084167796584097,-4.39316026969027,9.963220292440155
1.04,0.5414776706903695,-0.3545689400853007,1.2616487180487184,-4.166852958606796,3.859546312748307,0.23792865229120252,-5.039738409531083,9.778213565348096
1.044,-0.15170664291383673,-1.0403537302405539,1.0533285996748418,-4.370138252611127,4.411214543653841,0.31522620412033575,-4.3829525202704644,9.010389965058948
1.048,0.23489055879701937,-1.2389053287686238,0.47231876827140695,-3.3668189682540515,4.712416567676428,0.8871827625282549,-2.660791163413478,8.12407533255191
1.052,1.0985693878840266,-1.1511460899157555,-0.464330565258706,-1.9989404439377267,4.528142659577043,1.5877673332745417,-0.6139734054645487,7.512071118897438
1.056,1.5938563300566102,-1.0298109860369777,-1.5263573663462466,-1.1039705371632635,3.9318390727431733,2.0605382248234037,0.8445118867596193,7.280591499029242
1.06,1.0857794748408196,-1.0221849121980995,-2.387629170566697,-1.0795291247020486,3.2262878266888038,2.07572037557361,1.0952616811598546,7.228279389867112
1.064,-0.511953880731653,-1.093142355758232,-2.787005823708796,-1.7065050536936042,2.7617504764615433,1.5931662104587758,0.14260871146984755,7.012736235959892
1.068,-2.699110855018148,-1.0733745227579448,-2.6414027580447055,-2.343635256313064,2.744157341335722,0.7513746090216955,-1.3927743784579434,6.36668674866246
1.072,-4.6961547274855775,-0.8169122561854465,-2.093742877674231,-2.3960849420163868,3.114192035162887,-0.22283273345374255,-2.6324869981879147,5.244090133403461
1.076,-5.917662167128356,-0.3699608406510606,-1.4932909563294743,-1.774228382951378,3.5432386831075746,-1.138545974733006,-2.943223762152911,3.830065535188396
1.08,-6.313747531617651,-0.016615641371572565,-1.295462348241017,-1.0351894755409603,3.5594622629407695,-1.930115346509183,-2.286467366539682,2.433648685391745
1.084,-6.3764723321223755,-0.14317717333221935,-1.9053233123222526,-1.0899583619680016,2.7609917428183053,-2.6762169970343166,-1.2091280642316633,1.3521079775496219
1.088,-6.7822745190661635,-0.9670087333030324,-3.48116390079781,-2.6142631881900797,1.0333807155864179,-3.5126314241358614,-0.4715749920185317,0.7776139464190237
1.092,-7.912027863657158,-2.3140927765302877,-5.799988255342441,-5.535466144167231,-1.3394007773931662,-4.501567815219687,-0.5647960233166032,0.776840062041174
1.096,-9.566703485119888,-3.615390600627279,-8.282485333993236,-8.943334029776452,-3.7484399929942356,-5.552219105943323,-1.4342120688856994,1.3004894992920981
1.1,-11.05614333243193,-4.1589196575300775,-10.190559293193928,-11.50867438643104,-5.504769928398446,-6.443840764539573,-2.5739478259047246,2.181872284828387
1.104,-11.619139409980221,-3.4864495600872942,-10.946226152686904,-12.192593819905596,-6.147175314405558,-6.94576617950861,-3.427257213420944,3.137740002130613
1.108,-10.894463579511807,-1.6872398383549125,-10.387903329868095,-10.824409282720353,-5.651078391214014,-6.955959030012764,-3.7995098464039074,3.793332350011042
1.112,-9.161801905075663,0.584571846771496,-8.85307291716208,-8.21443836603953,-4.4431191337675955,-6.577866938145689,-4.0115858332258085,3.7760510100797546
1.116,-7.203293155863207,2.401245792684449,-7.05177995287022,-5.7394744718101265,-3.210463153489627,-6.0954593189767365,-4.690046641816252,2.875390222713577
1.12,-5.866237346621119,3.02107405926472,-5.762344375660177,-4.6321208010263035,-2.593729260506734,-5.849524810532785,-6.314424932504153,1.197154135618348
1.124,-5.61442536389859,2.251180516767363,-5.510361100082264,-5.38279535991137,-2.9268265756561505,-6.069644711208639,-8.828653749662863,-0.7827552518060656
1.1280000000000001,-6.316981811626761,0.5285098902788832,-6.354773913651115,-7.560667928208659,-4.124220929249077,-6.74174009494709,-11.571401233654797,-2.340502657521938
1.1320000000000001,-7.399117343315538,-1.3349426344514086,-7.8956504759255495,-10.124377759301524,-5.763863411274315,-7.596029283307416,-13.596815640252771,-2.780481719137242
1.1360000000000001,-8.250827176315056,-2.6034948902215547,-9.511811906560524,-12.021995496931822,-7.324142585153595,-8.239427530361809,-14.209909390032635,-1.7586774312048874
1.1400000000000001,-8.617405993646798,-3.0060933387921978,-10.688945526250336,-12.717096957831927,-8.436841848090125,-8.373688580575617,-13.385242861525057,0.5011813047476608
1.1440000000000001,-8.731487349584768,-2.8504872684527527,-11.270158463708412,-12.364717186531152,-9.028342225176402,-7.973668861705846,-11.810131733735489,3.234623841561188
1.1480000000000001,-9.090702546692569,-2.788142859098116,-11.466856803205928,-11.5637737020013,-9.282015171571857,-7.306313606387903,-10.498619891668568,5.405251123345806
1.1520000000000001,-10.044841737228126,-3.3901248369452333,-11.653225154564325,-10.894068620069902,-9.470670318158454,-6.775452407305693,-10.212741100212725,6.11701187691142
1.156,-11.484116556145864,-4.800790987983191,-12.093444689699936,-10.558069249258551,-9.774035398112346,-6.683897436532789,-11.045682519332786,4.983650533780747
1.16,-12.834010498587304,-6.663624508436897,-12.767749019924167,-10.326849422128817,-10.18426095194036,-7.052579634460926,-12.410521041560969,2.2893235995038594
1.164,-13.384811320170684,-8.356426719307592,-13.410111316153007,-9.79471873850548,-10.538648026663168,-7.60815911583768,-13.436735419531942,-1.1217452501741718
1.168,-12.738569262505962,-9.363589196741032,-13.698066197784328,-8.728089249493678,-10.631518038762124,-7.941456832732001,-13.507611166534844,-4.186317219910961
1.172,-11.09716026320666,-9.55816006202167,-13.48529889086467,-7.272619628151233,-10.334697061325187,-7.756587300861156,-12.617297901159418,-6.03315043599514
1.176,-9.215183915055832,-9.235273022916317,-12.936478627194447,-5.89919541944505,-9.661674297257832,-7.066145364419754,-11.346317534902937,-6.2876944374093
1.18,-8.02298604431462,-8.886878025831493,-12.467806020142234,-5.131210115385329,-8.750396896599796,-6.206676986316779,-10.473503527539378,-5.159474214885449
1.184,-8.146459445659275,-8.882042264189295,-12.531421067358679,-5.245920656039516,-7.797714477728505,-5.654960855126319,-10.489674596161422,-3.2847912256584095
1.188,-9.577547290456778,-9.242658346222015,-13.327539944228647,-6.127232422974203,-6.978029783102556,-5.737968436330448,-11.299325767740356,-1.4218308418285233
1.192,-11.688783569230964,-9.663678194110616,-14.640167878389548,-7.358332189300199,-6.401997916763776,-6.412877133737766,-12.293637032395509,-0.13398038265040668
1.196,-13.58663919486662,-9.767302461204736,-15.91787717073339,-8.490038388113362,-6.138402812236109,-7.271892014598507,-12.748905785589614,0.40623975550079194
1.2,-14.590895067511383,-9.41712832202711,-16.559090304670917,-9.307673831938018,-6.256748641914555,-7.782133429313035,-12.293668138503108,0.4243860730762208
1.204,-14.5791704788694,-8.891278501745546,-16.255285667089538,-9.937326536148703,-6.8456911325331475,-7.619714540970563,-11.156214167390317,0.38061314224569287
1.208,-13.990054640981498,-8.764490648920855,-15.160837901016748,-10.707718087277271,-7.966928015901885,-6.8746813388966075,-10.029849929454485,0.7062200927939557
1.212,-13.511328997727105,-9.559696669311052,-13.799961659815835,-11.871550883867485,-9.560247700792388,-5.9996789102474395,-9.649127697705808,1.5791185962493728
1.216,-13.653378244872101,-11.375591496774405,-12.762817189797715,-13.371840205171111,-11.362440492118367,-5.5319979009541385,-10.327195268226205,2.840652524318557
1.22,-14.448301486139144,-13.716663344325525,-12.362857220952264,-14.796693404872713,-12.90699440364233,-5.758668457827298,-11.73707771322961,4.080519238273155
1.224,-15.45712430871231,-15.660855205922417,-12.470041065506848,-15.567921567038866,-13.645796562461783,-6.533433891404911,-13.077114539031754,4.84670929342974
1.228,-16.02782589682397,-16.266870298426284,-12.576705036434305,-15.228601015053755,-13.135829655649104,-7.349568843620091,-13.490172163541956,4.885693928581077
1.232,-15.64558977664592,-15.020759432240538,-12.074777781168905,-13.678816242743096,-11.226201326102,-7.630092080322356,-12.5079634922904,4.295571184001346
1.236,-14.185591387592694,-12.095079120383843,-10.60270262469976,-11.235788661430433,-8.157994884393702,-7.058878577703126,-10.280831238515475,3.5168804733907564
1.24,-11.932108771802405,-8.273688718344147,-8.261159699254222,-8.488248631015722,-4.514991907577951,-5.750948941198203,-7.476155837010083,3.1590717612589287
1.244,-9.389616235949006,-4.5875464973219096,-5.588870113129815,-6.03274123663914,-1.0328559689851318,-4.1620342890328175,-4.924969116525062,3.7516150438491422
1.248,-6.995574745315025,-1.8423635166730037,-3.2759524915795737,-4.216881533422111,1.6721850729959442,-2.786413317905499,-3.2081698285978746,5.5109233880475585
1.252,-4.918422320723266,-0.28991059613008474,-1.7972190436098572,-3.0254754149295877,3.327415411209131,-1.8497664693327351,-2.4120849922805974,8.232164061480944
1.256,-3.0616151519366213,0.3920265132530858,-1.1924698141770023,-2.163854973919115,4.069458065712297,-1.2038137377330713,-2.1704875305272253,11.350820873848988
1.26,-1.242931241932638,0.8246009315582796,-1.1128263316786615,-1.2866838686600204,4.312892574524085,-0.4922800235754039,-1.9355747797949334,14.13749940898424
1.264,0.5671545965212772,1.5214753561374437,-1.1053384909837405,-0.24247823671748847,4.489004197639588,0.5280897120273949,-1.3119668987828845,15.961917369986622
1.268,2.137925709066394,2.6162095416511875,-0.9081268112963699,0.8281399328111547,4.814478218059776,1.7497795764265902,-0.23933840935478656,16.515355483568783
1.272,3.061845843680885,3.8546449652644696,-0.5870036115302355,1.5755479852946337,5.206556353599353,2.731887969754098,1.0425577868836626,15.914619293626856
1.276,2.964027725647611,4.823417196272658,-0.44679545280905586,1.6439922552858661,5.382513177512465,2.9654223924617327,2.180647309679898,14.648598079737894
1.28,1.7257042822739095,5.265754573080812,-0.7782400243249867,0.8795432780657393,5.077742989216858,2.2193339543746333,2.9221181400052956,13.391070675031187
1.284,-0.41387134775209233,5.277628525376258,-1.618612940872481,-0.570142172708529,4.25614191302293,0.741097105595145,3.226144893806122,12.759864745497907
1.288,-2.9206667970147464,5.274005855622363,-2.662306090342554,-2.296108079833175,3.190018273589885,-0.8146415072023956,3.2375299770337733,13.08483962833725
1.292,-5.160854822175452,5.73866865059199,-3.4037336051460443,-3.7898913510630337,2.3464918732393016,-1.71063885314652,3.161670016363587,14.282369755923355
1.296,-6.626824865074468,6.909418364239173,-3.436309369945775,-4.644829280662179,2.139299387995834,-1.5187781197500954,3.1358696606753256,15.891828286324198
1.3,-7.080709245293519,8.596310072054166,-2.7183041775861057,-4.693376091773644,2.6873280294821598,-0.34419625077680394,3.174720626965609,17.25922665201324
1.304,-6.5725903657692015,10.24284254455415,-1.6437412959221547,-4.029222295049749,3.7227741269607577,1.24945919957554,3.209774927036051,17.816754698450495
1.308,-5.329162084666905,11.23179146826078,-0.8175674140884439,-2.906931489843828,4.733289361382958,2.579859928523547,3.19719903683108,17.334655202218528
1.312,-3.608779246496397,11.250152001583956,-0.6742072826236836,-1.590341991675814,5.264663396808828,3.237229113853573,3.2055390231430465,16.036263232866986
1.316,-1.6162071926219141,10.494391228525274,-1.1860898068780443,-0.24855008185659244,5.201638300250124,3.283945132307963,3.413476449866721,14.505896201181713
1.32,0.49818700254149917,9.588756512764576,-1.8541703832538587,1.0463661406874962,4.85132899861037,3.147349649913849,4.010711386186813,13.411888724610435
1.324,2.5757714882856817,9.234020146424427,-2.0184579243968983,2.2348641824473816,4.763798089335069,3.283457832310887,5.052694437165883,13.180653245157373
1.328,4.420285077306289,9.802603629931127,-1.2734561281049537,3.2085200470442032,5.403059215464509,3.8504780652283443,6.378751245177227,13.775674785429146
1.332,5.828453883053498,11.09727089964099,0.24594614285206262,3.8186789419046363,6.842747464237618,4.592787024634163,7.639110206269834,14.70833027441131
1.336,6.6621990079711395,12.409955680292114,1.877807215773828,3.9551001486538553,8.662045556030534,4.998659941398728,8.422243803509446,15.289987556818232
1.34,6.91549526437575,12.86327702437984,2.7662659689076463,3.6451173936234227,10.12152569678301,4.631485001229521,8.435440225232924,15.000237997716795
1.344,6.712092909351668,11.845429614592831,2.3222584194236333,3.084255304815997,10.521816956732891,3.4243806270205823,7.635090446204231,13.775287082668001
1.348,6.24320344599937,9.32980895462515,0.5867851285861434,2.573148923554072,9.56321416621995,1.7755257883954982,6.265657128939893,12.040558050155596
1.352,5.671076658233233,5.909431757439506,-1.723162688949742,2.375412364026033,7.513991147708111,0.37800009598322504,4.782453232014632,10.474420223779816
1.356,5.060725289907623,2.5328642228855642,-3.5370395812433344,2.5662583838493447,5.087366148700312,-0.11555658199449681,3.672727809882417,9.628737852995982
1.36,4.380572284822392,0.08060443860449595,-3.9628096945129982,2.9653277384932153,3.0867198569699212,0.5953349055926083,3.254492472980928,9.614222150939895
1.364,3.5647084151373747,-1.0040705912647354,-2.753480343816136,3.2057196898667826,2.0148201206948215,2.3303864309446,3.53064342711059,10.055083687640035
1.368,2.6130329345378414,-0.8355715661809882,-0.4257588157952341,2.9387316648508204,1.867931458753901,4.547668246685134,4.1949686640218715,10.34499830106688
1.372,1.657513049328827,0.06968165558373585,2.013681343679309,2.062051723364675,2.2065505613936693,6.625059026081544,4.784431095652508,10.062768583477919
1.3760000000000001,0.9412679721990571,1.102493017852339,3.566175291937725,0.8280904384623682,2.437915667530433,8.133605644327872,4.897286497668574,9.290713466965826
1.3800000000000001,0.7178865293935814,1.8449381666032423,3.6915044849329206,-0.24258499150710122,2.1343168908197185,8.959157387691448,4.378415818423491,8.619031663187343
1.3840000000000001,1.1073428196641544,2.178068057754899,2.475240305752777,-0.6270094536275792,1.2050109182778215,9.237076346536924,3.3695573287177467,8.813067480807149
1.3880000000000001,2.0199041172513716,2.2151382810880023,0.493807705582185,-0.08027849979225721,-0.1410067914339379,9.191153300400401,2.217645840908517,10.307720050959688
1.3920000000000001,3.1795291723638,2.134488481362496,-1.5227058214823046,1.2159915155307317,-1.5884088389852877,8.988967298815624,1.2794835032373157,12.834734867887164
1.3960000000000001,4.227930722052406,2.034921189691431,-3.0415584511883935,2.715635135600678,-2.928008432081242,8.68687164701987,0.7286693854239275,15.429770625681158
1.4000000000000001,4.860226985761528,1.9041351780883815,-3.915718860648667,3.750640859678697,-4.156803636528821,8.259753548034496,0.46723904553164175,16.844194828425316
1.4040000000000001,4.911284777027049,1.6838834233858506,-4.353941588957241,3.8172799261265027,-5.414448105359497,7.669751205043212,0.1826951093316893,16.17092405204403
1.408,4.4005447333656775,1.3967334444237167,-4.681168643162891,2.8002959616214866,-6.78849627312502,6.937924522692811,-0.4434759144533018,13.348717165225025
1.412,3.5231428678634984,1.2273416149291734,-5.065742859311285,1.0202898911338707,-8.129938784431943,6.166073599659285,-1.5023785226221662,9.268937130289487
1.416,2.5929582564613156,1.4860816655200324,-5.381653657525931,-0.9104910011465108,-9.016402796808052,5.499148592778511,-2.7407534072472117,5.4196431598684285
1.42,1.9638722965355555,2.474383224936446,-5.276387366116978,-2.338732935959797,-8.907647947715304,5.055785130179174,-3.642780441616196,3.2377226677890576
1.424,1.9288544491300854,4.321305873776055,-4.401645311185348,-2.8119338896703994,-7.424768221399063,4.873047638954631,-3.677347456971802,3.498076195955946
1.428,2.635294137296114,6.896617511679324,-2.6292427355920154,-2.1959436774286587,-4.58887201546986,4.907678887908332,-2.5664160137712315,6.025057676979486
1.432,4.026809344219146,9.833098877704288,-0.15491211271182692,-0.6558409882695742,-0.8934802262510857,5.077925844208039,-0.4446670970082778,9.845776010829468
1.436,5.825234166811242,12.63385260082805,2.5455682974170486,1.4387351961768218,2.82920870131602,5.31002383131181,2.1760087567554365,13.662499677762753
1.44,7.574783360569654,14.809139514532035,4.87750164415047,3.616304458477771,5.69448587685838,5.55772807287758,4.612570519253495,16.376021144250444
1.444,8.750101290720977,15.980927046855868,6.31126517489065,5.374280151600942,7.072386510605611,5.785729471785089,6.2774848485878465,17.42142729360421
1.448,8.94202823805108,15.968306397878223,6.565880303818631,6.270106929254325,6.816231015457561,5.961630784524459,6.896893373003877,16.816761767011485
1.452,8.0328577000505,14.83822202016654,5.713314952903602,6.037868108796829,5.314922621734695,6.059768049878585,6.582103023521086,14.99128502727217
1.456,6.271259210020617,12.90814102988952,4.156191710336316,4.704166785692905,3.3505385285634475,6.0665134590926755,5.736758066494076,12.557198480819352
1.46,4.191564931408266,10.68384052196734,2.4884868056542473,2.642673717505204,1.811653901992031,5.973410641629016,4.863018785265012,10.152061065233283
1.464,2.4010941735759843,8.722414209646558,1.2829101459719823,0.5085380156442625,1.3684313455005395,5.7674254145449595,4.359491071000775,8.38585227582007
1.468,1.3524133240557603,7.456887562974771,0.9137258788923646,-0.9465524210118019,2.2429547663923586,5.439230860298267,4.409105982394976,7.813803705110331
1.472,1.194155727442194,7.03529754120791,1.460824896072154,-1.1411483157053226,4.142652667580478,5.008536385531443,4.9675424739562,8.847134756258129
1.476,1.7703330581757655,7.255391092511218,2.7119615337242067,0.09259577617831383,6.371222194772599,4.545785262172103,5.820818612661242,11.588962820557754
1.48,2.7537530191943915,7.651881120288181,4.25989059868607,2.407033971789133,8.07823835731142,4.17233904720797,6.673660307531463,15.674868673129822
1.484,3.8202869407123217,7.720418410051934,5.647237718268116,5.045130132841223,8.559897789628849,4.0158464899741375,7.2310645924981145,20.256667321848
1.488,4.795943821080073,7.200388704646684,6.544533978407344,7.147304483706648,7.526822232649465,4.15189333530725,7.297102875239943,24.210426345636733
1.492,5.690866538696355,6.252919533342265,6.8691408149352355,8.1115250611183,5.234944408652154,4.557067652100159,6.862170934561618,26.523144749957282
1.496,6.611298796095525,5.404998985308339,6.7751093102506275,7.827742843952365,2.408732103958755,5.099784669529981,6.1392185743552545,26.68606691673631
1.5,7.625691890816597,5.262936094724864,6.525477297632278,6.684695443394048,-0.018913117464762763,5.586141489442525,5.5086752038941995,24.89899000746118
1.504,8.667234984653533,6.133762533867866,6.312495830740772,5.348728730090443,-1.2486980345101983,5.846930298617735,5.3668081510577395,21.98037068038684
1.508,9.55780215049981,7.789469720835768,6.164941006598383,4.455332074428952,-0.8942033352905128,5.832950759817322,5.937218422037404,19.003759715611523
1.512,10.124262238744905,9.524137386667462,5.9809645766672475,4.360775749363711,0.9066224383914232,5.656158864010649,7.125200879158001,16.849776574832504
1.516,10.323256067823422,10.509061302625014,5.652195450080399,5.049966259530265,3.5924312859933707,5.527679954291671,8.509341877464067,15.898987824641154
1.52,10.281254674041975,10.259683166669674,5.191277794614507,6.206731063997722,6.428947836566294,5.604873062242405,9.508149634770234,15.98824237656845
1.524,10.208977162579686,8.935176342487466,4.757266861412063,7.370337650047077,8.784058775930134,5.839929112633399,9.65747783740153,16.622455345679555
1.528,10.261704845664099,7.301141909389116,4.585641814726841,8.112845432975519,10.323809348918076,5.947074045183399,8.86943376734689,17.282898300079978
1.532,10.42565517157891,6.3436388015270495,4.842693143082215,8.158398552379367,11.047093340974243,5.5310648340127955,7.514309759045318,17.65348709729551
1.536,10.501651773697176,6.722930540573998,5.481277121442872,7.414756211770509,11.166786567137024,4.321412275613511,6.24429007740855,17.659383093010547
1.54,10.199836427716491,8.373649690640832,6.195057903104498,5.9442051068608635,10.913769999309807,2.374488261240913,5.637115220972191,17.33019918276841
1.544,9.292621650922229,10.490086261483157,6.5083148603862355,3.915401213873338,10.379346896031166,0.11676456876921293,5.840831790947959,16.623326087050373
1.548,7.760639139170962,11.939643334029824,6.003121692272543,1.581365913888476,9.49030670878983,-1.8007933911376313,6.454735766254089,15.33941731869345
1.552,5.826065651561294,11.867781234328504,4.547233647680514,-0.7489251582319412,8.107079873567272,-2.7961301050563634,6.724121697972805,13.20756640665968
1.556,3.8524568842885856,10.15302468914706,2.3863477190589037,-2.7675224207641804,6.17531880209026,-2.6402447017135273,5.961785004017656,10.093397185937647
1.56,2.1701867580550243,7.449574954727723,0.03696225080238946,-4.257871677840285,3.8285562570581533,-1.5829730539498996,3.9634744568202223,6.187847396434336
1.564,0.9235630545413187,4.788953098382308,-1.9751031864857396,-5.185517592645056,1.3738478862733245,-0.24840715108393852,1.1674632662013664,2.056526718985424
1.568,0.045576237586601565,2.9946399825803383,-3.35107835894496,-5.710047308495859,-0.8227981396560153,0.6729415083477761,-1.5300477590776609,-1.519637976287413
1.572,-0.6379437417963345,2.2482527886768366,-4.117372772760973,-6.102102125714737,-2.4865671335483057,0.7618754810027895,-3.229066038287783,-3.8458146113625844
1.576,-1.2522185671073203,2.0554957911408565,-4.549150883622133,-6.597774002333608,-3.5354206287920533,0.05120929421900655,-3.5026507701895753,-4.6133545090197
1.58,-1.772048573074244,1.6234421224917241,-4.978537892748136,-7.263301773756211,-4.087839999397147,-1.0488372008130682,-2.631049000103303,-4.05962271467979
1.584,-2.047086619005313,0.4043521451194465,-5.610585034577525,-7.9444637112992496,-4.366431906093567,-2.0171426895867626,-1.4574087685050472,-2.889874613179927
1.588,-1.9114670985218254,-1.5102786017287144,-6.402019229012694,-8.30851540727599,-4.535371951717025,-2.4949853080634057,-0.9176688705028937,-2.00006749658678
1.592,-1.313501799133519,-3.395968466292288,-7.082432073020755,-7.967764111059296,-4.571639261131168,-2.42083401666423,-1.514685345039652,-2.1182937317462347
1.596,-0.394683047396029,-4.316886204203001,-7.3130648797141475,-6.649589734613983,-4.269644183058517,-1.9767641036542045,-3.0467643207757646,-3.5322919140662634
1.6,0.5441739941579726,-3.7146791356121867,-6.8893302401866094,-4.346131692203926,-3.3899317461036844,-1.4053274952329957,-4.7400824785645455,-6.016031437035053
1.604,1.169984678590481,-1.8123289775576268,-5.88522628231749,-1.380501044141056,-1.871746461967632,-0.8433067204714462,-5.711220855903775,-8.955635533842724
1.608,1.2970511353373695,0.4418265312242511,-4.623445509934754,1.6657258063924019,0.03293268054949294,-0.26346455269413127,-5.471456999592192,-11.612997786016422
1.612,0.996836504321891,1.8581539020351556,-3.511710112646142,4.127743591679064,1.7933369646880237,0.44481977008035756,-4.18471555119595,-13.394734293517104
1.616,0.5623497344868156,1.6422731662578371,-2.852732169490082,5.466562695513858,2.803332559793489,1.312640463205753,-2.54821144975449,-14.024389886555582
1.62,0.34289044126671797,-0.17482343804886114,-2.719699770461375,5.446015559374246,2.669027753422597,2.1737440100005188,-1.3746283012915228,-13.574579665284546
1.624,0.5327942902222276,-2.7672585362465725,-2.9683483799826718,4.206639678605825,1.42388526177092,2.6911068185308977,-1.143627797224326,-12.379884889915957
1.6280000000000001,1.0522971441937443,-4.966677058902405,-3.332026721438524,2.2249395846529296,-0.44114577960317547,2.5385995117831044,-1.770316778913184,-10.90574015524362
1.6320000000000001,1.585007781998229,-5.880249868801002,-3.5510558379746726,0.15923240627762425,-2.1705629388243324,1.6201974613522907,-2.7191697253583698,-9.625344692380168
1.6360000000000001,1.759081303574476,-5.325498013123706,-3.483576719913799,-1.3780158325371303,-3.083278026557309,0.18335573243166436,-3.379969425024683,-8.92872325697681
1.6400000000000001,1.3816946305469173,-3.8407736546937485,-3.1423508140769627,-2.031217350840052,-2.878550295079549,-1.2505977710152365,-3.4481567545481084,-9.052083814080106
1.6440000000000001,0.5913620980718406,-2.2969164552227994,-2.6548081480277688,-1.810680885488182,-1.738036447018203,-2.1157938072392426,-3.0713214591869473,-10.00520460163898
1.6480000000000001,-0.14970315921073052,-1.3453386649389358,-2.141827373949127,-1.0295189271546406,-0.1645220915115715,-2.0582035605984856,-2.659170753023318,-11.529129780964467
1.6520000000000001,-0.25242598954082496,-1.0451922158790694,-1.6092577821900704,-0.10216711117936939,1.3348008775165,-1.0831031761963459,-2.5080483986575928,-13.119543329226872
1.6560000000000001,0.6776132790882912,-0.9096185664975565,-0.9585948548847227,0.6569338293402325,2.505650634549056,0.43684056240363134,-2.540829910962202,-14.16458320644233
1.6600000000000001,2.56964780196995,-0.32183852863636275,-0.09422074213398446,1.1416306309783977,3.3917924472743834,1.9014926084055332,-2.346919633278958,-14.184225335741758
1.6640000000000001,4.80685079530258,0.9310410476891775,0.9186830613116399,1.4034717572703812,4.126595523472133,2.683358077883895,-1.540597992828225,-13.088601102690518
1.668,6.384828943521825,2.333115833489501,1.705691046729953,1.4555523296630781,4.597038271605015,2.2689558533547824,-0.2392955327150048,-11.338557807966936
1.672,6.288368886479475,2.7704562284643544,1.5951189287352463,1.0948470518997055,4.250494812326906,0.3402126817354656,0.7065759379238443,-9.876482325902543
1.676,3.9508189390503503,1.0878747919928173,-0.13696149143106595,-0.10598076635415055,2.2341114133105293,-3.179662546444888,-0.03782912558563112,-9.809675061352209
1.68,-0.4402334546821294,-3.233481162570115,-3.902578327126321,-2.6038775542119765,-2.1505645357001413,-8.094244333545248,-3.6333956706403114,-11.948885971233722
1.684,-5.94243319388579,-9.64878595398568,-9.475970579752357,-6.566184899184918,-8.897979659648627,-13.908193675102666,-10.314702111170845,-16.400206495187376
1.688,-11.169386476725776,-16.61544416823108,-15.87398114516418,-11.600151874378298,-16.977115347794097,-19.829924143739845,-18.9681521296925,-22.39993978161783
1.692,-14.776074457333834,-22.137914375995024,-21.52899579885161,-16.695507008792447,-24.47251144387792,-24.846642841491303,-27.318340275175615,-28.49020626199217
1.696,-15.896370762454353,-24.525186137335822,-24.71369354682156,-20.446253299252476,-29.188318721890937,-27.89913960211743,-32.69129489057286,-32.98064093186713
1.7,-14.382138905382817,-23.024914002499372,-24.125933089378123,-21.515508302445596,-29.497705256403606,-28.160841641876686,-33.05536702781228,-34.50192575921392
1.704,-10.771952937272545,-18.05950349771365,-19.410989416834127,-19.15634515261263,-25.042257051440174,-25.34161846594543,-27.86321135655271,-32.4324891896822
1.708,-6.029151702695344,-10.990258165623345,-11.390189434468994,-13.548660877762813,-16.93455858195466,-19.88468705685682,-18.300835651099987,-27.047588789920155
1.712,-1.1818803916630714,-3.554234905965586,-1.8539658314957705,-5.779649684059677,-7.3421009731000595,-12.919693712573462,-6.82275243785989,-19.37099159626996
1.716,2.983842546523647,2.7573468350492476,7.042702835743512,2.5330901071392873,1.3688843799113783,-5.937540524931137,3.8108193228363234,-10.819777266095116
1.72,6.049520973409017,7.094947198113914,13.503077158299675,9.776599260645526,7.509251622333977,-0.331072230740574,11.520089543871109,-2.801813379053783
1.724,7.917863913376095,9.308871398950032,16.63524895836781,14.811229214112245,10.572457871879578,3.0267075279243727,15.497146303481713,3.602676602846259
1.728,8.686152619626228,9.745353756230088,16.617111625534562,17.214005796144647,11.181245513979775,3.998242461057089,16.212301019982988,7.820268251584821
1.732,8.550960358528755,8.954352145217854,14.461382795126156,17.257750167823815,10.579187157384695,3.1256856173122287,14.93385167825727,9.816669180509962
1.736,7.790868561199659,7.472650449730736,11.527558439925087,15.697217557975364,9.969543532207354,1.35087508982906,13.063132273260635,10.002960736219393
1.74,6.775839445161182,5.738547058947461,8.974006143434963,13.46093119658326,10.014121297267138,-0.3819215790481394,11.5863317135736,9.058579536134857
1.744,5.938089277552535,4.101995388486557,7.38614722724742,11.363224030640595,10.694459358583117,-1.467880861593585,10.833960287861373,7.709791545120424
1.748,5.652827718896333,2.841961334190728,6.6942728752028415,9.897097631892393,11.514745164246051,-1.8006532985973536,10.576971216223683,6.507422870732626
1.752,6.073361416024454,2.1482837065150306,6.384379852373058,9.149880393195417,11.884578022726146,-1.6955065573629327,10.332046943014575,5.680932128794666
1.756,7.025134166835869,2.0781446262744794,5.880885803570891,8.862629539913996,11.461041642914552,-1.6318667127461595,9.706175530785913,5.128373832973921
1.76,8.025802968947573,2.515171844775068,4.860209540343931,8.583545907729786,10.2759979176858,-1.9799684832851199,8.610992359191187,4.559058684124466
1.764,8.463492442052484,3.1877800041561386,3.357405707095495,7.878948538313125,8.638797366220388,-2.8383315781838974,7.283893792672643,3.7304030228415286
1.768,7.876833522692323,3.760318048308818,1.6537143624204873,6.542935555924032,6.922146263811555,-4.03634234144738,6.152483326547554,2.6545025195555354
1.772,6.203900128083205,3.9633329937587405,0.06487385410628121,4.7361179526678825,5.382932947843983,-5.260994483664035,5.624922085552498,1.6451504944625412
1.776,3.8727781775673975,3.702608405524188,-1.2102631557108907,2.981702354682966,4.116004651710682,-6.213406138867867,5.900986910542997,1.1554076448210253
1.78,1.6475573083553172,3.0740409572936187,-2.1407835225963936,1.9673350815110098,3.1078784744813674,-6.728564842860578,6.862080501227865,1.4926479157002177
1.784,0.28565517071501745,2.280893279054908,-2.808846988347341,2.2180101899284637,2.3228746888885325,-6.808237272067345,8.082314174463136,2.5802901510178344
1.788,0.16959740378024435,1.5057080900119217,-3.3126487943686698,3.7857372914327243,1.7469379869562545,-6.578485395966709,8.96098832932148,3.916305196036774
1.792,1.105799948701133,0.8243511839909843,-3.686634395096462,6.139051748677957,1.3707897047461302,-6.194261495824321,8.952224579576978,4.782953278703644
1.796,2.4145962498964764,0.22284754714428345,-3.8667541789845927,8.357444130548174,1.1567405168721052,-5.755446050697174,7.813633503134042,4.60900982729072
1.8,3.257133144013551,-0.3164831620633777,-3.749975069409629,9.532315599054527,1.022823339686056,-5.285988052394714,5.7428676542022,3.2824174019042403
1.804,3.033537791779281,-0.7356987322559689,-3.3049042421143895,9.17502355665738,0.8683773530046892,-4.771594067698061,3.3142326336055703,1.2152210123203986
1.808,1.6539562926561757,-0.8965563097976883,-2.654300098881322,7.419767559551929,0.6301409881166364,-4.2300320989861575,1.2308111178490435,-0.8852540249963567
1.812,-0.44410208871454415,-0.6629306928080041,-2.0546871470801307,4.920970850059803,0.34387925988676216,-3.751766011843756,0.009386647629980871,-2.401029633941107
1.816,-2.513385419200631,-0.008595647295805975,-1.7537504560496018,2.5176525941974432,0.16981371375550225,-3.4697275300677575,-0.2383445857631159,-3.129846168262702
1.82,-3.856502236400047,0.9106908477665456,-1.8360309882718866,0.8385073489594106,0.34124690694625315,-3.4920944116347528,0.17051254536409033,-3.3524032902942054
1.824,-4.147087529244345,1.774346754695216,-2.1571130340676063,0.06147561097077414,1.0438821068341895,-3.838470345920541,0.6762204402339194,-3.605982045864039
1.828,-3.558490293999057,2.219977645971994,-2.413371849916075,-0.06096563485925799,2.281351543972505,-4.425183151755846,0.7724820505554817,-4.3152135923673995
1.832,-2.6490621840962376,2.02198503087493,-2.304481230472902,0.05469883408386522,3.801945319310562,-5.103787636224297,0.24694814598205994,-5.5042698962388386
1.836,-2.063862114933727,1.230938364681606,-1.6911346467782096,0.13866826198363924,5.142234678278328,-5.718842422807938,-0.7482222566686687,-6.772662652281724
1.84,-2.231287906608941,0.17493764628443387,-0.6925359731480967,0.21616793500879794,5.7720796389994575,-6.176314698245733,-1.834904851223655,-7.542439930526598
1.844,-3.1898311258935337,-0.6857193518412714,0.33993725817344966,0.5111523212799511,5.297380880291257,-6.479929517233359,-2.6630214356155193,-7.410439642320853
1.848,-4.617777844315242,-0.9949563941331689,0.9619712542830712,1.1822096752248399,3.632242965590194,-6.716540128778433,-3.109971394137574,-6.388199725139202
1.852,-6.0255332675121736,-0.7016345006545635,0.8417305740167649,2.0963680927507085,1.0724270515061107,-6.972804339914546,-3.29716513251833,-4.883073129920376
1.856,-6.977692396568273,-0.10061362011447272,-0.0538549544739908,2.8279077292199872,-1.7637160647082055,-7.223408121977627,-3.42002136498877,-3.447706780117187
1.86,-7.2570526878228065,0.2903859833218121,-1.430236662210973,2.8819004692381895,-4.141137577898007,-7.278587034885277,-3.534774873643073,-2.4625953382465013
1.864,-6.905721011310334,-0.03440709617439097,-2.8121054666530654,2.008883156281172,-5.4860173456363555,-6.837765397780458,-3.472739323913629,-1.9540201728304964
1.868,-6.147554215775017,-1.331296741580445,-3.793989662326112,0.39817597352839584,-5.6197908352032755,-5.642960222017791,-2.957408678088541,-1.6534536950894108
1.872,-5.2545104690402695,-3.477052117314315,-4.249002170552558,-1.383487086992318,-4.837526139314377,-3.6571597697602556,-1.85251486105426,-1.2446380901928933
1.8760000000000001,-4.416763924545876,-5.997816436572293,-4.366499575201942,-2.677497502621918,-3.7746622232825757,-1.1600562614585215,-0.37266960586794085,-0.6267013398560266
1.8800000000000001,-3.687708556903999,-8.246100615898285,-4.521901215816797,-3.087539914736226,-3.1297563949883624,1.2901938661912027,0.905437033182352,-0.009194842738907028
1.8840000000000001,-3.027688823565086,-9.653874631858343,-5.053510716207711,-2.6923325766160815,-3.3739436259293143,3.040437806216687,1.2801744908565524,0.21077795205656003
1.8880000000000001,-2.4036863863755116,-9.953625164974937,-6.0706571889513725,-1.9866399760285276,-4.579173269725743,3.599553136913528,0.30440955102722,-0.2902750448738516
1.8920000000000001,-1.8650210517439518,-9.258402275124809,-7.378459303101863,-1.575372459346454,-6.423868030815811,2.8645837619678787,-1.9036777456008167,-1.527116812040731
1.8960000000000001,-1.534106874310055,-7.965236555720821,-8.539749718583607,-1.801850713323347,-8.35741899743789,1.2055464962645601,-4.60641494677111,-3.152609614629
1.9000000000000001,-1.5431107650231297,-6.562870966946548,-9.08481502685936,-2.560566128251594,-9.856324866302202,-0.6685416981499657,-6.734778720469876,-4.620568411914519
1.9040000000000001,-1.9540774788811177,-5.433450308812326,-8.757546748845016,-3.402876130684035,-10.639173691640735,-2.017656248735875,-7.3933073186335605,-5.464425249936539
1.9080000000000001,-2.7044998396590927,-4.732651635569255,-7.672555446835304,-3.858289944758326,-10.749614036606545,-2.4053164056808782,-6.31839902773072,-5.517451144581173
1.9120000000000001,-3.611078193475578,-4.3880315439705555,-6.295183813591848,-3.7555210574319062,-10.481259557028352,-1.8871111817766177,-4.0380722110412535,-4.957128003706202
1.9160000000000001,-4.41840002720528,-4.183532412841032,-5.2283827882383775,-3.3239683837907705,-10.19114216499247,-0.9422623298905819,-1.6233734659404035,-4.164420019064892
1.92,-4.880897400980757,-3.8905039211090298,-4.945633950228512,-3.030118671576929,-10.12278690786161,-0.20081209538693656,-0.1706651222475557,-3.4921245908258243
1.924,-4.839969657139136,-3.3759419378632174,-5.589278430293689,-3.253937455303685,-10.316524667787235,-0.1067957028399178,-0.27784025869959805,-3.0881550606868586
1.928,-4.2679097291170365,-2.647765491520204,-6.923534964680584,-4.020323594652837,-10.633453432296164,-0.7051196734828409,-1.7865683947766229,-2.872436808272596
1.932,-3.257845696079812,-1.8204960623670559,-8.441199303882968,-4.952539161050481,-10.845184143489405,-1.654724228568739,-3.9061046113088196,-2.6562178420845157
1.936,-1.9637101554249057,-1.0266573883452565,-9.550018234558593,-5.473562125119088,-10.721861688684612,-2.436312215942962,-5.625654740836126,-2.3246668730257625
1.94,-0.5622417092956766,-0.3532695889000479,-9.795425998290739,-5.154739068661456,-10.100548516665185,-2.648173365330422,-6.211243997344809,-1.9582866298305817
1.944,0.7630356508409477,0.17991139504420062,-9.019962617680903,-3.976330394678371,-8.913441131520358,-2.2091798857522917,-5.522211208578938,-1.8094589195711706
1.948,1.8165065661478366,0.5930126679393197,-7.409598026202275,-2.346294118171272,-7.195409799130857,-1.3637557044676214,-4.0065530126225894,-2.152375937533634
1.952,2.3942797715578763,0.9026065324765113,-5.402785922592102,-0.8630849249284438,-5.080408360111733,-0.4912696491683164,-2.4030516663183334,-3.092668690649589
1.956,2.338256912959423,1.1091632600882804,-3.4887177207074274,0.03930718277570122,-2.787151496986553,0.16157530361351746,-1.3277876805859705,-4.450027959825547
1.96,1.6232686841638042,1.2157733870017182,-2.0093858050249764,0.3381880421072765,-0.5855170593140429,0.6386942553895096,-0.9819825402541937,-5.7749374439167696
1.964,0.422383104202936,1.247213970201983,-1.0547179508441786,0.4044792785773552,1.256781055645888,1.227636476952739,-1.1320009795858823,-6.508828765771796
1.968,-0.8928500839281241,1.2469012134233708,-0.493440172865121,0.7366458626922849,2.5358911588662068,2.233217414503997,-1.333476589376005,-6.224087314554708
1.972,-1.844638125651727,1.2434136100623618,-0.10341164462124652,1.624339712271194,3.165780467020795,3.7249054218259516,-1.2362931604243386,-4.83042199614556
1.976,-2.0100971323847716,1.2154200176046288,0.2886099506699793,2.9595362074546756,3.2011876385772666,5.436386680199121,-0.7818442033926658,-2.660884700200768
1.98,-1.2044023724755561,1.0700912995553153,0.701863249983262,4.291820570938171,2.801085037107441,6.869526473972201,-0.1977553811816506,-0.38494661250297213
1.984,0.41129722135565316,0.6667902698118269,0.9931695714922171,5.091708533004066,2.147459699560841,7.555264298828206,0.19480133956631107,1.2383060000029218
1.988,2.3568660984817598,-0.11331803601251522,0.9398418685655088,5.052297605385547,1.3611162711488305,7.311322013262725,0.21870070181353185,1.6665974701209052
1.992,4.01650589152041,-1.274610205513909,0.3908081300126014,4.260022275221218,0.4815179103823084,6.3607409793175975,-0.020291462954901363,0.8270391780574755
1.996,4.909962530736493,-2.640250416882509,-0.5831135840890056,3.148324054896875,-0.4777275866686068,5.242950249832575,-0.17537562198867818,-0.8073678930468304
2.0,4.902170681087455,-3.883929184791441,-1.6615056163238933,2.256330733112236,-1.440954693751337,4.556473666006241,0.13224425380576577,-2.373407374132057
2.004,4.253672879548162,-4.654727925662655,-2.379613790986241,1.9491982149072555,-2.2083104119726613,4.677549050146354,1.0669433038058287,-2.9654028187574113
2.008,3.4793983786335048,-4.744792540348271,-2.3356520889747117,2.2484293253135093,-2.4871956966953803,5.590457244248228,2.44462786739723,-2.037392166178506
2.012,3.086680279016946,-4.211000747900471,-1.3867727658882814,2.8597053040200535,-2.014464549317381,6.917459872605832,3.7946614852285165,0.3242677238044962
2.016,3.3405728075995285,-3.364270275885019,0.2905905135642115,3.3643970428831835,-0.7089475655186561,8.116897168294145,4.598245043983297,3.392698340143852
2.02,4.154589061032311,-2.644408146981732,2.2692562088982413,3.430868574033184,1.2140216191578475,8.713858177768543,4.5610381993647025,6.082761580989427
2.024,5.158537138412612,-2.436862240091159,4.032120657850328,2.931147476889919,3.241159429916479,8.456288365571254,3.7668490773783105,7.404737041531462
2.028,5.8964032746732755,-2.9220363851666207,5.141776497598812,1.918986467002469,4.700487420560648,7.338600921361376,2.6238006738199147,6.884541144981995
2.032,6.052973708432091,-4.027715631094566,5.363698940889435,0.5297855046333098,5.012265817614889,5.531693226556399,1.64438601649681,4.754718211482441
2.036,5.601227418537974,-5.488617994861897,4.721524804331239,-1.089501573170537,3.9525675132381366,3.3009715328882976,1.1889497171446237,1.8191770295904917
2.04,4.786422521397753,-6.979794259678783,3.4544995237060903,-2.786212184033502,1.791843887709092,0.9484570881463696,1.2925350741363673,-0.931109461809001
2.044,3.9702750794778012,-8.246541683494229,1.9244674065794243,-4.359378409624924,-0.7719815968953299,-1.2038700563734892,1.6678666308143875,-2.7579605294506564
2.048,3.4305380099779086,-9.169670377165517,0.5066636841747822,-5.529998378701521,-2.877643035619485,-2.832251603761506,1.8676267131795612,-3.4559448769261962
2.052,3.228399757402258,-9.749235121213019,-0.5003612004595652,-5.985934122737945,-3.8512290412691073,-3.654858216284083,1.5189894694244686,-3.341970909757265
2.056,3.219679923423314,-10.035155762958311,-0.9184484448687726,-5.504955443446647,-3.4805691559258776,-3.4996527772689205,0.5099330356608789,-2.994937997992338
2.06,3.1645833807787085,-10.088501800310382,-0.7382377035146419,-4.118777154749864,-2.103033315213679,-2.3882471655040263,-0.9704447117733253,-2.9015647220119263
2.064,2.869033166940426,-9.988593446640493,-0.1398709051077276,-2.2035265082831756,-0.45099246449694874,-0.5693524649375377,-2.5348120447793008,-3.2066347974518976
2.068,2.272510237361871,-9.8675518351331,0.5353133403468746,-0.41715911841333764,0.6785165694266198,1.5276336745073422,-3.78586631423741,-3.6879428454815297
2.072,1.449036710965288,-9.913605203094221,0.8920065718475598,0.5251545087007798,0.7891839035307839,3.4315639776937132,-4.485921806154465,-3.9339654307275396
2.076,0.5524998238732906,-10.293864602706549,0.6728681147853877,0.16332550227491538,-0.07771010174610637,4.809834467708015,-4.61085620019162,-3.603888485776224
2.08,-0.2621186686931196,-11.031633577602861,-0.0821876963923387,-1.4763339341830033,-1.3694058629002939,5.58166320056398,-4.2986686271060535,-2.6149975804482892
2.084,-0.8937332714086779,-11.915413837249503,-0.9951026456524232,-3.849672140364987,-2.2949116940640124,5.918428271563016,-3.742287919561022,-1.1617849753106384
2.088,-1.3079450273237399,-12.525671531577927,-1.4878202705740478,-6.1020338932059985,-2.2167578001366337,6.118322035034453,-3.0986237980603164,0.4123715451330554
2.092,-1.5229632118563359,-12.408548068882851,-1.055569117241248,-7.426061004388089,-0.9740384598605942,6.421592157424129,-2.450499398042666,1.7890125945798445
2.096,-1.5842975832822503,-11.31929271845513,0.4709488102415662,-7.3902436105677225,1.034783540570288,6.874011997590969,-1.818610785574947,2.786582393006256
2.1,-1.558369528297817,-9.41259329054401,2.7898510010645623,-6.110604999894235,3.040353486335448,7.290555380951673,-1.2096098413653635,3.3606080797599134
2.104,-1.5357597160074192,-7.249097126582569,5.21259372753741,-4.188836972151421,4.272001018906167,7.344217677703682,-0.6518192534498439,3.524153815073305
2.108,-1.6283153194799524,-5.582685670824617,6.93375920176743,-2.454503175155537,4.3124207679269375,6.732030791313946,-0.19902918245520596,3.267416792615677
2.112,-1.9354306288062162,-5.009461184029078,7.3692728870860265,-1.6276391782133715,3.268160878021604,5.342913247423894,0.09260578066596281,2.5490507798372164
2.116,-2.479158748998657,-5.652113943836412,6.412445794033829,-2.041004002000477,1.6851298127603513,3.3535184139311696,0.1945675903089068,1.3532323540969173
2.12,-3.156789449801977,-7.07430833502292,4.457192854655659,-3.5465948012913486,0.2522567690340338,1.1866695677738335,0.10588385076528084,-0.22825602472380524
2.124,-3.7519775380686724,-8.486840400924166,2.195487031544303,-5.62226975427825,-0.5409897331990123,-0.6440680129589964,-0.17376664315736434,-1.9660445431168228
2.128,-4.013026889432695,-9.147631184604847,0.2937270491578374,-7.612495975464299,-0.617572806227372,-1.745613890621371,-0.6792882611481446,-3.5498282792250393
2.132,-3.765088844937509,-8.742339222770056,-0.8728191167182331,-8.985555930357691,-0.2962606284163485,-2.0043239168053333,-1.4820210618088367,-4.701242713218335
2.136,-2.985448897269748,-7.5218428247433735,-1.2864629596322175,-9.482822580834863,-0.05983179979034503,-1.6082665190831449,-2.6372579470228175,-5.275247931892409
2.14,-1.8129597795639256,-6.122674185366407,-1.177457361072129,-9.127590950336867,-0.25665665881206223,-0.9466386043150123,-4.10629463504597,-5.28550939000138
2.144,-0.4929074478916391,-5.175620410785996,-0.8259851369649596,-8.126437521049752,-0.9053469771926075,-0.4205525711363407,-5.691583891914888,-4.845970216177307
2.148,0.7053621406994921,-4.935834385568739,-0.41216824908906347,-6.743429978753511,-1.7074421307008834,-0.26599997561993405,-7.049603411804128,-4.076542584346157
2.152,1.5538063146717604,-5.153468420573745,0.013960827303321821,-5.212133546557084,-2.244961208929908,-0.4655234999870572,-7.802375137142917,-3.0448637103492047
2.156,1.9044171941104082,-5.250974212091023,0.4738517133107507,-3.705859232967896,-2.236873092303881,-0.776604886149812,-7.688914792762034,-1.794448833765955
2.16,1.6770383517891787,-4.716304129357866,0.9548650890161525,-2.369263074600326,-1.7190899873538683,-0.8755533047698236,-6.695377047572379,-0.4298498589640758
2.164,0.8440898438958584,-3.467359230053944,1.3582523220301255,-1.3536685335694187,-1.038241398066475,-0.5303822814887553,-5.089702574747207,0.8167981799435893
2.168,-0.5576369051865413,-1.9530527944953064,1.5365624613200453,-0.8196741891910051,-0.6616955486858842,0.2645142157908822,-3.328222616061339,1.5980765339352274
2.172,-2.392118686634376,-0.9229712709520186,1.3940913292638015,-0.8886053691313691,-0.9051203745818839,1.273180175397215,-1.869351353067259,1.5759249219689764
2.176,-4.38758228363497,-0.9922296405084694,0.9892951158951746,-1.5662700533522411,-1.724352271495036,2.137824762362925,-0.9681607280148228,0.5997004316491257
2.18,-6.166064255593255,-2.2667783182894823,0.5478632502624805,-2.7042695628340994,-2.694090643207403,2.555498393965081,-0.5632691108669405,-1.1615834600517019
2.184,-7.351124231479162,-4.251778365857547,0.3754493440015949,-4.02477134803712,-3.1933500622608904,2.423652551835062,-0.32622108685984585,-3.227685414655525
2.188,-7.713445823700738,-6.11016381248686,0.7115544901788553,-5.2154026266716755,-2.7200790381438082,1.8772563581686654,0.14885533183837651,-4.972850105244561
2.192,-7.281286803658503,-7.12564188025101,1.6119887060034443,-6.046693510779733,-1.174169115278687,1.20974356238753,1.1125515574947258,-5.883328137644185
2.196,-6.327222066971245,-7.081658700088838,2.934786544405199,-6.437531335857216,1.0500469984000915,0.7294967297254971,2.5209318647907253,-5.779691309237933
2.2,-5.24259686955449,-6.350858836662894,4.399038732864483,-6.453798841648165,3.1994155130120703,0.6084076814103128,4.040927891035722,-4.888979556219397
2.204,-4.3599089845467915,-5.643240016923755,5.685446601229444,-6.250306920081869,4.472031789399182,0.8051718055742185,5.206313381347854,-3.7327028570024368
2.208,-3.8146606338081597,-5.564715715905379,6.520767058999809,-5.992118597624767,4.362689974963757,1.0971875195033363,5.643490947959037,-2.8826667818187843
2.212,-3.530410956996775,-6.2563533342407425,6.722574846373959,-5.795555052467591,2.881235402072946,1.2089227420049156,5.249001271338045,-2.7048762357264877
2.216,-3.319510578045225,-7.315642959380824,6.227762078729654,-5.705059263964586,0.5446054024027944,0.9743942519189659,4.23298745214538,-3.216966330752257
2.22,-3.0408731387061607,-8.057223780322914,5.093667420844213,-5.713600955796551,-1.863824049206869,0.4372061053637708,2.9954584720425146,-4.117518869418518
2.224,-2.707449409341791,-7.946869801009711,3.484279645024344,-5.7965360943424,-3.6497097613482765,-0.1572672999544693,1.917885444566025,-4.961768698424464
2.228,-2.479120203741587,-6.942836902027636,1.63060984394059,-5.935358711268719,-4.509108785362912,-0.4837266062434651,1.1907237338903656,-5.385696111161906
2.232,-2.5470704742394616,-5.54614129832666,-0.23135145955058078,-6.117949185030341,-4.629803571112205,-0.3083391889725817,0.7657766241581498,-5.259265981651481
2.236,-2.9907306662130395,-4.53079755932356,-1.9297892935697973,-6.3284401656299,-4.553575817405886,0.38860190492954416,0.453320329161329,-4.719375362385847
2.24,-3.7089280915922984,-4.514880278653152,-3.416720736146317,-6.547518751014451,-4.87122486946717,1.3836117809206598,0.08872961964419801,-4.070885783490212
2.244,-4.4719875067017085,-5.621793719958703,-4.767573266852679,-6.76696777081753,-5.90290976043903,2.3021221447484095,-0.3417054774482722,-3.622567709851296
2.248,-5.064702888015475,-7.419765395008056,-6.1114696287685035,-7.007657839158071,-7.522207737783674,2.785484044751115,-0.6905350087661475,-3.546549181147725
2.2520000000000002,-5.422782920489638,-9.157518964838431,-7.503823396812919,-7.307405558732114,-9.200404553643494,2.6538375060906674,-0.7527370072189683,-3.8189039137928376
2.2560000000000002,-5.659689175647486,-10.143304353680207,-8.799544850266926,-7.667000033629336,-10.229842083671059,1.990647971863325,-0.4151032407013986,-4.264799776282189
2.2600000000000002,-5.976426899885823,-10.062256849196729,-9.639657738523852,-8.004057549298437,-10.027274882056872,1.092499568540802,0.2420568374894856,-4.671958480979697
2.2640000000000002,-6.509910536189764,-9.062792776991941,-9.573744973600412,-8.148830276465503,-8.371964716839813,0.3189663592085594,0.9664197852224561,-4.908153676144934
2.2680000000000002,-7.231307537516628,-7.60104408049952,-8.296882824124708,-7.916142363423944,-5.492921653124284,-0.09144393341478008,1.462635806390864,-4.981760899270114
2.2720000000000002,-7.9631228627361,-6.162142078659485,-5.880628046142931,-7.22891014963993,-1.9861689185960074,-0.13395669706682156,1.5478490079955236,-5.021014387639411
2.2760000000000002,-8.483710755185314,-5.012550851212865,-2.834235396379114,-6.206782481732034,1.3970632095640525,-0.011310465041503903,1.2506361005128497,-5.191819112009171
2.2800000000000002,-8.666702198392684,-4.126129391098885,0.036216222668429054,-5.1612943379542315,3.9864501723172197,-0.004361334984452014,0.7864311865931768,-5.59690311737603
2.2840000000000003,-8.555048430529574,-3.286998954488311,1.9365620044227398,-4.4675787979519725,5.374660913066151,-0.29928936903780823,0.4296105315637675,-6.214217245659711
2.2880000000000003,-8.319167563886005,-2.278859657485654,2.4131434203904263,-4.369136680887792,5.493486132154217,-0.8784382591746294,0.3576284223780988,-6.914530772566508
2.2920000000000003,-8.12305045330747,-1.0330493014035227,1.5426585109869535,-4.813215769357285,4.590614433750261,-1.5314404757816078,0.567891873342802,-7.531906470318177
2.2960000000000003,-7.997429055321639,0.34253990251191624,-0.11145383880541715,-5.42933275084431,3.1229817699077103,-1.9772941269608992,0.9083223684479691,-7.958940484580893
2.3000000000000003,-7.8205799898511685,1.6353767470315432,-1.7821945419215695,-5.703265474635245,1.5930706856622194,-2.034485078229494,1.175750184506171,-8.210204617890938
2.3040000000000003,-7.417221605645402,2.635167196216507,-2.8682159500067073,-5.25866893994683,0.3780334514075392,-1.7327815006041618,1.2237867367974218,-8.41149236390315
2.308,-6.700918065571049,3.20762326228418,-3.1987573457367873,-4.0830289758574025,-0.3863315447286624,-1.2978874030270617,1.0150953614310936,-8.704174610296207
2.312,-5.753835031400605,3.3045487567804557,-3.0577095361997237,-2.5576886483514656,-0.8176276161350202,-1.0101269465099065,0.6016431308652983,-9.118107905120404
2.316,-4.778862662485626,2.9398443290527894,-2.9458460672353084,-1.2490919737749167,-1.1757045994850408,-1.0166331201520649,0.07955323934196201,-9.490040278151305
2.32,-3.9648244437065756,2.1618981872476937,-3.2440613330387293,-0.5863008487913923,-1.6819426381925844,-1.2246321716900255,-0.44164711251858435,-9.48430652399366
2.324,-3.348184695387001,1.0648649419871923,-3.957207218036146,-0.6070569675245672,-2.3511610776859957,-1.3451254701810242,-0.8357571678144531,-8.730524243781328
2.328,-2.77705655584435,-0.17343065074464548,-4.695149762842085,-0.9349665392176583,-2.935231344502826,-1.070208746655811,-0.9374521711444821,-7.024784304792517
2.332,-2.027130762079519,-1.2832749885997465,-4.90066587702454,-1.0168764770102872,-3.0267454082992877,-0.28450976918303184,-0.5554163099664411,-4.485846614093731
2.336,-0.9793242262713306,-1.9393935105536784,-4.170940910641644,-0.4671774307015255,-2.2678304762298236,0.8298985144844764,0.45794502667131276,-1.56736460140079
2.34,0.2549032929546584,-1.8532728620902041,-2.5100405157652617,0.689430544072053,-0.5672466118944115,1.8634648986274271,2.0914659314399913,1.1091530680417314
2.344,1.364788583676983,-0.885797048105168,-0.3520413556625357,2.0413710585950824,1.8043002783214028,2.4038690339775783,4.094494829650628,3.0299149318387393
2.348,2.0172715609931338,0.8724087721837179,1.6533597379105984,3.0660472294985013,4.303994517261522,2.2784516280509592,6.005253215536371,4.0342954368487085
2.352,2.0745386308181324,3.094251118774846,2.9742620448050587,3.488636840782114,6.348518773801459,1.6692491967770167,7.302269107671357,4.391792410368055
2.356,1.7065646551969458,5.294743622890557,3.4682908591755393,3.4875621849659595,7.564600022611593,1.021791525301083,7.626409638307955,4.641339752953584
2.36,1.2987685881824191,6.953994278880472,3.419389543287636,3.585910689779368,7.908612618499411,0.7778994412290388,6.945835581560885,5.269007316227828
2.364,1.2134245829141577,7.655185317264511,3.338443716428941,4.295990019715639,7.605458888711517,1.1048177983014114,5.577680722519574,6.404463099898976
2.368,1.5533699728506107,7.206073520111758,3.6490709639600567,5.746052891489136,6.968564110978129,1.7846972498457632,4.054821674618552,7.725712960307746
2.372,2.088627664420443,5.712437413903771,4.447574869876789,7.546583159545399,6.232855380651998,2.351220848304706,2.9082352851469437,8.657212418868482
2.376,2.4158314191990513,3.5922050471969698,5.489260308829898,9.014616575029294,5.513594666007094,2.4096943316857278,2.493114089379901,8.764660774379564
2.38,2.247697863135947,1.4929971631835315,6.368838105645878,9.615706750135018,4.883759447482788,1.9271616805041276,2.9189403349206344,8.11651000571564
2.384,1.642211471949608,0.10922333959493358,6.779927169980951,9.339144905594438,4.477204223723845,1.3083085873421112,4.091336451544819,7.361891861471605
2.388,0.992288403701167,-0.07799578212357972,6.66605050779647,8.723253773241836,4.473759226740398,1.1608325092628036,5.780683822214925,7.412768653728051
2.392,0.7528969169473143,0.9481631611382539,6.160893760168619,8.471693828331524,4.920196686257199,1.8616117509249364,7.627980813145456,8.85801119056893
2.396,1.0583048231440273,2.619823501418253,5.370508890392728,8.875439614839493,5.4888571511899045,3.1798408181347497,9.087466875354181,11.411625716860328
2.4,1.4718864752951362,3.8877843970938386,4.144300876426001,9.404050562285846,5.370886591078602,4.20422887774501,9.37797323035366,13.75992921651374
2.404,1.0715380510420545,3.57485449297657,2.040278124765109,8.788932937113572,3.4799220888009756,3.683392476693456,7.573484511384152,13.98259575088855
2.408,-1.126188697981803,0.8662673903729399,-1.447259270694559,5.636246855525599,-1.0428971702847036,0.6401035111684052,2.9066467280609913,10.421460785296688
2.412,-5.59617234052233,-4.2599847296985445,-6.488490116554601,-0.7174677166295993,-8.234684525887886,-5.034786447756375,-4.793865734994142,2.608955714530282
2.416,-11.885914228361244,-10.862881800225537,-12.551738716070105,-9.572733149270022,-16.95427896999145,-12.3341298562475,-14.723917782281205,-8.222161249552897
2.42,-18.617755171452927,-17.25962484102095,-18.33874529863425,-18.85964816013174,-25.042752726744894,-19.40715336572015,-25.04386229502677,-19.356394315761605
2.424,-23.94592643521915,-21.577658159187877,-22.11469804648911,-25.82564715936911,-30.018340819934636,-24.24403156986736,-33.272144314158254,-27.52299901116325
2.428,-26.27805601933447,-22.432779098463612,-22.34220529042352,-28.13156968581403,-30.043086696495436,-25.470825636170957,-37.06166492282043,-30.14743407627475
2.432,-24.92607425337721,-19.4513801047829,-18.344389273850595,-24.82982525782407,-24.706945149663227,-22.868796032354453,-35.059904030272065,-26.3625872182146
2.436,-20.365273368908632,-13.405007826613627,-10.667004424326365,-16.746720905206374,-15.2387881895053,-17.384045581232954,-27.466427311142724,-17.333341887861394
2.44,-13.995059092293161,-5.903953658237597,-0.9637892621342417,-6.112128086010102,-4.034417643217239,-10.65556153148404,-16.021537849626952,-5.744786389890436
2.444,-7.53129972026332,1.2077319417659993,8.563669115844561,4.359843412665356,6.271521633787131,-4.307142316655529,-3.4040800930829676,5.285346525873507
2.448,-2.335274242201308,6.496157371564024,15.914838758692326,12.476167075329727,13.743953424313474,0.6381174220672392,7.698673283393589,13.362179706293034
2.452,1.0112206101142789,9.357313309989209,19.90832028769671,17.204843373173077,17.673897237981123,3.9718725706738383,15.453061644727654,17.534538702708545
2.456,2.727854047548689,10.066496880929705,20.436578048441135,18.73608836784061,18.513057191975037,6.108015867993458,19.323922668691637,18.316488051872284
2.46,3.490980462703405,9.476181608169085,18.281018344614637,18.041316803681894,17.345549328847994,7.639381492429436,19.958303419814627,17.108321100430203
2.464,3.946248116821778,8.53230917582475,14.6465209576088,16.242162077514138,15.243372927195281,8.92494518949269,18.64578019750755,15.364921061449081
2.468,4.336690414968473,7.833521417186859,10.649998840370216,14.117152034841638,12.841458612859014,9.910145444333807,16.659836093221884,13.937122583293444
2.472,4.427751378433854,7.432455830304178,6.998357371652389,11.946583139144849,10.302957243692276,10.241384671479864,14.793529612512458,12.871990807195914
2.476,3.741794028181488,6.936797655121154,3.9573263842059134,9.666530755029811,7.586508864751295,9.56624035255993,13.260010329035254,11.665455383001472
2.48,1.9339810667483022,5.82088403999964,1.5201649408343485,7.145129940422578,4.763836330225047,7.815240444450467,11.893756348458993,9.74942257363216
2.484,-0.8960417122876976,3.7905307707424925,-0.35994843608324345,4.404155912268948,2.1658252475295114,5.319852089657388,10.474830313017293,6.914898100669404
2.488,-4.132963529743279,1.0159893597801783,-1.640361806464739,1.6667671099904169,0.27498450188542733,2.704203734400892,8.951519050042833,3.449669840047818
2.492,-6.862104868146076,-1.883254668441623,-2.219706164402595,-0.7411768055318078,-0.5357452574743888,0.6291263619367555,7.455605538806168,-0.03287588002723396
2.496,-8.247016329953055,-4.08040335045871,-2.054904916507951,-2.5235174918838936,-0.21377981419027492,-0.45949180685505553,6.171762814891622,-2.9293921027195324
2.5,-7.896379695814929,-4.905080975275695,-1.2836925294910486,-3.5116156740060944,0.9439911048944793,-0.4827686844141681,5.175233998606302,-4.93477169277412
2.504,-6.037405371609893,-4.1498201566694775,-0.2334375818880119,-3.6869365653226396,2.459264735848535,0.28443965338834687,4.37732477940807,-6.126115185046501
2.508,-3.4187515089717806,-2.1778501191896567,0.6903256595108758,-3.1597671263502605,3.9110086794822223,1.3591784012278936,3.6175580794504754,-6.825816636508932
2.512,-0.9970181769968889,0.21783956723174924,1.1827402087106407,-2.146599785441282,5.0926898807987016,2.2402879763819215,2.8233234339733997,-7.349850319445579
2.516,0.45402225760567205,2.1495879499903197,1.1892095738337218,-0.9498631935528294,6.003109343718251,2.5755136881645626,2.1282265795597084,-7.808765890383313
2.52,0.621574661787875,2.997417750236849,0.9209511547238662,0.06992124843651482,6.694770838133081,2.250545938923608,1.845250933220342,-8.06211989365977
2.524,-0.2857293329406474,2.637561785662143,0.7368437190081636,0.5679349562773837,7.114359636439076,1.3909970232750766,2.2940373225223993,-7.842114646787934
2.528,-1.706775269098685,1.4315429022252886,0.9408241224716107,0.3157184281211016,7.05340494706428,0.2820500545071809,3.569946750581124,-6.962904299025581
2.532,-3.025052351116045,-0.006139471328367563,1.600284594945066,-0.7115848824930708,6.251297213475539,-0.7559958974609344,5.393397040501725,-5.484900940823081
2.536,-3.838232709687503,-1.1262496282070629,2.4865958073552292,-2.3161425064241428,4.581344130396303,-1.491939080806219,7.149382671718882,-3.7495255028370025
2.54,-4.089822732665539,-1.695294764332317,3.1573510005661944,-4.163730874939887,2.182000872232379,-1.8740348622507668,8.106499127829494,-2.2715583760049753
2.544,-4.001668974867073,-1.8448960730582087,3.1687618815167866,-5.922706537733035,-0.544874249885396,-2.0323596466407707,7.731278843217325,-1.547125827346008
2.548,-3.875224951647411,-1.920401819001512,2.2999917507292196,-7.390938526059671,-3.0796597627939093,-2.1983259466650225,5.94301338601943,-1.877556449264432
2.552,-3.880028312293902,-2.229806696220777,0.6862793271926648,-8.53081693125145,-4.989537264145554,-2.5606064948196376,3.183219407787618,-3.279313477353469
2.556,-3.946559241642575,-2.8438388386349516,-1.2009771825258326,-9.395584793404112,-6.076280810930001,-3.1362110638488048,0.26065532706530803,-5.510783339046043
2.56,-3.8248976395190795,-3.573878382744198,-2.7421688695932005,-10.014611076508118,-6.396555633070562,-3.744855906822181,-1.9795015706398829,-8.180008048982359
2.564,-3.251947246408932,-4.117329688414344,-3.4212793676782667,-10.313171177601873,-6.153513148113149,-4.096911034039124,-3.001293255799112,-10.872769247232554
2.568,-2.136510918258935,-4.273131706111599,-3.0446357894345795,-10.140738747122384,-5.553466021656874,-3.97445905272275,-2.794344466950406,-13.257928123232603
2.572,-0.6554419142953662,-4.092827871648609,-1.8260129289131726,-9.3953664646981,-4.719854967308834,-3.411206366388285,-1.8656071022288359,-15.1435387594409
2.576,0.8088786577998945,-3.8603482814293955,-0.2850175211819703,-8.154210301427582,-3.7006032336340127,-2.7479471554448764,-1.0007216090164945,-16.48705596515134
2.58,1.842634307088744,-3.9190835087518394,0.9683205145153124,-6.7212953309398245,-2.558270081658975,-2.5150193480392886,-0.9190460753540322,-17.37965441980225
2.584,2.2054933914206742,-4.440768403465512,1.484400834387145,-5.525959166868631,-1.451813824976341,-3.1717244410277203,-1.969248142789553,-18.013107669009457
2.588,1.9438705474162674,-5.28982620834779,1.1317117232775615,-4.92037986966983,-0.6468621294469585,-4.841043673661488,-4.0049692125491845,-18.623119114215342
2.592,1.3536769686048018,-6.07341806345795,0.09020477563183249,-4.994546159491591,-0.43584166193460305,-7.187620452741157,-6.493532831379412,-19.41044411143497
2.596,0.8154201997075603,-6.355168406915823,-1.2894536592410475,-5.521712400929516,-1.0067693546066891,-9.520882082158948,-8.794458983070598,-20.457787801299332
2.6,0.579227020867819,-5.924844491237479,-2.6963229253520637,-6.0904262923999966,-2.3421431430238613,-11.1032250513,-10.463411143577446,-21.66971920327967
2.604,0.6225700243533652,-4.967123951307286,-4.008476673155741,-6.352799897281898,-4.21029309979815,-11.503165405453444,-11.430946861140427,-22.784052260065778
2.608,0.6545442020017305,-4.029615287288692,-5.313389191958038,-6.252561062376287,-6.261572827273881,-10.819442010512773,-11.97453345794429,-23.46872479686789
2.612,0.26387255331718507,-3.7903211606649165,-6.794551319707523,-6.085355732483009,-8.171773113410666,-9.649889988857865,-12.513588216268431,-23.468324726102082
2.616,-0.8620084620259547,-4.735124875118572,-8.549142340994877,-6.338465131577351,-9.761010052149942,-8.810532508755955,-13.357538651574743,-22.74544078942739
2.62,-2.769052831098662,-6.916537727632857,-10.477735261826666,-7.403309187235266,-11.03732862256723,-8.945657708447584,-14.550395005981898,-21.531937573060418
2.624,-5.192633692925412,-9.899340054884362,-12.290973198101284,-9.312302212848635,-12.142869842936477,-10.215285567506442,-15.879026778972303,-20.257290872405576
2.628,-7.664364722525292,-12.92329449377445,-13.650010448230915,-11.656006658154638,-13.240488703806278,-12.230936018980628,-17.038423171108008,-19.37070812260572
2.632,-9.712217592816202,-15.209991828280437,-14.361571135226853,-13.7454858262588,-14.401234732913764,-14.263116805253674,-17.8464524129746,-19.138247681712585
2.636,-11.04122937163288,-16.265644548565774,-14.495345746328809,-14.936402896311392,-15.545504967139351,-15.598759770366428,-18.35511729822528,-19.526481760121328
2.64,-11.615714709733965,-16.05272786418348,-14.367581430137989,-14.947641406931808,-16.464083569049905,-15.87062020749886,-18.80468754181979,-20.230251502165004
2.644,-11.6052881739556,-14.955138085291736,-14.366878827298166,-13.992936291347945,-16.899309742984542,-15.188947127678261,-19.44268464263132,-20.839260392984727
2.648,-11.238665105452014,-13.56825274980369,-14.72115819503557,-12.654491954744941,-16.65112344435343,-14.025882085634919,-20.32649710824512,-21.048344332174963
2.652,-10.65550959204252,-12.414349116368811,-15.342920911127976,-11.565658328014422,-15.664743074142109,-12.926185541559391,-21.238375162580382,-20.790213580611578
2.656,-9.831471571310246,-11.709171835808348,-15.833147382645933,-11.065645754549223,-14.061634949392356,-12.208831791373768,-21.76103253107371,-20.220404551199294
2.66,-8.630615595276126,-11.293666920817913,-15.675080964289378,-11.03250854809039,-12.115102775427147,-11.832767126292595,-21.488708410456013,-19.568918880326464
2.664,-6.942321475407539,-10.754080608160365,-14.504567251990494,-10.972881340776013,-10.176709721741446,-11.47650522864268,-20.243651620880826,-18.95065009968107
2.668,-4.826663800543784,-9.686945534648544,-12.336013973451742,-10.33284894572401,-8.591568333987539,-10.785450480112047,-18.18241104955564,-18.26302726120349
2.672,-2.57906601624596,-7.964739866512701,-9.616906636325353,-8.85591455582167,-7.620039937145265,-9.632937120583108,-15.727053962960127,-17.2309175053598
2.676,-0.6626225251363707,-5.8628628471789455,-7.05971462970038,-6.781142887584622,-7.378497298714677,-8.233770575479696,-13.358028396807583,-15.575837730610715
2.68,0.45723860541770023,-3.985977276016797,-5.351517614383823,-4.780088542737559,-7.829309990585557,-7.052133366986652,-11.392810433938848,-13.210668903832357
2.684,0.5107959406869327,-2.9990304104331074,-4.858041069417453,-3.6409057777102873,-8.800016941995267,-6.537516349810232,-9.874131087965594,-10.335333554556996
2.688,-0.44815297964954937,-3.2942906735024167,-5.479583623460712,-3.8686690005003754,-10.028994969173766,-6.855515634822893,-8.621153384931063,-7.370299383298743
2.692,-2.0526078797980034,-4.772536426267806,-6.731288813416256,-5.409403011413218,-11.232653181605826,-7.7617619400398326,-7.400705213057762,-4.753658271320489
2.696,-3.756700319223782,-6.846273709176955,-7.983713024734641,-7.632639792570274,-12.163480691217842,-8.691617231166333,-6.098919860640137,-2.7198774667276098
2.7,-5.036600569280054,-8.6900364840387,-8.754780062293463,-9.59550670306433,-12.657343212131849,-9.036146982247715,-4.803657852197347,-1.1938956545402561
2.704,-5.55515781512679,-9.61185268241131,-8.893126820261841,-10.448575728289171,-12.649141343868308,-8.441039967901702,-3.7402432291384002,0.1330726366354611
2.708,-5.229357398080978,-9.363888574440637,-8.581372106899778,-9.790899386638728,-12.160992265769778,-6.978834076839178,-3.110283448765813,1.5863262656523602
2.712,-4.1936101109566835,-8.234929310306526,-8.178146040423059,-7.812119915818471,-11.276409309216888,-5.0999717414917995,-2.9395425706301808,3.2740659005546604
2.716,-2.6977500211475416,-6.871324025926953,-7.986030865255913,-5.160626083704983,-10.10668088499449,-3.387318334595193,-3.0251499840655356,4.98182591803598
2.72,-1.0064788207044728,-5.929328989390541,-8.084723272768827,-2.627767648768412,-8.76410694522383,-2.256328104122474,-3.026283271004985,6.264725293308402
2.724,0.6676951386967005,-5.732869538461074,-8.28266835543991,-0.7921189208761916,-7.33211685059743,-1.7567289709556917,-2.6350582062809735,6.688665304089312
2.728,2.1695085476992233,-6.124362611244138,-8.22229630785634,0.1941134457072451,-5.853888589727234,-1.5904416227116656,-1.7547709780484695,6.083014156646556
2.732,3.3767920078972367,-6.5826187110899355,-7.5724346964607605,0.5951830354414938,-4.343755662862463,-1.3205874321448334,-0.5815489589866729,4.655688962390741
2.736,4.2012805871268455,-6.524761521698068,-6.192630805963688,0.9046373292562748,-2.810041964729834,-0.6467627632228528,0.45966968630142446,2.897634277834044
2.74,4.611838896536966,-5.635625310319071,-4.216623495332328,1.5793443565459313,-1.294031858322029,0.4116426387240324,0.8853480978350774,1.333605861306296
2.744,4.666526188264825,-4.042840026210328,-2.013019174182631,2.832977931503592,0.09833212804386449,1.5293147886957001,0.35522910723446444,0.25062016670290177
2.748,4.5105530111667065,-2.257076274164106,-0.06158507185847384,4.56769038070351,1.189559789394906,2.2647304532337387,-1.1812868756004207,-0.43467578932006745
2.7520000000000002,4.309621749779652,-0.928467201425903,1.1937320282946189,6.447528958759591,1.7638507890611663,2.316580036026778,-3.460502196491774,-1.0897525000150665
2.7560000000000002,4.155352499738925,-0.5414636938817665,1.4765609183191941,8.060479672687762,1.651001928272109,1.6974840855888829,-5.999806536336479,-2.108804892784576
2.7600000000000002,3.9871546096626673,-1.2101181364774192,0.745693773666062,9.070551290205671,0.824363338470107,0.7179534498331179,-8.264863750057373,-3.6312118210220774
2.7640000000000002,3.6014559977272143,-2.6577093866085733,-0.7916976138756979,9.306805864593471,-0.5323554841482405,-0.19300635503117292,-9.838412656785465,-5.407210026941868
2.7680000000000002,2.7621061710413244,-4.3653037213986465,-2.7311406200339263,8.771835886429102,-2.0337227317920963,-0.7319186525238308,-10.531324161644534,-6.891824747341957
2.7720000000000002,1.3699350692803307,-5.792739726569707,-4.570145466514447,7.598271491533168,-3.193627591434108,-0.8753924275609393,-10.391884707593277,-7.522353244126123
2.7760000000000002,-0.4021676086652377,-6.564413037547965,-5.833045290531089,5.9931551210038805,-3.5966444898315046,-0.86019477981867,-9.62945593187942,-7.034963854485795
2.7800000000000002,-2.125771666377517,-6.570730283572303,-6.217588327865911,4.176796410275145,-3.0807957905173566,-1.025624549437964,-8.512966522179994,-5.641105327538014
2.7840000000000003,-3.289347766042738,-5.959296790820233,-5.69190360977305,2.3471111019861155,-1.8370806132225823,-1.597868808217953,-7.2767175314139365,-3.954292524487016
2.7880000000000003,-3.566115692275204,-5.055592039785566,-4.51627851396367,0.6489574335058848,-0.3724794242173459,-2.5695953231980866,-6.078730658910587,-2.700320605676353
2.7920000000000003,-3.038663264075524,-4.254138201647621,-3.1623692050890497,-0.8600374021641386,0.6639860673521127,-3.739063465890382,-5.0144243663548025,-2.3629185984932235
2.7960000000000003,-2.2308561349163085,-3.8993660895831397,-2.131451058922437,-2.218418507719207,0.7363725208905691,-4.863547316535488,-4.154730145109568,-2.955105300184954
2.8000000000000003,-1.9101063874826423,-4.18315214404619,-1.7700005077840046,-3.539665716947198,-0.3552585900446701,-5.836177545567637,-3.58508398948328,-4.032683472865045
2.8040000000000003,-2.722971750617546,-5.0628577660231855,-2.127544132482967,-4.94378882463927,-2.368039070090518,-6.751015011311324,-3.397871187765901,-4.942284745666143
2.8080000000000003,-4.839237148851055,-6.235772638356622,-2.9354827212185057,-6.465642500189176,-4.685117545057281,-7.806896242475688,-3.637730123303527,-5.172585134895314
2.8120000000000003,-7.797634557358151,-7.208280649567698,-3.719312364071129,-7.98616782650501,-6.535231194140337,-9.104916128082067,-4.236208448319786,-4.60939060390632
2.816,-10.640241743238363,-7.460421550246508,-3.9865218048517477,-9.23053723155138,-7.2762755070112775,-10.470159098386972,-4.975450434681932,-3.5725126388410615
2.82,-12.300655014909935,-6.668061809700816,-3.424259214621827,-9.860051684722777,-6.63834815226825,-11.436532610309968,-5.53651303126415,-2.621608654122838
2.824,-12.056228929697156,-4.874544188646681,-2.0076520685189223,-9.617185640956109,-4.817420194760885,-11.42607851142344,-5.620990213261223,-2.2425872785697436
2.828,-9.82958923423071,-2.5119192194879076,-0.0008558792435167106,-8.462282600413403,-2.393102366734084,-10.054412295027646,-5.094839229042606,-2.594282766219436
2.832,-6.2042724393227076,-0.23698517279271414,2.1382327002128108,-6.634058419235288,-0.11153494699532018,-7.3970213286897035,-4.084886208485983,-3.451304019867365
2.836,-2.146741154544131,1.3724345109341414,3.9151644226257503,-4.581174537582754,1.386542852412532,-4.0539694136619175,-2.959697248500845,-4.357892527762971
2.84,1.4102862461298002,2.1062708286567045,4.93464868402171,-2.795353464083007,1.7833685600298992,-0.9547507351889237,-2.188360876178166,-4.893299061905822
2.844,3.9274773779250154,2.249270118251431,5.010902277014594,-1.6045612534717009,1.184295809156069,1.0344946750959423,-2.1173130247558447,-4.8845724814169955
2.848,5.387071430635814,2.4450163323849807,4.216076243227121,-1.0401449413491548,0.05757460101327183,1.5003481981016762,-2.7769163999411433,-4.448935276176172
2.852,6.161655131948834,3.3514552963224133,2.8582939564178105,-0.8404799161186958,-0.960214729379274,0.6662481819865036,-3.8120568494178855,-3.862412730997505
2.856,6.725419494834007,5.262607775480134,1.4002284077824072,-0.5878315260297455,-1.3144775282457175,-0.7262874706543982,-4.595880997823073,-3.359275167576726
2.86,7.360216564911234,7.889005673997573,0.3033655231882477,0.06743422050196557,-0.7519576971950386,-1.7965487739271282,-4.512738664507964,-2.990955657507044
2.864,8.025662570040502,10.43577761907369,-0.14073083836848355,1.2192905501476758,0.5827610216414882,-1.9638216266604331,-3.2713292087413066,-2.6369057004399963
2.868,8.4322177823177,11.94736975208508,0.05545246450859054,2.6358317969912406,2.20342359759276,-1.2275169602731353,-1.1010892013683105,-2.151782002788053
2.872,8.248441410717646,11.748512063163588,0.5461776758662324,3.8345868814935073,3.469036867431896,-0.1478524314884453,1.2718067229401129,-1.5442319625071264
2.876,7.32801135761737,9.767182111203482,0.7875486717318125,4.288737020896178,3.8395774056165664,0.47022605244805504,2.9079679866825785,-1.0448204093376319
2.88,5.82133102533593,6.57245816749122,0.2905103774027822,3.6656934031252177,3.0933172539408105,0.01889190030459531,3.083485617238267,-0.9933732566009326
2.884,4.139384794940298,3.1345617243023867,-1.0779332686633865,2.0116868653097697,1.4323162338470325,-1.5660438872907605,1.6777581533615376,-1.6066463708320953
2.888,2.7957322693608546,0.430443277263052,-2.920687955202112,-0.2115608334081145,-0.5748946796523597,-3.7460867974155008,-0.6882015218067181,-2.7673654641243957
2.892,2.2028897927508027,-0.9120435382344567,-4.398110618675204,-2.2650717168841936,-2.2009663377737922,-5.637057062972673,-2.8755877959085723,-3.9902342202109082
2.896,2.5339475530122186,-0.7586150382861945,-4.560687681031268,-3.3850198765178163,-2.8221353140163075,-6.437719047152285,-3.726399254418439,-4.619450997793791
2.9,3.6832281421818607,0.6078247479251999,-2.8161975222911906,-3.0726318447509016,-2.1498120699625076,-5.822621420250925,-2.6295966209682007,-4.171898152130353
2.904,5.338778357841093,2.711883135490794,0.7177650408520719,-1.2915566068079443,-0.33312769287050514,-4.085012150261036,0.13984397940987492,-2.63884327643936
2.908,7.105642223554085,5.099772106742222,5.159686912042702,1.4955234906939978,2.100879726415201,-1.970015610457125,3.5055385782121817,-0.5603195758709774
2.912,8.61673214061527,7.436901388090462,9.176168951597347,4.475362926443481,4.436885010467407,-0.29681871183474584,6.082824946442543,1.199798185436336
2.916,9.61109943421355,9.491091264613367,11.548472283402731,6.779405721704748,6.016406101688929,0.42638850145324625,6.865976034917097,1.8787329251623106
2.92,9.959897617565737,11.056285039325104,11.703519628396322,7.797346217940763,6.43806208903564,0.18975706035608653,5.738705040424264,1.2181720133604728
2.924,9.661013080273925,11.92125266446169,9.961724586918933,7.393540255258394,5.651371411369212,-0.5993114713086385,3.5312803584802026,-0.38062768655390755
2.928,8.814098257622184,11.921471432002278,7.3574778918431605,5.931082283263223,3.917980885517892,-1.4030164155856113,1.5712735999645417,-2.044478320920291
2.932,7.580561344374466,11.035648928921518,5.11743827120651,4.087165191340574,1.6777628742458717,-1.866498373687378,0.946054004033897,-2.8664528005782444
2.936,6.139809753173779,9.45082219532118,4.066167098325565,2.541597220647553,-0.6135494703563324,-1.9828432552758954,1.881718210036695,-2.3734490631517815
2.94,4.645661237452046,7.522706731367904,4.258769972522117,1.6810482746898927,-2.609231557844069,-2.035326112688267,3.5960371429409577,-0.7687300566531405
2.944,3.2118821697779936,5.650732384660763,5.046260198336114,1.4699823371365994,-4.111030578013917,-2.3659610114011116,4.740006109677154,1.182282917430527
2.948,1.9201317577757493,4.131270781000779,5.5060596239011375,1.5407946700919979,-5.039849773542372,-3.138407907495022,4.188114770977592,2.554777369563709
2.952,0.8382613206323697,3.069794344898618,4.9884680685213,1.441802103300617,-5.386069995331205,-4.23483059577967,1.7377496457839356,2.7302136947621705
2.956,0.03690028192649919,2.405847144955409,3.487714676877573,0.9132307386512934,-5.173941130600873,-5.3415185558114615,-1.6944872678784293,1.6734539004732767
2.96,-0.4277822887956475,2.0149400534454287,1.622497305968139,0.030516210557529178,-4.472934131822356,-6.169225961920787,-4.5215639268957375,-0.1185985063099082
2.964,-0.5568134050169036,1.8144448483702789,0.267921453340108,-0.8520752309899962,-3.4376141529967796,-6.6368974643200715,-5.344567562524361,-1.9470285006331665
2.968,-0.4637905406499314,1.7885514736282175,0.04229148990845033,-1.3328595829116097,-2.3419837670689105,-6.9096316574107846,-3.757227246016555,-3.3215258293462853
2.972,-0.3940267074555095,1.9277688828643065,0.9478201314885553,-1.2354799913539196,-1.558020441424219,-7.2661521518651,-0.6298765095144745,-4.210107993227382
2.976,-0.663100827073734,2.146306464687626,2.3706442223057067,-0.7515203820336467,-1.4588949845751387,-7.885022086561847,2.3067772372927635,-4.995207291548951
2.98,-1.5344045973013678,2.252331925159723,3.409382060831234,-0.3721823672524849,-2.281061525471351,-8.708211542540596,3.3478081834030036,-6.176154841205474
2.984,-3.068935070075039,2.0377689670257695,3.3707701957652745,-0.6240064281398148,-3.9954506388747717,-9.463295647130437,1.6983669392702296,-8.003773683723878
2.988,-5.03716572000306,1.4372527588729156,2.1333691401668347,-1.7595241170830462,-6.268192441283766,-9.844122913127322,-2.1253421826169117,-10.27511589020554
2.992,-6.9597374863263255,0.6446351868252265,0.1861133654444984,-3.5759036794698815,-8.547080163667275,-9.730326326688171,-6.58925271943955,-12.415776040452585
2.996,-8.274233787023569,0.09387250393552193,-1.6420153501685988,-5.458959825607629,-10.243169737702665,-9.28569380224664,-9.935379901375057,-13.799809629291872
3.0,-8.586911258729526,0.2573010669849154,-2.630801393969854,-6.661099177881688,-10.952732388085792,-8.880412228922765,-11.043469882373742,-14.121676558278082
3.004,-7.88037794875747,1.3526665671278693,-2.526470275639653,-6.667903795155553,-10.613737928197096,-8.874103339730794,-9.902572616057206,-13.604526518944596
3.008,-6.569687044867518,3.1253592947836992,-1.6330761591860892,-5.4776641199207035,-9.53126920714545,-9.398430737833024,-7.483766407348597,-12.910171911843236
3.012,-5.368010510286609,4.855163089524801,-0.6202002844662715,-3.651873843992803,-8.263412530726228,-10.285390194423101,-5.147644253422605,-12.794640504763748
3.016,-4.998782727909351,5.623461778365314,-0.16303486461605132,-2.0995933884606686,-7.409690148656168,-11.195247799887781,-3.9536547743919925,-13.705792614127745
