Timestamp,O1,Oz,O2,PO3,PO4,TP7,TP8,Fz
0.0,0.0,1.3073986337985843e-12,-5.400124791776761e-13,4.547473508864641e-13,-1.7053025658242404e-13,7.275957614183426e-12,1.9326762412674725e-12,-1.5347723092418164e-12
0.004,17.185261970199576,41.684144335540964,36.42730515764035,21.93174476273657,46.934145402780814,-3.7921875546077217,5.158337716082997,-11.070216996873853
0.008,30.783217592061078,72.68818607937908,63.41322155018011,38.28547690209393,82.2013990495326,-5.8932567429101255,9.40230200426845,-19.101932700918553
0.012,38.47699283916353,86.87065238245253,75.46655709438184,45.83468920469397,99.02946977198536,-5.370918144538905,12.024811410112875,-22.354842721341925
0.016,39.95416644573032,84.93609961347732,73.101118136819,44.90669196884812,98.02578152170258,-2.441416460959772,12.702329950421586,-21.019213134288123
0.02,36.803973479234344,73.43296324246563,62.05547690675695,38.868529606667266,86.104728320106,1.6931386302162537,11.604986513223821,-16.870156541200345
0.024,31.6745766610573,61.11226268020954,50.19158565237845,32.24742512063608,72.59242749477556,5.441481153160453,9.37935746301173,-12.200576756425733
0.028,27.113997356392872,54.667285703297466,43.74300984605128,28.523794718427666,64.6801908350302,7.547196512895766,6.98967114885113,-8.652462047180904
0.032,24.640605062376494,56.07769564329476,44.82742862100787,28.753931918447847,64.60481572458104,7.575261480245217,5.44256871235666,-6.5932380571961176
0.036000000000000004,24.414560759084452,62.717501033795145,51.31291999547213,31.625344024284345,69.78576005066239,5.947725279879251,5.460340559703241,-5.314664058339247
0.04,25.53421606761202,69.74344148849445,58.751912246127006,34.69343272724086,75.37076209860021,3.5846089004113537,7.2076819407946005,-3.8145264560760666
0.044,26.701730079907634,73.13872951158595,63.09145346853899,35.96678846984986,77.4278272468832,1.3900677839209266,10.190156543813373,-1.613354639199315
0.048,26.88479895372035,71.66066563239474,62.63686840828541,34.91590812970372,74.92837970242675,-0.1312403087763414,13.392992784332364,0.9004508934803539
0.052000000000000005,25.70990006858085,66.87940236803956,58.42720532314078,32.47860814894301,69.69482236871039,-0.9493624821282083,15.659798921981917,2.7628381236098676
0.056,23.51739981739979,61.71151504036004,53.16473949491083,30.266163924299008,64.78044405205239,-1.3089470296321224,16.176508131665628,3.1084244938572283
0.06,21.119212810408726,58.545732766636945,49.50942865704897,29.54248798008581,62.47546054043994,-1.4364332078282587,14.828374691721137,1.7655546231279118
0.064,19.408759249739433,58.074866658082726,48.740698390470385,30.580811397836612,63.126752679537816,-1.3595816661114668,12.251733385904743,-0.6116281964460484
0.068,18.984494329154927,59.329466116531705,50.39113226188027,32.67364255813345,65.27179976559802,-0.9363826298014146,9.52636128956766,-2.935428142969471
0.07200000000000001,19.930603406647094,60.663423436822484,52.87040873813848,34.68919608742431,66.79115668715843,-0.05154644660717622,7.658039513448841,-4.330218317154646
0.076,21.824363033639997,60.93554714390115,54.5659942980169,35.77153060459784,66.24904001908334,1.182864023025104,7.122329349477582,-4.618778427744758
0.08,23.936233248925134,60.11962920556641,54.71747728458297,35.73969235049657,63.59206511517729,2.392204284309855,7.699397253495476,-4.347190230373883
0.084,25.520892522623114,59.056104555429044,53.62287572637621,34.99972713708024,59.912166251532625,3.095158426490684,8.670817095164807,-4.365507202251024
0.088,26.084446962765696,58.6634450871199,52.1996437232728,34.11148251525003,56.595533383802746,2.9648986925645886,9.257024682920587,-5.243960344620206
0.092,25.54790529131111,59.26690999671251,51.32445880759022,33.37040059421264,54.53617315004803,2.0373805570310424,9.053559055075368,-6.898327101019021
0.096,24.24690204188414,60.4848568785236,51.39247327663213,32.673005671727196,53.88223520527754,0.7218502079937252,8.228324388986607,-8.651824325172242
0.1,22.749442818193756,61.61489861993505,52.253590063004154,31.678707762381293,54.27678202251661,-0.40047370678263405,7.373087778255467,-9.666199603089524
0.10400000000000001,21.558540589635157,62.132379306129565,53.42480380100655,30.102985959499847,55.24302008773947,-0.8748284649537936,7.120122018058282,-9.451117453369761
0.108,20.843867301017696,61.91364485603978,54.358819795226154,27.91072657385888,56.37275472507483,-0.6009851505194774,7.752119017839675,-8.142589905586334
0.112,20.362517080863455,61.11791223245129,54.64840371356638,25.320343820003984,57.29775633858969,0.12944893712625571,9.043884907560766,-6.420503684133394
0.116,19.63764914449368,59.930556743359006,54.13117196799948,22.6802407215917,57.62907907296906,0.7970434685343548,10.4053495245347,-5.144879857959268
0.12,18.28174566288061,58.3861157842251,52.88072843142439,20.30977858226231,57.001307381254264,0.9208864442584854,11.213322575442476,-4.928863581868853
0.124,16.26926122429481,56.404900375569724,51.133986390418045,18.407340343721785,55.24464788707195,0.27723452064617504,11.125650641378911,-5.8739573391025885
0.128,13.991474314515784,53.97120891263654,49.191968466756805,17.047858173798545,52.553324786096084,-1.0275631586894178,10.205827768292636,-7.577347877469265
0.132,12.091939994506845,51.330556864400194,47.364109964082616,16.268173048379424,49.535608808988684,-2.6404737709754613,8.838222349507987,-9.357656569289418
0.136,11.188322296069884,49.05370051693069,45.97841880882211,16.160632445726037,47.0764499792289,-4.139276913110848,7.5275023759680835,-10.553684387442843
0.14,11.60981446846921,47.84840603541602,45.37701981639674,16.858924243534148,46.005109685457114,-5.198516896013643,6.715235047740691,-10.7413519109557
0.14400000000000002,13.280543001556964,48.196628911876246,45.844641746243326,18.410415779119376,46.709735706865246,-5.674834592293337,6.678008319073683,-9.809805942634199
0.148,15.784166846598794,50.03062524521141,47.46836286673951,20.615470226747107,48.898989746857865,-5.5939645462133285,7.491266304807368,-7.9229368681142205
0.152,18.56359436878529,52.69820716334431,50.03255695370106,22.981833423954185,51.696575721866,-5.085221856388216,9.030185756422156,-5.442880967767479
0.156,21.150062329942557,55.27409291580426,53.039856456271735,24.882527088844768,54.0473442167262,-4.31303646066408,10.97848245574346,-2.857706941369969
0.16,23.290995305516446,57.012067460191815,55.84532329089805,25.835796773906623,55.18457388559651,-3.4297495102971425,12.865966252590681,-0.6922148826802186
0.164,24.93117766223611,57.66347311953581,57.85030087417181,25.756216548877774,54.90504282098726,-2.556064447356448,14.178462098001091,0.61837286332036
0.168,26.08275525381623,57.481238099241125,58.668780213596534,25.00794376757642,53.53397954360793,-1.7735900007476175,14.53740289449479,0.8678029403500886
0.17200000000000001,26.702674823597192,56.97681884385298,58.24361146676466,24.22650184410486,51.69813712170509,-1.132205804062096,13.89407398366825,0.16604271740698096
0.176,26.675440624348084,56.60960386192164,56.88061746315714,23.994372597748566,50.06876739516855,-0.6662192866185705,12.622150326535348,-1.098128687508904
0.18,25.873909548240363,56.52206605465091,55.10976663863727,24.49228465450028,49.1189838563256,-0.41953213662191047,11.390454365064102,-2.4310640269674195
0.184,24.236108126901286,56.414082112007975,53.40381495648404,25.308068548706274,48.921847644786965,-0.47946656422129763,10.824291679642329,-3.474359025331694
0.188,21.82255865084727,55.619192554665005,51.90332193078177,25.54404050625726,49.060057120509555,-0.9818084727758105,11.137013029810646,-4.169510047377173
0.192,18.84826762462103,53.40835631774297,50.35456835579407,24.2373735727582,48.7668134989828,-2.0597932265748113,11.96591825996984,-4.750615582186299
0.196,15.697720607826454,49.435652849301164,48.3522973992076,20.92570960526689,47.32304536182443,-3.746097073370038,12.556572375172891,-5.558412774257988
0.2,12.892459619820784,44.06937402405606,45.72315748910188,16.03265460747525,44.518403441876444,-5.875448985337243,12.217172325061938,-6.767784044038251
0.20400000000000001,10.990234017578018,38.39122236689366,42.78869273293185,10.819601431869046,40.902386542193085,-8.063842863842638,10.783616620529529,-8.196032199724982
0.20800000000000002,10.420567210734134,33.814472389616526,40.3013233789452,6.873274478084909,37.63545029460289,-9.80843120684699,8.801215119223684,-9.328427907984405
0.212,11.323761530535762,31.512490814344346,39.080542259997344,5.38747751766482,35.996108157032154,-10.685880461961233,7.300772700873949,-9.580801294578748
0.216,13.48967569656736,31.9516720142027,39.57853061578027,6.6233300987123584,36.789075564204325,-10.555448257740181,7.289938961299299,-8.666963505884723
0.22,16.42546833448978,34.713030563952316,41.59696453861534,9.81865363479028,39.9111344887873,-9.640955697108893,9.233020106397703,-6.848834702167039
0.224,19.533821583254394,38.682556552871006,44.32275188043144,13.607849259794193,44.31665446262724,-8.43398162187168,12.819484565655216,-4.894244775627385
0.228,22.327362464585917,42.54412218228538,46.69105197665374,16.727399690882976,48.464730631652344,-7.446603234483746,17.14416980643341,-3.74027254165253
0.232,24.577714067676197,45.35067014824483,47.88807193897111,18.6303028953987,51.05904654777993,-6.943980594532377,21.17406392863063,-4.035032530917476
0.23600000000000002,26.326550846615987,46.8769681506584,47.69480788637145,19.677556662775487,51.662749199255416,-6.817851188910936,24.212054679602147,-5.793973270540505
0.24,27.762839087550446,47.60320645762033,46.48402130449307,20.81328967918307,50.855236267015016,-6.683782368870652,26.090146279331066,-8.363779073834621
0.244,29.046681350162885,48.37232286630649,44.91656173898406,22.927285375390966,49.85658969797453,-6.160351627316004,27.02267153089565,-10.737366866788648
0.248,30.1889318668849,49.88082576306351,43.516418073862326,26.257897063077394,49.80156968239214,-5.1708476128912935,27.268186765098562,-12.042194353815034
0.252,31.04033490866493,52.23375345444754,42.36423973143263,30.148397742556426,51.039914881516665,-4.074540726614259,26.854653369457537,-11.93846264683225
0.256,31.3998652768214,54.818971439799725,41.12018878730538,33.30254424319014,52.89372587071966,-3.518920326282796,25.58283892010604,-10.701937605002854
0.26,31.170554464303223,56.60853563366015,39.37699394856327,34.41770566756077,54.070347785774686,-4.073093158621987,23.321045553838758,-8.957089357310792
0.264,30.443911425324814,56.71584723559454,37.09175066764948,32.854636578744476,53.486349502972644,-5.849854037059913,20.35619682925153,-7.240236453804414
0.268,29.436657214255547,54.87322141430877,34.766933964121904,28.97581836600739,50.9647864199265,-8.347697441394757,17.50992405065881,-5.648252179980091
0.272,28.311210735351665,51.5537020173856,33.20896578040748,23.975918910541168,47.357035019934415,-10.622731215708654,15.878120837468487,-3.7753490326737165
0.276,27.018047475242042,47.71543235727165,33.01252295177761,19.323927113671743,44.03951954888589,-11.739864573842397,16.29379977683493,-1.0031308081826182
0.28,25.306615485210273,44.36511401742439,34.123792689916286,16.140734266797836,42.1412316645019,-11.259071257145706,18.81775163771613,3.006557921455169
0.28400000000000003,22.937132748138765,42.17898077992436,35.78254252489444,14.824651538553326,41.98227342530686,-9.475672773260385,22.590240317062353,7.917898965454583
0.28800000000000003,19.971239673082778,41.32770101958431,36.89326297649677,15.062911300840824,43.02211615624435,-7.2548994104540725,26.17383209206446,12.703027800564541
0.292,16.927404923584163,41.5088415455715,36.59576301172075,16.14682611767148,44.27553827940494,-5.535781598553967,28.220573285099363,16.05619830364003
0.296,14.673525138862942,42.14928683817914,34.726283415796786,17.399181294270875,44.94085918054907,-4.774931152572208,28.111829629905515,17.039761442448253
0.3,14.101864484326029,42.71692465810099,31.949711082146507,18.516960846992106,44.907449142608925,-4.65568949805288,26.23346775022378,15.610143953009015
0.304,15.725291343868435,42.98198924910196,29.469940488991824,19.676252512801966,44.828689527875554,-4.2528729232444675,23.72317634725914,12.711875878410524
0.308,19.387796514690876,43.07354951889954,28.424894108829278,21.349446989980834,45.68308597404621,-2.584243625765339,21.824220503052402,9.853598149351456
0.312,24.231994169854374,43.28140808529429,29.25660065609111,23.92737339267319,48.052035554606164,0.7414920984490436,21.202650784310208,8.378885223198608
0.316,28.967669458856562,43.75812223609523,31.421141012673615,27.373271452180916,51.58640246659411,5.165586339390302,21.613158591160982,8.822223991492478
0.32,32.35490355185675,44.365532200400935,33.65772001980372,31.131788389338,55.06620061853823,9.354177519555378,22.12032426900464,10.706688418156432
0.324,33.68895222941592,44.77691366105421,34.70284701242463,34.364495073476746,57.049369884901694,11.84737557874837,21.74840464137219,12.905134815391307
0.328,33.04001337388365,44.73221907782818,34.03358513600915,36.364516880913015,56.70673668100096,11.846802801966078,20.16105929469336,14.354427796973596
0.332,31.12895550755229,44.237381885996115,32.187749067004006,36.9003340566037,54.30886827548625,9.700130437638109,17.94872931315672,14.70760557770916
0.336,28.903966558298862,43.564397323609455,30.45816516259879,36.28300419926245,51.06059517392373,6.77421047426742,16.310526317534368,14.507013007901946
0.34,27.034548520385442,43.045414367629746,30.11486354606393,35.102563189705506,48.39219756602802,4.741149765314276,16.274289892768593,14.74336776159555
0.34400000000000003,25.582662806485587,42.769980802259624,31.5698275962651,33.77519394818228,47.105868629235715,4.651363438458702,17.894305415150484,16.058438426041562
0.34800000000000003,23.986845354080856,42.34759046940292,33.93200797920042,32.14721822026536,46.84082486268812,6.299830993168598,19.909440661122517,18.079608081542347
0.352,21.34372130291399,40.886031480491056,35.21933516639342,29.40176265307059,46.144150035032,8.25240750463081,20.12061912237141,19.341954822259595
0.356,16.88646062268117,37.31250614612327,33.225066970055195,24.422079892924103,43.17897536356554,8.564607536829953,16.386886903419736,17.935396441989724
0.36,10.460615404157124,30.99238437481631,26.69654304954031,16.508513849300698,36.78509695032244,5.843317884353837,7.790866210230433,12.578724689802925
0.364,2.7765410891047395,22.333564883697136,16.236911885049267,6.077072530787518,27.33120049023239,0.08423434569067467,-4.616546381802209,3.5379695345289974
0.368,-4.709021042557424,12.97476412006813,4.385400721659607,-5.109060456991983,16.85127738421761,-7.169177488896821,-17.924254138397828,-7.148610732729139
0.372,-10.27003630893364,5.323823731240736,-5.280157193260038,-14.419698679225576,8.307058313190623,-13.450654856224446,-28.354303009214163,-16.328902443424795
0.376,-12.548145609401445,1.6038985377274457,-9.63468947448348,-19.384323354255002,4.330445753294157,-16.473999921473478,-32.713063679831066,-20.99570656585638
0.38,-11.056681638192458,2.8885929317764294,-7.342691657121691,-18.760247975559423,6.107136600393574,-15.1532691903667,-29.64006740892387,-19.542546255489015
0.384,-6.322650372420867,8.612497088457758,0.609431078819739,-13.080384992611016,12.939296377250798,-10.028833796940944,-20.09063648523579,-12.39996390457145
0.388,0.3738680964027026,16.78816259143491,11.410179517909683,-4.395907915738462,22.641580763435172,-2.9255275491777866,-6.8732941058208326,-1.7617001220337443
0.392,7.508174008104106,24.800768123137686,21.667564821198994,4.643417707274466,32.49529352060745,3.9416834744965854,6.497712936235757,9.420185969132035
0.396,13.829082198512879,30.408013201662015,28.77785479872273,11.902073791882458,40.28003660899458,8.924194938060282,17.07996863993344,18.626338657471706
0.4,18.661398265895514,32.51246508098734,31.793889196986584,16.512288008128053,44.95225605353551,11.484024175835657,23.35709993650812,24.559699517736817
0.404,21.898452616979284,31.39433225429616,31.448695811367656,18.927710999679675,46.72994792502436,12.121308901720113,25.384285361580623,27.23747590743926
0.40800000000000003,23.743599551095485,28.34517759695177,29.412346320801817,20.30639627729579,46.6240971804076,11.825050272557746,24.29563740237586,27.48311357138539
0.41200000000000003,24.379727220491986,24.921606302383225,27.23760298169907,21.629241247444043,45.713748386158386,11.42111962625495,21.512137704341285,26.228334106724105
0.41600000000000004,23.80134127534734,22.261916416808617,25.608529385317524,23.103095256433335,44.594486416944164,11.195091459295327,18.09174100734117,24.0597970189865
0.42,21.91961343497087,20.81118987837658,24.28069802774405,24.182073312312923,43.29254845473531,10.938618668560594,14.505193397143103,21.192134303354806
0.424,18.832576917498955,20.478353262533346,22.63066414905211,24.11678788304198,41.59446199922513,10.295952654143093,10.816709980801761,17.749700352704167
0.428,15.035905615442516,20.986341698527895,20.36190208625203,22.605272946195782,39.4838269200568,9.128965508933561,7.043008654023652,14.058357109048075
0.432,11.369071647596229,22.09277216983537,17.852102349095503,20.07715960839164,37.32998212690154,7.658510774198021,3.4137374226513657,10.694892744176741
0.436,8.687468664100379,23.566796192358197,15.943741638298206,17.43419314331004,35.714171049943275,6.320507078130959,0.36701362288840755,8.246749048350466
0.44,7.444426781965831,25.049819186921468,15.367324372921075,15.453138210704765,35.05676302090092,5.472728782585818,-1.669274990746544,6.967082546039592
0.444,7.447110326726033,26.00772156357175,16.21826219646141,14.28407054127888,35.316706991661476,5.183753125353178,-2.525742583986812,6.609058472678498
0.448,7.946944227042877,25.879604501289577,17.832299743854833,13.382219583359984,35.955802348568795,5.243044045136685,-2.4024436775955564,6.594534609353559
0.452,8.03329047299917,24.351034053252988,19.126025159225264,11.916945603436261,36.177398301590074,5.369901019079407,-1.7671451495818928,6.436820520441643
0.456,7.109379739839596,21.574612486657315,19.197954260480174,9.388019720873672,35.31187098018131,5.442151426826058,-1.109218286120722,6.128951872107336
0.46,5.181453890947978,18.187455517507715,17.83712922524137,6.042187884817395,33.15934453703278,5.564288489318642,-0.7015160807600296,6.192738823787522
0.464,2.797309592667716,15.066015994683767,15.635113933731873,2.806612619473981,30.10302426766725,5.924177409660388,-0.5055601458470846,7.3077380703336985
0.468,0.6748792169235003,12.909510865644961,13.61519491409058,0.7527152900270266,26.909192849077044,6.540061693950065,-0.26898272452763194,9.729967651911466
0.47200000000000003,-0.7451974873843028,11.87559620147681,12.60581261473817,0.42970278344660073,24.31176464146938,7.116325978332952,0.2598156625579122,12.889768921396808
0.47600000000000003,-1.5229550732090047,11.520148094881279,12.758634159130338,1.5184576145156825,22.63972894297126,7.144121017463021,1.1425446665664367,15.477197159915704
0.48,-2.0679700051473446,11.117257713029176,13.5155903453674,3.0494318642784037,21.724778728945125,6.211225457383534,2.1970920353278416,16.034818288877887
0.484,-2.7249521822623137,10.16853852936606,14.027018315948567,4.060253490043124,21.122044951968746,4.330061456870226,3.091212005757825,13.757692031021861
0.488,-3.4130429390647805,8.751334204810746,13.714527803896658,4.250169796160662,20.461699105024877,2.0485189580840597,3.496681727830037,9.04201003846174
0.492,-3.6016135784425387,7.4423807427758675,12.599321436236892,4.179510079356078,19.660910112458282,0.2273852056891883,3.203040826394954,3.433916172528143
0.496,-2.6803597241846546,6.864146849852887,11.206552053258974,4.865894266774603,18.86764315425887,-0.408076432607686,2.1329454306212483,-1.0441221103212683
0.5,-0.4868851509925207,7.1935303982807,10.163211502189142,7.040042974475,18.233124969932987,0.32121695695514063,0.2988814650866516,-2.8516082993219243
0.504,2.3668914456404764,7.969196255915222,9.76690587290966,10.52905461004707,17.680212056856703,1.9140760977365971,-2.237850853997088,-1.6785357876315175
0.508,4.635018864492395,8.335686614306042,9.800591046281625,14.170931091234706,16.826141035191085,3.4361140241917383,-5.338960850435342,1.4296766655465944
0.512,5.021747206844111,7.5736371860364216,9.683702996520083,16.342865711726745,15.117684582924085,4.021277110675783,-8.703472252269648,4.636299709833338
0.516,2.8921718092572064,5.57705701850864,8.851292118897845,15.804754871601745,12.118560382315195,3.317396352395008,-11.804274299998724,6.247696148170235
0.52,-1.298100337070764,2.9906670172463237,7.133294825982603,12.384671809550355,7.817773632228523,1.6211953606643874,-13.935076062390863,5.51232414380479
0.524,-6.138667496683638,0.8982810950806197,4.894372042768737,7.110267984538268,2.7755134551056244,-0.36236033697878156,-14.415362651736814,2.8704624519168647
0.528,-9.936133722112118,0.21634698188358925,2.8407220502429027,1.7002747771814484,-2.0140476746283866,-1.9823963316562185,-12.89316793296939,-0.4246311187725951
0.532,-11.57577933632001,1.1230091396348598,1.6018494627586506,-2.3004198361702493,-5.517143782607377,-3.0281278538554943,-9.58688535512897,-3.043099082026856
0.536,-11.082746558338613,2.8841072590678323,1.349762068542418,-4.242046353956084,-7.112564746968474,-3.7956149200108484,-5.321329543929551,-4.244595297929095
0.54,-9.551214463084762,4.229151266469671,1.7188306707176935,-4.5465036390878595,-6.835934958621351,-4.8102619273490745,-1.2785326352100128,-4.1254075395881955
0.544,-8.470355490822158,4.080710519190916,2.081226742231138,-4.273876726142362,-5.289928357679628,-6.392899891164689,1.4656269382153368,-3.374548539486341
0.548,-8.848241616548648,2.198172458582576,1.981199028189394,-4.391373868809524,-3.306159940965813,-8.362468865848768,2.3960105314190514,-2.7459893158686555
0.552,-10.65356555270182,-0.6681843122250939,1.4331045750810745,-5.208353185022361,-1.5764184512599968,-10.075520804655753,1.7618668289476318,-2.5981640084301034
0.556,-12.891308757873048,-3.2109287012272034,0.8969209422134554,-6.302122121357343,-0.44524780562619526,-10.798053249608529,0.39880997141676744,-2.7873144326247257
0.56,-14.225723776225095,-4.30010002493259,0.9732231461282481,-6.914835449860675,0.09642395688115357,-10.183226183953593,-0.7531520312911653,-2.9332844915119267
0.5640000000000001,-13.775024348720308,-3.5890769825884945,2.0036581516149,-6.532714179898903,0.26231759989673264,-8.55351263148168,-1.1831380815342527,-2.8416486013354643
0.5680000000000001,-11.61075011483149,-1.6595752275052291,3.8111221588814033,-5.275819010198802,0.2744173870597706,-6.792884987795333,-1.0980822467133748,-2.7678608237048365
0.5720000000000001,-8.697060260970147,0.3320841795245997,5.721055589024218,-3.872620163925376,0.21648752002215588,-5.892084906117816,-1.2979243417244106,-3.3290977380361255
0.5760000000000001,-6.328522891668172,1.2921273265754962,6.857608364299153,-3.2413070813938702,0.011015450161266926,-6.395301792100327,-2.6800264424748548,-5.110784961296076
0.58,-5.413082597053858,0.7746560301505951,6.580383096654828,-3.9357956253704742,-0.4559294784614849,-8.069916781179018,-5.634488146752801,-8.214363596944054
0.584,-6.027175348567198,-0.8067756314110284,4.831896370461891,-5.802888301092253,-1.1611139552776422,-10.006635880289423,-9.665052020293615,-12.046294285995828
0.588,-7.4670253275162395,-2.4356282408250536,2.2067686433650806,-8.054218943276737,-1.850901267742529,-11.09846422724263,-13.477167572179042,-15.496136020653012
0.592,-8.73731920732871,-3.0734851929698834,-0.32065202447415686,-9.71812106483867,-2.127147873282979,-10.630983487596268,-15.541016367872771,-17.434297222831333
0.596,-9.152139206127913,-2.2252937584111123,-1.8616581180280605,-10.192543943587907,-1.6639202226066345,-8.665690319613987,-14.85251886605829,-17.261075443488494
0.6,-8.680247809596267,-0.17528275609890898,-2.0174542433341003,-9.581404295650827,-0.4151927382588383,-6.01375501434859,-11.508974094717132,-15.218972801254722
0.604,-7.848374924787436,2.211948596719367,-1.0211052862368888,-8.618602194190771,1.3137366014392455,-3.8115534609253245,-6.778327132100003,-12.298823469417584
0.608,-7.301664483170839,3.975005407765366,0.43492938765615463,-8.233672218025276,2.9730600964181804,-2.9347126744216894,-2.5980465328318587,-9.792911379090242
0.612,-7.334732992508748,4.516561473118145,1.5644209174673165,-9.0259464491362,3.9791520032812286,-3.5698994279414364,-0.7389497094025046,-8.728445090596551
0.616,-7.694000523847421,3.812773090946962,1.8522548071345568,-10.933429065465361,3.9388736423766204,-5.165194821261366,-2.0272854170673327,-9.4555613441388
0.62,-7.744150909540394,2.340067300268288,1.2748721706374795,-13.243069448952156,2.8236254406483567,-6.762558707018798,-5.975964056886596,-11.563341713627665
0.624,-6.8706001079577845,0.8124009371865668,0.28588801120287144,-14.915371652594786,1.0136395678423469,-7.508832505195187,-10.998222841465576,-14.129720463030594
0.628,-4.8738409077336655,-0.12009052299981704,-0.42397594436363306,-15.05390554020346,-0.8314998422094959,-7.066706168927794,-15.105766398593232,-16.150227331827296
0.632,-2.1208834432079584,-0.0988354756912031,-0.29036305669723106,-13.299111455919956,-2.0645936841372077,-5.71795984792152,-16.75737053889452,-16.928835165364717
0.636,0.6093983533552318,0.8409073453010478,0.800235424463267,-9.991744464795602,-2.3946323210936384,-4.13764171037792,-15.485007584463801,-16.288367256490687
0.64,2.495203121915665,2.323303362394995,2.4077409170428723,-6.038659561839495,-2.077520712595856,-2.9907531136864236,-12.027607296424321,-14.553036457098415
0.644,3.048863709750208,3.7947505688040337,3.7281830694803375,-2.546335002747128,-1.827049968773963,-2.590965395414287,-7.935928101330774,-12.35740096621305
0.648,2.3053233709910046,4.722015795689117,3.98010890549358,-0.399213129133841,-2.4639317794697035,-2.8060102968756837,-4.866514713021388,-10.397849719275769
0.652,0.7563473856731662,4.778375416053223,2.8017435937168784,0.05189511515106915,-4.457156667188372,-3.231975180432528,-3.87994288278594,-9.200666940684755
0.656,-0.8948394043388816,3.9773066587661106,0.4658978495725137,-0.9127192461887716,-7.578746179283769,-3.4996337112565925,-5.042863500389217,-8.964635795773575
0.66,-2.0167954401035786,2.7186086555096836,-2.19066805497863,-2.5239516427915305,-10.8602089571732,-3.5165160482686133,-7.477444875861806,-9.51695259798305
0.664,-2.2372260239905017,1.6993530238989933,-4.10631981725777,-3.8389144392862136,-12.926767002226029,-3.5031565296519602,-9.811726344569252,-10.38668785226605
0.668,-1.4954630921945409,1.6661337653099508,-4.468191935014431,-4.107251732180885,-12.605729420921023,-3.8087878993376307,-10.801754214672087,-10.96514400028991
0.672,-0.0037180864810579806,3.056282700396764,-3.1182007841889003,-3.059559854811937,-9.56060352579317,-4.62837735950734,-9.85503943307117,-10.709194048440736
0.676,1.8214684765407583,5.6770933215532295,-0.6830513605747228,-1.0032863433390276,-4.610815257498473,-5.815908108372241,-7.230674345192483,-9.327161501875935
0.68,3.454412409074621,8.644815349058945,1.677188283289695,1.3360675552149814,0.49865418986723853,-6.914270552179914,-3.8512188502493245,-6.8821666538108275
0.684,4.383003585348661,10.696387314440472,2.813596619773193,3.1734864894665407,3.833642033418755,-7.385211816417495,-0.8325438423083824,-3.754255570360442
0.6880000000000001,4.252980178267308,10.766978434086695,2.163336539090949,4.051623644551569,4.169223868240124,-6.903735767375338,1.0400225552148186,-0.4777622149800891
0.6920000000000001,2.9965627575517146,8.537439389050746,0.039951340989375694,4.047247233478288,1.5666108429783776,-5.542229752076537,1.630471819314721,2.474307935430204
0.6960000000000001,0.8925185812421432,4.65400272676095,-2.517978610356181,3.6832675778579187,-2.67305752867577,-3.7345806150569842,1.429209395701946,4.855738508696788
0.7000000000000001,-1.4861803981923458,0.4851383655166046,-4.265290907432927,3.5966205623110454,-6.655470535856409,-2.042518189213979,1.2243291818069792,6.680746058440263
0.704,-3.432696963988974,-2.491164793975372,-4.370665454509719,4.149117553469068,-8.802347647571935,-0.8602820782823528,1.643923479393493,8.123267159967725
0.708,-4.327400289298225,-3.377088731111712,-2.8111876134665863,5.204105082086812,-8.551345518742096,-0.23495015782418704,2.8082767495418466,9.345516093865342
0.712,-3.849537359237843,-2.2807967086444023,-0.3512625383743284,6.192715604960313,-6.517733936359491,0.09694347948993709,4.262526359672734,10.369580190562374
0.716,-2.0842638778073024,-0.242005453095544,1.8818524623162034,6.443975366225914,-4.060255129145503,0.49026002109417277,5.2159792540527405,11.078210439293969
0.72,0.5258169923307605,1.3365427402163732,3.0109409518682924,5.604437248548152,-2.497840121380875,1.1278818455489272,4.96782464419357,11.330675031547514
0.724,3.342593534822413,1.4469356879661746,2.872363962067368,3.8925609807613455,-2.426293027900954,1.8775364413932039,3.2874460048889205,11.105492253966986
0.728,5.73912661891336,0.011598796525277066,2.0744560322999632,2.030546751091265,-3.4919913218498095,2.367873828379288,0.5688916848496319,10.574582083911082
0.732,7.275611324966235,-2.0962823197951366,1.6233265978727331,0.8816793453838727,-4.70479801973687,2.243592466180189,-2.2963436501203205,10.063277741414083
0.736,7.784767181992493,-3.5653151430138905,2.3214374648567855,0.9926243678864921,-5.075136364714524,1.4374056413084872,-4.270611140878032,9.899968409140968
0.74,7.375671541811812,-3.3852218662026416,4.293073571287039,2.3088258203579244,-4.1642044453529365,0.2855531941306708,-4.579146782420139,10.236996812231325
0.744,6.3812162213702095,-1.3995280832796198,6.909918463367205,4.227368611683687,-2.2340466452202463,-0.5948908255300012,-3.001813392466147,10.953886129695661
0.748,5.260412082444532,1.6157457056535804,9.140305060477829,5.942206443081091,0.02330952518872209,-0.6131456908549353,0.05791286562021014,11.701419527969847
0.752,4.465793248637453,4.354618271370214,10.096614584931388,6.859489936086561,1.9388500092931054,0.4768824954797992,3.7274083686036192,12.072427807717702
0.756,4.29949436916479,5.625539988225796,9.4645583919758,6.844725220218493,3.193047735357368,2.4279795383919236,6.973508537438079,11.812167112721056
0.76,4.801313528229343,4.9111191655615585,7.5926954657018655,6.177598483228735,3.85100937578693,4.6054379591450925,8.948037432309093,10.948569976715532
0.764,5.717176110042772,2.573674304819349,5.224420272437214,5.289348313708729,4.148087695756999,6.300961040533252,9.257104193940108,9.775135015758565
0.768,6.58449567113621,-0.37425713101822566,3.053883618322999,4.47031190955272,4.21538795385095,7.070018073914412,8.073462529166022,8.697331553249398
0.772,6.899495169648844,-2.7947475313858945,1.3658681175508605,3.718880642213321,3.938463475951437,6.908275423260648,6.060315403965319,8.024405500764885
0.776,6.310372672617575,-3.9629211769182007,-0.040195253590979974,2.805796613619691,3.0281623680334633,6.189732136047041,4.115223875552488,7.816039208022971
0.78,4.768612795654917,-3.8362961386548022,-1.601863474962073,1.4981666627492132,1.2579859939796734,5.414467326968747,3.0370121757572406,7.858569802937552
0.784,2.5601113046938053,-2.955892512649143,-3.5916773201294347,-0.22475218642262007,-1.3157628229398028,4.9208038060697845,3.2338016957676246,7.782725654699334
0.788,0.20845372325408107,-2.073772172396275,-5.819329779792156,-2.1036896867136647,-4.302732643779393,4.7418013469064135,4.590430634773725,7.271119510519554
0.792,-1.7068853683864518,-1.7352514104402417,-7.641428283165567,-3.719726570087232,-7.127606709736199,4.676910553021571,6.560853698324308,6.247901176371329
0.796,-2.749813949266354,-2.045838807534608,-8.29361233448384,-4.721452865342371,-9.288293091469825,4.497664841545998,8.432512718007615,4.938161163445216
0.8,-2.764025919190658,-2.708396931902655,-7.358375371390935,-5.007358853363257,-10.546482042552384,4.138180184058456,9.624208665396054,3.7515592326851106
0.804,-1.9000949683947397,-3.2595340036023117,-5.083733971100457,-4.749713768554443,-10.9343707569777,3.7433305115984012,9.885869587679963,3.052578627905689
0.808,-0.5399302528938961,-3.3538695066133073,-2.3643582130545155,-4.264199467325511,-10.615691406598671,3.5471701144638246,9.304249467414593,2.938791074789833
0.812,0.8376931495307645,-2.961156135940257,-0.3961662235030019,-3.836246677183908,-9.750422662279135,3.67569491378174,8.127473542416965,3.153415917913435
0.8160000000000001,1.812736989547318,-2.3757903965922083,-0.16316140257183065,-3.601386755261501,-8.46385672604913,4.02485644380306,6.549809308937142,3.2003168110798583
0.8200000000000001,2.169501780918324,-2.0211811274785987,-1.9891597578166795,-3.5193736432823925,-6.90641360425613,4.319434605714264,4.610844355153063,2.625995805082141
0.8240000000000001,1.9934054723462395,-2.1555841976199304,-5.360293794133781,-3.4217075476568652,-5.321862298451606,4.321094437378065,2.2797462803466715,1.3198328325023567
0.8280000000000001,1.657966967186212,-2.6587700636903833,-9.116096845362904,-3.0930600713438707,-4.043600344682488,4.037567033328742,-0.34721760826005266,-0.36265983827604487
0.8320000000000001,1.6623860210977455,-3.054752959046766,-11.955177926442616,-2.370758428465024,-3.4181886331715816,3.766717675349355,-2.9157130039053527,-1.7582305233963211
0.836,2.3560614822802677,-2.7824078372730128,-13.007884726013515,-1.2405181242639856,-3.697959364385639,3.9121848914430757,-4.878814386547674,-2.271760182697278
0.84,3.672505907978234,-1.5680802053872185,-12.203517123857722,0.08853811600204153,-4.963141410190019,4.672997557120425,-5.75957230441054,-1.771112492560576
0.844,5.031258608003498,0.3168167871828018,-10.259141973201025,1.1691511984197973,-7.114233802787425,5.809596185084388,-5.4649704992282295,-0.7543977682534546
0.848,5.512893800746838,2.093212716821995,-8.284119796505962,1.4101833330217346,-9.909707051232914,6.669915337589714,-4.42398213472643,-0.14432593891143597
0.852,4.2766497004297435,2.8254945577538138,-7.210140487950042,0.2865289879658235,-13.010953125434611,6.5042279924774675,-3.4120904442777373,-0.7763128982481362
0.856,1.0440348089387044,1.9182354269104849,-7.340814917260701,-2.384460752180985,-16.000032240065792,4.9205931039979305,-3.127734034132743,-2.846597833830458
0.86,-3.6040849351309703,-0.48930497038486465,-8.232656470268466,-6.2296907219270565,-18.364076666336786,2.206267790784864,-3.753027163623983,-5.651296851883615
0.864,-8.325334457590714,-3.474373604322068,-8.962541145774253,-10.321903341480265,-19.520513664872908,-0.7098332767112652,-4.7731909098540655,-7.822011982445275
0.868,-11.5307647444356,-5.701800555741102,-8.637195504105705,-13.470052673401312,-18.94576022511731,-2.680087953780685,-5.213894626657691,-7.995578849621069
0.872,-12.083586902145385,-6.062601259936571,-6.8711881840403635,-14.712397107640129,-16.39528409168412,-2.9313373126758506,-4.185902082430573,-5.574303212322405
0.876,-9.836274929240915,-4.2612742906533185,-3.9832236662402636,-13.775139588956392,-12.115908645703058,-1.491908674422234,-1.4362741744909044,-1.1521023456110129
0.88,-5.694682973580711,-1.001676665279433,-0.7940328487468662,-11.227027782518746,-6.882621014925263,0.8103729861325064,2.4266065519699964,3.6608628377344985
0.884,-1.1612634491465883,2.35832506601713,1.8449127162561467,-8.20450913895013,-1.7892220020270884,2.7993184966969693,6.190684809490563,6.955070617782837
0.888,2.41670075866125,4.52830392833954,3.518309279356714,-5.814770202544423,2.1390434515519985,3.600421172764527,8.648782547195538,7.425886294303552
0.892,4.476574789609117,4.976133633075506,4.423027692378213,-4.554223278025063,4.3081590177770295,3.1146835176891727,9.201958333244761,4.978189230095438
0.896,5.403158645472445,4.200019254470703,5.154578316925239,-4.075520846917925,4.698679690688579,2.040284915889515,8.11859915832531,0.7122387824924772
0.9,6.149664217785585,3.421556569882682,6.249771184111978,-3.451472063745996,3.727790355539213,1.4258302340120963,6.306117959759945,-3.6817764311547307
0.904,7.567959562790179,3.8733689102392646,7.80032965237146,-1.7850232440540026,1.954939101109261,2.0239742428229874,4.763124912544072,-6.769723625240431
0.908,9.856830192365067,6.08278854550781,9.389772578972725,1.191692286422267,-0.17118344999605029,3.8298409058463676,4.046645430454873,-7.995354616420514
0.912,12.443780662104757,9.535228040792902,10.373522008330326,4.8746581447860535,-2.402908931264335,6.077879495833713,4.052160326558351,-7.763878618138733
0.916,14.34471317530199,12.903523073467454,10.317328803130437,8.059219567216132,-4.619428408449039,7.6938487239569895,4.208416279503467,-6.996717886996635
0.92,14.762103559814022,14.721469343051695,9.303109764331396,9.579735829785022,-6.695621700780805,7.927127739456068,3.9122066116817678,-6.475499387814011
0.924,13.541976578621984,14.110705339701894,7.878271022236618,8.931946045325958,-8.46975166120069,6.774014603422529,2.8942845268499013,-6.396770980425686
0.928,11.224906745039334,11.173956166505604,6.684350933294581,6.528222371784409,-9.84892453985367,4.946105147706476,1.3039587184327956,-6.383637945461032
0.932,8.690546814373079,6.8715663334019155,6.00758681446564,3.4517263219174765,-10.959704238155155,3.420483543566206,-0.4889714370169713,-5.883121851145518
0.936,6.6415354753646625,2.4869240668666635,5.560551190802585,0.8719247738617923,-12.17831238567669,2.858488921679964,-2.1809830283890506,-4.634530367718185
0.9400000000000001,5.270697568800074,-0.9770136050342444,4.677595812087816,-0.5150668725229934,-13.924860126262956,3.252911471176958,-3.6732434592234995,-2.8803568147226315
0.9440000000000001,4.300789087304338,-3.138494570755938,2.815334442835706,-0.7116124710805707,-16.30475539113354,4.009486054081663,-4.96657339285548,-1.1949081992470383
0.9480000000000001,3.3403515045234826,-4.165056894170334,0.04128760247471064,-0.21817388589545317,-18.827358907637688,4.396287472023232,-5.915288071800887,-0.06709400048521275
0.9520000000000001,2.2640051603038955,-4.439336143854916,-2.8529960328482957,0.3880674151803305,-20.472671316922515,4.046022567059254,-6.087484652590206,0.44218185186628034
0.9560000000000001,1.3501901374423824,-4.232945421832369,-4.731702728272239,0.806003888444593,-20.167215671234032,3.1848949117734264,-4.906857682992495,0.7073479858011069
0.96,1.0875836046513996,-3.589319848850778,-4.76842736722142,1.0844089479915056,-17.418537638664304,2.451661611524287,-2.0227646028254185,1.2127446392025831
0.964,1.7935268007606737,-2.447275727024021,-2.9580655870919372,1.4137789872356734,-12.711585485399155,2.433119658669739,2.3320305734391695,2.12804509283319
0.968,3.3347217849690196,-0.8513236817730103,-0.14436365270432816,1.8421842228308378,-7.359364390486462,3.2317361863308633,7.276292081260863,3.1060142471485506
0.972,5.160038292950048,0.9433682809235506,2.468751239000312,2.147872281850141,-2.8321283539122533,4.3561332852468695,11.620484377949197,3.4835208360427714
0.976,6.620010923036716,2.553371756592014,4.025139636362383,1.9690919232875785,0.048944836687951465,5.0127873297306,14.442874556842526,2.771590053336695
0.98,7.359608242897593,3.6761805458988874,4.489279651168545,1.094366274776803,1.5468042971216391,4.606393220621612,15.536401369755822,1.090936558864314
0.984,7.4944952477283096,4.245300757861287,4.563178459010942,-0.30987202885262377,2.7493532889595826,3.1182923287155973,15.4107623410207,-0.7913305025199406
0.988,7.441991777777957,4.396965833598074,5.090521175140793,-1.713987192820241,4.728516702720071,1.1117654087884148,14.807341022562014,-1.9206926003662375
0.992,7.509461823589845,4.242581541667505,6.3164384365953765,-2.512790680150374,7.613907715809205,-0.6476140690460852,14.019018820082692,-1.8539598634954473
0.996,7.5296503552888225,3.6180218341253294,7.4961433567729046,-2.410365882702081,10.191080658965802,-1.7105977127694132,12.480537989522873,-1.1414707656480232
1.0,6.833304901151678,2.04056085989896,7.16681972992626,-1.6405860549532463,10.380067100149631,-2.255222398810929,8.966441167662197,-1.2182376057675128
1.004,4.645451969652186,-1.0232298019434438,3.9879163362129475,-0.8575740095020592,6.4101051251318495,-2.9761799753041487,2.3660518557192063,-3.663052675947256
1.008,0.7024428732649994,-5.679590915364315,-2.32213777751258,-0.7358734385202297,-1.9527325730690563,-4.596504752131295,-7.371997164211734,-9.188095921725335
1.012,-4.3009671295408225,-11.222187243673943,-10.52274744712804,-1.516760220278229,-12.87649305162222,-7.287747213410512,-18.711695566375056,-16.933069880721632
1.016,-8.763576860078956,-16.14469031244971,-18.185791321176566,-2.779630986795837,-23.032375584712213,-10.370161621467105,-28.80993461139792,-24.521827289502653
1.02,-10.779760698394057,-18.63360641722761,-22.70564715501689,-3.5851087478313275,-29.021925792680577,-12.500843503863507,-34.5478958730389,-28.93228388330749
1.024,-9.032601548010916,-17.355944853409483,-22.482389047856486,-2.93541730732818,-28.941436698803955,-12.291617617285283,-33.84612054309582,-27.794978191169548
1.028,-3.5227276455991614,-12.142372104549622,-17.65648066403253,-0.301983550978548,-23.242972462287526,-9.034957244797624,-26.5944547815875,-20.474622521388483
1.032,4.272249217523722,-4.203918467985204,-10.035182136799222,4.054631501389849,-14.451255793458586,-3.145398247165758,-14.72897870703855,-8.391444007841528
1.036,11.922949939050568,4.260691258183442,-2.2721139244813457,9.133974238961855,-5.92195778597943,3.9264817006187513,-1.444298740292652,5.559011426664483
1.04,17.03395216391573,10.918249920559447,3.2826618405065346,13.581633060614877,-0.3018674475615626,10.270610301653505,10.061082074063961,18.17208892692338
1.044,18.22111182194385,14.215362171750712,5.497460305866298,16.217680348737304,1.515413278267033,14.289563381124026,17.690193255681606,27.10809052251193
1.048,15.623581083324552,13.928041061936483,4.742961270098704,16.466616140683982,0.47504424489056873,15.298002071151586,20.924858853676596,31.536004989983212
1.052,10.73334827446547,11.111494761721133,2.485085712379828,14.51283564521782,-1.4414436596312044,13.68318637835273,20.573190946143768,32.036662342109366
1.056,5.656184403609586,7.507009035257397,0.47072849840117215,11.152395868029089,-2.3827550299959057,10.596300290248564,18.063728222345617,29.9473467153382
1.06,2.177669902851221,4.732363728659038,-0.06329061980034112,7.447155105271577,-1.5015400585673433,7.37596656707683,14.725727867451951,26.581030293890763
1.064,1.0648279355093564,3.640452064594683,1.178894145286904,4.338327030871369,0.8587161098466822,5.000934513741413,11.392809752579069,22.72829964770449
1.068,1.8983216226608874,4.12736816423967,3.6173443385395103,2.3753024248453585,3.6453108979769695,3.8035248670453257,8.410315315140451,18.617556331122614
1.072,3.4380362728923046,5.407306295119497,6.2274417932814,1.6351523430062116,5.859266519749099,3.522410820393816,5.872475869267419,14.233103094186845
1.076,4.289566258968989,6.54103901098506,8.073197760436642,1.8197635750175323,7.114472434639993,3.5998550911431266,3.852706131781815,9.709777219199623
1.08,3.532279661641269,6.928386639541259,8.691496736493036,2.456082799984415,7.725451505946239,3.5277817483238323,2.4685831187325675,5.5265382789361865
1.084,1.0356005883973012,6.529223997278677,8.197006938259392,3.1081294028799675,8.360060623961544,3.067412142909234,1.7869387660202847,2.381787464467834
1.088,-2.6075891213790783,5.768586600514936,7.141258108221791,3.537614831044266,9.54727353847261,2.2741823182532244,1.7167178156728369,0.8567795177068547
1.092,-6.4332885341841575,5.221425517366697,6.2196869759059155,3.75412564197768,11.330454988752763,1.3701155734852364,2.0143158108235184,1.0844392978367523
1.096,-9.532855068929166,5.2577941805911905,5.952387940875042,3.9429777723498773,13.212763289716804,0.5625863059121912,2.40016039684906,2.61327311394939
1.1,-11.349984445518203,5.8416501468145725,6.4592693723705,4.317692374280341,14.380898479938878,-0.07278889462486404,2.699096726046264,4.548354532843405
1.104,-11.773559448831293,6.554539155960811,7.4005618322887585,4.961775016231513,14.042391695397555,-0.6021466964793944,2.88631883491189,5.89583195591581
1.108,-11.051219801888692,6.8108360117103075,8.099820931060094,5.7388803807352815,11.717603093847401,-1.161945188449863,2.992707392788361,5.942446103638304
1.112,-9.611548758041863,6.144751128856569,7.800820793117509,6.325427996527196,7.395822556991561,-1.853657078737342,2.938987455692768,4.509490096418176
1.116,-7.907710133524688,4.423754661841485,5.9635483779800325,6.352105110148841,1.5330506205248184,-2.6671623753836684,2.443605436523285,2.0018539407662956
1.12,-6.334732026758502,1.9034361844151135,2.4957120057397333,5.576654375364342,-5.0571470572683666,-3.470942983133682,1.1090626166401307,-0.7573170006962755
1.124,-5.199025864853411,-0.876303504104726,-2.166224003087791,4.002322098172044,-11.379218628497938,-4.076664382154377,-1.345939889852616,-2.837217155645021
1.1280000000000001,-4.692843846742107,-3.2765890752284577,-7.153224701261024,1.8893826654075383,-16.461580310498675,-4.339136696568858,-4.8384144364436,-3.5399951971799055
1.1320000000000001,-4.858890812397021,-4.759204620847413,-11.413332627593945,-0.3535504741771547,-19.568652066004688,-4.238379541812719,-8.822520266696756,-2.656112021410081
1.1360000000000001,-5.57569092055337,-5.0624956100296,-14.04165026903047,-2.358879987840737,-20.39877392282733,-3.917995359658562,-12.44137323433597,-0.5547387033566338
1.1400000000000001,-6.589171367225845,-4.294891896093304,-14.565380753998852,-3.967989010547626,-19.17349344227773,-3.6465126531447822,-14.860589473032178,1.9318979195609245
1.1440000000000001,-7.605374678477801,-2.92229067369135,-13.083228041103666,-5.286852385810107,-16.55527566517867,-3.713567645929288,-15.60710982768478,3.8027169032670827
1.1480000000000001,-8.410061794475041,-1.644667087905873,-10.211545825274015,-6.5959681538838595,-13.399385979228327,-4.308055638221958,-14.74336541100456,4.254458975531179
1.1520000000000001,-8.947852960674481,-1.190329518814906,-6.86404983398279,-8.164469178103445,-10.443481525896686,-5.426358920189159,-12.805881279554342,2.98019182559392
1.156,-9.315652658814997,-2.0876715155736747,-3.962546630101315,-10.067196698538282,-8.095050338120245,-6.856832771976769,-10.55135449251975,0.26941143490466857
1.16,-9.655197391923139,-4.467957381359156,-2.1681425838628456,-12.099471014188566,-6.395108081989747,-8.251138604881817,-8.646262641577778,-3.1326680669835696
1.164,-9.999875294558933,-7.973388937705295,-1.7190227650312409,-13.831181290827772,-5.156239556130913,-9.260537233638388,-7.449246285078516,-6.349143430776621
1.168,-10.176811323644415,-11.812041121128004,-2.413721896168454,-14.765796759536897,-4.1659974927842995,-9.671596352448432,-6.956410332068117,-8.732319064522471
1.172,-9.829825074235941,-14.961460068845554,-3.732271696092994,-14.529032260176791,-3.317447373435243,-9.47437814127261,-6.884579639563526,-10.082532848431129
1.176,-8.563950339880193,-16.474898263568775,-5.049637212156085,-12.995046575894776,-2.6021577069582236,-8.823297337618897,-6.810903528410563,-10.621209673076464
1.18,-6.157271274228606,-15.790240284270112,-5.870901944906336,-10.31456429744685,-2.013297639793109,-7.921596294443589,-6.314763524289447,-10.760654175405762
1.184,-2.7233695469949453,-12.92713916650473,-6.004229798197457,-6.848528776603416,-1.459575017176121,-6.9027656674179525,-5.112061520076168,-10.815938182590344
1.188,1.256856279971089,-8.491305700585144,-5.604288958657207,-3.0562139224912244,-0.7737146873137135,-5.779409866003334,-3.1719053996848743,-10.817733530191617
1.192,5.050858152898854,-3.4905710155444467,-5.0771569179676135,0.5978147292007634,0.15901816204950592,-4.4959702438336535,-0.7942407794998871,-10.531752430795677
1.196,7.884327713411039,0.9522845561859867,-4.901743989595616,3.6815912872261833,1.2226617197879932,-3.06009197603089,1.3956462251780977,-9.66609832259337
1.2,9.162682420355395,3.8918794369305942,-5.445668236473239,5.803474846057725,1.9908379566650183,-1.6617315902649352,2.593779922996873,-8.112528597522669
1.204,8.62831421064493,4.781747435009493,-6.835721218937124,6.639855342521514,1.8526865519220337,-0.6792543471055978,2.1207931809549336,-6.058839200975399
1.208,6.415756903911188,3.5856366729158253,-8.928280555177935,6.025249005853766,0.3218971344813326,-0.5369892676289965,-0.2364423581493611,-3.9127592039990304
1.212,3.0024311500505974,0.7569572074739881,-11.378180559008797,4.0784303603240915,-2.637888706959984,-1.4732841764534896,-4.0198742142029005,-2.0860763942082485
1.216,-0.9264888762636474,-2.9105513548493036,-13.778192668668908,1.2776271206939782,-6.484935074403438,-3.3472992071328918,-8.184553671301728,-0.7884480104130489
1.22,-4.648404469000525,-6.507035932238068,-15.808122650010318,-1.599603095050952,-10.27354380191764,-5.602414967637742,-11.50005757330564,0.032143943158644106
1.224,-7.570900174655435,-9.256364352812852,-17.32535458048733,-3.6960634922861573,-13.061530621856491,-7.445146815696717,-13.098737420804355,0.5617207272666747
1.228,-9.355537210447437,-10.714947354072137,-18.34794778196192,-4.381118836614405,-14.323466465121328,-8.1802864670899,-12.881870135097415,0.9037002295422099
1.232,-9.956535938448724,-10.858711593189582,-18.962431372990068,-3.50686727037737,-14.146083294886921,-7.535639474326672,-11.559542547090132,0.9370271353104727
1.236,-9.55694934019084,-10.032519604239496,-19.20887465496571,-1.4676801598880047,-13.10046935928176,-5.799863835622091,-10.260620466269756,0.37710565846737154
1.24,-8.434688571370316,-8.773817898177185,-19.009065853595075,0.984344639912706,-11.87152478968028,-3.690208859874474,-9.908978074776314,-0.9812350499319109
1.244,-6.815595709107583,-7.575412614519337,-18.189886335453593,3.0911575661648385,-10.865892793355215,-2.003629268918303,-10.71400416051165,-2.99866680374771
1.248,-4.778107784570238,-6.672729630912727,-16.580818404500405,4.442989013654369,-10.010889638676872,-1.228795453609564,-12.06740693401025,-5.1019398002245
1.252,-2.277420032161899,-5.950596802409564,-14.130519259586436,5.140001939722424,-8.852933887936615,-1.3180640777936787,-12.911631567450058,-6.46201001677764
1.256,0.7072964737453731,-5.054567900338043,-11.012999616866637,5.6513823102550305,-6.915469581923844,-1.7536520748381008,-12.395981315474273,-6.389514843201141
1.26,4.005944416031525,-3.6487140334720607,-7.649142761159055,6.468068578699786,-4.0840328827544,-1.8649327757266292,-10.424907335867829,-4.72451029169315
1.264,7.191504618427643,-1.6735461479283913,-4.600579774503785,7.760553065507338,-0.7739164037857336,-1.2165555285391747,-7.768235517339235,-1.9710194151502947
1.268,9.689705356576269,0.5484992747651631,-2.3598962676542214,9.2600908624172,2.228655742924275,0.1429402903340815,-5.658465363656433,0.9309888988200328
1.272,11.03157347472461,2.4371811165183317,-1.131249107835174,10.44885398104816,4.164835045573454,1.7186127663862862,-5.1011126297735245,3.0958411567912663
1.276,11.108621483122079,3.442939446591481,-0.7265786162020049,10.939839156273592,4.694684839190813,2.8573998742704134,-6.308419151302587,4.163646115607207
1.28,10.266113636349473,3.333753826201246,-0.6599166821583822,10.794905038258548,4.045705658230418,3.125557844503419,-8.591836425258407,4.4739305557422995
1.284,9.163348075431713,2.3244147788282135,-0.4045652290824364,10.570142244239833,2.847805545425217,2.566222501662196,-10.75839639941114,4.838125735414906
1.288,8.462550253508198,0.9826787603196863,0.3197395055913148,11.027333842332155,1.7758126405119583,1.6915135313283827,-11.762144995062954,6.036515417279588
1.292,8.500857736013131,-0.05148149863725848,1.37970564327361,12.649680540980626,1.2089083946671053,1.2122938044030889,-11.227207217645628,8.330914528840367
1.296,9.115746779599249,-0.3969261459133122,2.27471900783803,15.239994887864668,1.0855977583360072,1.6545786621736625,-9.554002526510885,11.285756361157837
1.3,9.737026212180353,-0.1240489163201346,2.394591087570916,17.86656792733902,1.0292125312480493,3.0866660817428055,-7.569067060909219,14.017891673316626
1.304,9.697243135276949,0.2920735969573798,1.3626087694533453,19.227755401275317,0.6469435364174387,5.099678416361712,-5.970151463034199,15.722502670247195
1.308,8.582857122298265,0.2373273898510888,-0.7249283021892552,18.269162288352163,-0.18886555810604477,7.033967106312048,-4.933137548958257,16.14436563185336
1.312,6.431360140671131,-0.7079296272740976,-3.307471309232824,14.723792782466262,-1.2461237642519336,8.310484596398965,-4.1271972387512506,15.697284203795789
1.316,3.6837446132922196,-2.544498624120024,-5.623866264461867,9.288468613385703,-2.0749520310232583,8.689906429834082,-3.09509198429987,15.154506495858186
1.32,0.9422135089916992,-4.84087449288927,-7.0848116635525,3.344893783219959,-2.275741120499333,8.330451737541807,-1.71685747738411,15.101352605855027
1.324,-1.300889376521809,-6.917902425371722,-7.541348682933403,-1.6177209322122508,-1.71355535837165,7.638510269094695,-0.4156163445004495,15.498741239264746
1.328,-2.8116005121082708,-8.122457582414427,-7.291555766707916,-4.57245582633368,-0.5480233994535411,7.020374934658321,0.06929482711711898,15.64223483961996
1.332,-3.5834681205651577,-8.059289354348948,-6.830182332419099,-5.248463423233261,0.9253957067926422,6.683916586825944,-0.7937672122734512,14.570254026099974
1.336,-3.702250063934116,-6.705926596640893,-6.511475223194793,-4.062048274856352,2.485470224043638,6.584851325031195,-2.8538717802075553,11.692697904822126
1.34,-3.2463962472538697,-4.3993345129511,-6.347072060455048,-1.801440666346025,4.082322608237519,6.514137472002403,-5.19247116648512,7.257481558530344
1.344,-2.311204603594888,-1.723943312845222,-6.069709324841824,0.7287258172727888,5.7565542933334655,6.247790110663118,-6.526151640364333,2.3639007916681294
1.348,-1.1217648530719089,0.6716894032833807,-5.392535763613978,2.930328213109533,7.4659352616536125,5.66135153002142,-5.888363022126214,-1.512356625145003
1.352,-0.10239509642360645,2.2784454383845514,-4.275435611520152,4.454146388959998,8.966295147693017,4.752934716329037,-3.1917314243037254,-3.2266097030405945
1.356,0.1974599237928487,2.882344078522692,-3.019275647896393,5.133084267334198,9.849027885170472,3.593322005468508,0.6711634361818142,-2.510430431988425
1.36,-0.6689074182977492,2.6244076205111924,-2.1043612850116915,4.931262787958985,9.748037332437889,2.2700526756998443,4.268476137793186,-0.0496190421636129
1.364,-2.7704226445912354,1.9301711617654291,-1.8724593954616466,3.974994187541597,8.599662892273045,0.8737196961919835,6.3584364786820515,2.9412209229813016
1.368,-5.656614249051017,1.326266803501312,-2.257262690481184,2.620630710021942,6.790975073564368,-0.4640230260192766,6.492488178932035,5.400162554053168
1.372,-8.483504185600395,1.1968253529485082,-2.765187914777016,1.435550610998689,5.063326711602713,-1.5379526013784925,5.159783268720275,6.954394368115572
1.3760000000000001,-10.379838726280468,1.5863910571897577,-2.7513686643469555,1.0178838698666368,4.1826242652305154,-2.0947190914557723,3.4241842405463103,8.01803470435243
1.3800000000000001,-10.875290345732537,2.1605655621988262,-1.8354832775639807,1.696887624797455,4.544910036682268,-1.934906060288995,2.3041274665520177,9.423254723787068
1.3840000000000001,-10.155710109251231,2.360338057820627,-0.20136492237043058,3.2739900091582967,5.9320090547316795,-1.0533263929573877,2.261122410525786,11.809391979902102
1.3880000000000001,-8.981504531602695,1.6988178458041148,1.4352759993930704,4.99634106571466,7.578592937732537,0.2736282452897285,3.075224557187539,15.121951327051647
1.3920000000000001,-8.29217280463945,0.05083374392143014,2.1955841496146604,5.840285775673692,8.54024158219363,1.5363652248815924,4.128536858381267,18.515420276946315
1.3960000000000001,-8.714640201083967,-2.2496958549027113,1.5310518092264829,4.9955289337849536,8.160025730124289,2.175805191809559,4.859912758225619,20.710518415351544
1.4000000000000001,-10.243095693568648,-4.586412094418847,-0.4558860073548203,2.2964097870026308,6.383958256263213,1.8204396441560675,5.069953390882802,20.593230663045688
1.4040000000000001,-12.251838795711592,-6.408788141027799,-3.0482295329293265,-1.6339023728014581,3.7733886414553126,0.46892067234875867,4.922157492954284,17.751775241256837
1.408,-13.823363675008295,-7.521486546903361,-5.2758642244079965,-5.622411502132309,1.2313974955859521,-1.4808297319723351,4.701186988833797,12.684453055313497
1.412,-14.201780201819929,-8.137748835261846,-6.384820540849432,-8.453861356669222,-0.40026573950126476,-3.3794911186487298,4.55055834288396,6.600752568068856
1.416,-13.131221778596228,-8.667611057790964,-6.1600169958119295,-9.388741314196523,-0.674396897198676,-4.585754259376699,4.39410168131144,0.94293434453175
1.42,-10.9282147346712,-9.37134450170015,-4.9389971876289565,-8.436752520747177,0.34471349379691674,-4.7124722701337305,4.078079199502099,-3.141488943612785
1.424,-8.281949281532434,-10.11318967623447,-3.3439392140126074,-6.259370669218697,2.198767252453763,-3.75675141582542,3.5981818165782897,-5.152525769397471
1.428,-5.918958407990431,-10.379525143072897,-1.8987651539373473,-3.7745508069237985,4.2991321027648155,-2.0644099576711596,3.212970901522567,-5.300559310612698
1.432,-4.307814696332571,-9.56517929923939,-0.7614654884146148,-1.6901626243434293,6.184212250141172,-0.153103177115554,3.318240767894167,-4.30979100490913
1.436,-3.546322920021339,-7.379959834212059,0.27568928126947867,-0.22527802515105577,7.632410962918584,1.4969177633247455,4.161120119637417,-3.0783152447365865
1.44,-3.440491748531713,-4.10573666311393,1.5569547041386613,0.8538209712787648,8.616038423528153,2.5965411178076465,5.605349050081713,-2.32689660093547
1.444,-3.6860342168001807,-0.5301577445061412,3.2660769442682067,1.9467371919763536,9.165662130728379,3.086344126291806,7.140114562809686,-2.3572916410012112
1.448,-4.0341139355005,2.4275974814227084,5.26055458789142,3.2765007027010142,9.266253737574516,3.066382357133989,8.173456106778758,-2.974743847749778
1.452,-4.373348073348097,4.178292661606974,7.108455641473483,4.6886749083896575,8.841005768977084,2.673384031491878,8.421256852570878,-3.591856917541918
1.456,-4.720698958393768,4.725925573899076,8.28411119865359,5.696117721377959,7.807753284228056,1.9791810048518528,8.123597017805878,-3.477310723745177
1.46,-5.153517458642455,4.575484997980311,8.4066448282083,5.72937069913678,6.154080950680509,0.9624421864791657,7.917855059851718,-2.072405141978379
1.464,-5.741689110242078,4.3430943460462,7.387133407559304,4.445521597981497,3.9725281418413942,-0.4486667000564921,8.41700747165305,0.7297556270805217
1.468,-6.499570856534774,4.330061195754752,5.4400794473067435,1.9305269620635954,1.440807547024633,-2.2961532654699113,9.758146316140483,4.461627713492817
1.472,-7.36122765228356,4.330227552356519,2.9844656206660147,-1.3030438178320765,-1.2350170870386137,-4.514990210955148,11.426552447665017,8.192637379690495
1.476,-8.176415790556348,3.7993569121063047,0.508007126096345,-4.494392669332228,-3.8609229112771573,-6.889888208239427,12.511965960884481,10.865396219861395
1.48,-8.741663747867278,2.266935915731665,-1.5641985435304377,-6.905379200205061,-6.265170465194387,-9.072353297524387,12.254749177769554,11.725765649487585
1.484,-8.860891006032034,-0.2675612787443242,-2.956967750728836,-8.064588562865538,-8.270537183887427,-10.652409274734964,10.550203184957354,10.641173028456251
1.488,-8.418003972888982,-3.190800713360659,-3.5686731631067232,-7.873651398491347,-9.6385177990378,-11.25766178016056,8.087836788581626,8.151393259991892
1.492,-7.447690068331212,-5.501066667231498,-3.4520571793045747,-6.56750485266457,-10.049349951628756,-10.656438593214261,5.999299340071957,5.2095930807718105
1.496,-6.154595164123748,-6.29040473886198,-2.769903225796952,-4.584062116420682,-9.174288269874523,-8.83870597960049,5.198827745021845,2.7279526781767345
1.5,-4.848615883249295,-5.207141625131044,-1.7277705265851182,-2.3997296929755976,-6.82578830624152,-6.049697282182024,5.813747712500117,1.16313381472537
1.504,-3.8229686019403744,-2.6466209350874124,-0.5020442076547624,-0.39272221894862014,-3.124107182249645,-2.7615467306241044,7.055773572621547,0.3571132886017949
1.508,-3.2280420649312873,0.4443057903299632,0.8220119862780848,1.2249528112934058,1.417842890623433,0.41658008785088896,7.626517942231658,-0.282331993790649
1.512,-3.009695005695903,3.0343176874594064,2.2661026140358445,2.3958732381615846,5.958595755268107,2.874665813265892,6.436407637447701,-1.3709580562863266
1.516,-2.9607682740152086,4.472286301628628,3.9003745763375264,3.143108891441443,9.537004647987487,4.146376058681199,3.225700373035579,-3.143567866403828
1.52,-2.850398138518358,4.717990700843075,5.745374416736013,3.4727700144358096,11.364577905119404,4.026441584814165,-1.2701619918407232,-5.280764967874347
1.524,-2.557251881580669,4.237289829730798,7.688951069772884,3.305969177486986,11.086966352270792,2.6299665827864374,-5.694188230192594,-7.071038311110897
1.528,-2.112879078624246,3.667669408619986,9.485773091812007,2.4989973593255854,8.914396600636792,0.3720839361594699,-8.76008245378398,-7.820707080039938
1.532,-1.636030137689886,3.4576531758048077,10.850123202963005,0.9447469147471566,5.555200099282956,-2.1241106656852935,-9.866083756855005,-7.275887436675475
1.536,-1.2220498383521772,3.6559187889433815,11.57598573345058,-1.2986542987491703,1.94840474720786,-4.177781073376536,-9.306139672142308,-5.809455791619257
1.54,-0.8729787339252653,3.9368956909765984,11.605646586507646,-3.9341645071835956,-1.102199214092252,-5.231708542720298,-8.006418703022064,-4.273745083213726
1.544,-0.5308264732393582,3.8074664537543867,10.995133389751572,-6.47333258018989,-3.23650713618008,-5.014624552775786,-6.98446223465362,-3.6055786841861845
1.548,-0.1905276035922725,2.869744155806984,9.811320279686697,-8.404388627603112,-4.635459478702614,-3.634427624492673,-6.855079141772876,-4.3976372003398865
1.552,0.011197691155757639,1.0244819468498463,8.061231841633344,-9.399329292646144,-5.841473295596188,-1.562575696309068,-7.630197207101446,-6.645107058697249
1.556,-0.1734859268854052,-1.4755052377549873,5.719737922005152,-9.450626682773873,-7.3989201730291825,0.5057033366138057,-8.873124860281678,-9.78260336702624
1.56,-0.9522726525774488,-4.127672576381883,2.8499038225854747,-8.855546750008216,-9.492731148042367,1.8835990009501984,-10.051890196849854,-12.953839455512934
1.564,-2.305217496585101,-6.372706825746718,-0.25434112308539625,-8.051242804585854,-11.765963108282449,2.1397570878652914,-10.839046355618848,-15.353181715210667
1.568,-3.8855564977675385,-7.786260412738557,-3.016524446926269,-7.388201274254243,-13.421943610540438,1.2614625262431218,-11.192317478613404,-16.480999783829247
1.572,-5.103177262597455,-8.199322701442725,-4.701233793475694,-6.96788732683126,-13.571022782660293,-0.3451233955202042,-11.206154841274838,-16.22130847374501
1.576,-5.385872764118176,-7.742821376210486,-4.703963520957586,-6.641863463017216,-11.672471177409534,-2.027743195892981,-10.8907647987362,-14.766171559451323
1.58,-4.485551346833745,-6.813784539084736,-2.867069963799622,-6.180295382924669,-7.857306548045017,-3.1721154026090517,-10.067155877623009,-12.48317702152599
1.584,-2.6366702537034143,-5.951537700148037,0.3730910725353169,-5.486672573395481,-2.9525914688711055,-3.464467286983563,-8.45275956698606,-9.804254216658592
1.588,-0.4520491000475886,-5.6323510742131475,4.136799479513684,-4.687855312084139,1.8351902058766427,-2.999574459216092,-5.8696563385019545,-7.1541643153104815
1.592,1.3905188929620635,-6.050891906908873,7.496350420849012,-4.039415142075086,5.426137800828656,-2.1856343320032465,-2.427400355485588,-4.896288261618793
1.596,2.4850862685007087,-7.0065557499538045,9.895931105556883,-3.7113781829912114,7.291326068005674,-1.5011588199859034,1.4321870389821925,-3.275491199056887
1.6,2.851858693873055,-7.965300847222807,11.358393726634858,-3.604924662296071,7.586306989243894,-1.2326317428442053,5.061558559278637,-2.36567403135723
1.604,2.8239767479590228,-8.29835006518806,12.358623366144457,-3.345157452948115,6.940557005689698,-1.3434297967687598,7.83717027104467,-2.063260661928325
1.608,2.7639116112841293,-7.588582271378982,13.445124761026818,-2.4803229206700053,6.055341372584735,-1.531143883941695,9.362971207865485,-2.153109374201449
1.612,2.8006410982889065,-5.854898653369673,14.834327465046954,-0.7825229265436064,5.34780765006326,-1.4265084036960616,9.56136759555011,-2.427573782288164
1.616,2.772811762850324,-3.5718708240146952,16.230733922929176,1.5480313474763534,4.836822623075932,-0.8046201204742829,8.661250652472518,-2.779573738369436
1.62,2.4274895512735384,-1.4386128421319881,17.005092205093206,3.9376652462451602,4.333308394314372,0.32643568994899397,7.141353237966541,-3.183568163165546
1.624,1.721980605609133,-0.006116203410783783,16.630317772664966,5.7467999069267535,3.777132301996062,1.802342661012517,5.665543351173255,-3.5690615595667623
1.6280000000000001,1.0006121894093667,0.6409321492756135,15.103336060871698,6.656583351188601,3.4665033061746726,3.4648755700472975,4.978057343787441,-3.6888427034828055
1.6320000000000001,0.8778651489501499,0.9473943013617827,13.06374154707737,6.883381353809455,3.9779990116348927,5.275316408176877,5.71128423472328,-3.1101733530613274
1.6360000000000001,1.8474565036540298,1.604697786302495,11.479865759025415,7.041981888816736,5.747007743280847,7.2669942634311155,8.095951754286943,-1.4204469014002825
1.6400000000000001,3.843948600710064,3.0438958510931116,11.036124152171396,7.69435244405031,8.53053563339472,9.35509103025106,11.650346403832373,1.3974207538431074
1.6440000000000001,6.0526080309537065,4.99424847219052,11.579086632453254,8.844502773292334,11.118245987860973,11.126907632569782,15.049013166535588,4.639947170950109
1.6480000000000001,7.141103082431073,6.401806057921931,11.998992999249822,9.711856499638088,11.585189351540976,11.802761637267395,16.37619983640616,6.872747043234995
1.6520000000000001,5.851740491147211,5.838282427899685,10.69018139468244,8.981782582215601,8.083773516053952,10.47257625250495,13.791711467314599,6.363597556108289
1.6560000000000001,1.6628989282417024,2.2357149409781414,6.4027801389711385,5.464819063941832,-0.17022333659770084,6.539872630441096,6.4040619793941005,1.8568252880540967
1.6600000000000001,-4.822470532461011,-4.3860794457959855,-0.9206874634255655,-1.141788871073004,-12.196409487632991,0.16596345873404061,-5.038236935588429,-6.650932699541954
1.6640000000000001,-11.981476194954666,-12.615122412526034,-9.805781553468478,-9.81884688509308,-25.274217542983024,-7.547305020238127,-18.051353186305278,-17.558819807665714
1.668,-17.735590282578414,-19.988289050972526,-17.642243475662326,-18.385743760605692,-35.784113552430426,-14.795488325333281,-29.07991251129897,-28.005403295199358
1.672,-20.33097214335794,-23.889716643159773,-21.69648323079582,-24.24922839691135,-40.542697688695625,-19.674685658916133,-34.73510471711052,-34.850344922366276
1.676,-18.98366310095298,-22.632984415649844,-20.29548174638694,-25.432542436572476,-38.05297078902822,-20.896007257630117,-33.10834165945016,-35.89294876924396
1.68,-14.11547237918785,-16.215096391744737,-13.60562057995321,-21.400062078570045,-29.077305870636337,-18.28262959645872,-24.54458010678718,-30.767092641202908
1.684,-7.131250076852666,-6.40585200559326,-3.6457237120503123,-13.314030839843326,-16.30150014900937,-12.812459657990985,-11.513603447107016,-21.08472388915743
1.688,0.132149260443839,3.903105399751439,6.505690202030564,-3.598241270176004,-3.2427431950218306,-6.191871855637146,2.3750047375433496,-9.764031276359674
1.692,6.050095688449801,11.821118668209238,13.961844261719307,5.003814466774202,7.096876997276922,-0.1618510787775449,13.772840293469926,0.1449339076425531
1.696,9.691407765685653,15.540607619095681,17.151041455831546,10.44799737446192,13.20672797385214,4.129870836455666,20.747176144563127,6.58518389026267
1.7,10.992122450317765,14.912963878156006,16.30585970116408,12.055627201860261,15.294458855663834,6.422253346419893,23.195376357793066,9.076359485631656
1.704,10.606781245933234,11.280282168341728,13.107432046412214,10.566081745537304,14.747560394723223,7.21383951486132,22.418774961864983,8.561916772862787
1.708,9.544527380663567,6.7181592356319015,9.722860254580155,7.626187517387734,13.211596001363432,7.332833588039648,20.17635546213569,6.685161897078615
1.712,8.735452245264241,3.0850740518508246,7.738186416484496,4.98123204536023,11.800066331740709,7.453723772519879,17.76792164683866,4.914934494285262
1.716,8.6886009759437,1.3132175662030932,7.5100508872455976,3.7464423636174615,10.790655131027961,7.804470710972964,15.603733501058741,3.9613299422799173
1.72,9.355835728119928,1.232484173411649,8.227329440394897,4.060094539281636,9.86370220657409,8.176059962279396,13.390140741939831,3.7040653239646417
1.724,10.218557416539625,1.8880039766918344,8.555608133350688,5.190905734170883,8.592926466385507,8.170886067437095,10.698414384047283,3.5553341187769547
1.728,10.575510999293328,2.136590427326155,7.487922356200215,6.012482360161812,6.855413107443383,7.52277285843229,7.4986870682332665,2.9760647373332176
1.732,9.908774611903937,1.2139377251733094,4.938639067358963,5.5885611600333505,4.935414415705964,6.304970321987639,4.32122086450363,1.8327762922262991
1.736,8.150913877341736,-0.9897467387781944,1.7718938358575542,3.592575934577326,3.301492986592166,4.9173908793709415,1.9719770891770168,0.4210771473863133
1.74,5.716693337937613,-4.013277073008794,-0.7189619504861184,0.3953065714376862,2.255659933965944,3.87923803862941,1.0094887368795753,-0.8044013902326697
1.744,3.271333123666409,-7.164347361125692,-1.573728612067498,-3.1848821951625723,1.7005810169630422,3.557704262977495,1.3411791906746657,-1.5744466056567035
1.748,1.3669636313243245,-9.883150940306223,-0.7268141492786526,-6.302373633687239,1.205415517450092,3.977684361023421,2.211299048636647,-2.00285858699408
1.752,0.14383265810283774,-11.942540199019277,0.9332712759423885,-8.45801536109866,0.3232821409128519,4.812453282211209,2.591345155122326,-2.524265048909001
1.756,-0.7272341119678458,-13.42404623015318,2.026818004192137,-9.65606030806157,-1.0608728529623477,5.547894124993036,1.73573566696723,-3.619173632575439
1.76,-1.8107660745608882,-14.529277267221914,1.4108065550672109,-10.283735915898433,-2.5745146522403957,5.735512920724432,-0.4219226637869724,-5.503121938982986
1.764,-3.508868859291397,-15.37210657916512,-1.2276143379440327,-10.806630128126926,-3.5188995362286732,5.2171941050291935,-3.243604647646862,-7.944315803608333
1.768,-5.746562440805064,-15.871955225464262,-5.207479911300652,-11.458108611759599,-3.2473601880437855,4.1958024210325675,-5.728934703129198,-10.322585442123454
1.772,-7.938938032026272,-15.80202125658252,-9.198135131351592,-12.097626204285916,-1.539793535122044,3.1184484300029,-7.019136668126521,-11.908067178911551
1.776,-9.27248084110579,-14.949290487726103,-11.872172925187442,-12.303622255269147,1.23780899742178,2.4358751050203864,-6.790126736090315,-12.217888244595088
1.78,-9.163499722564666,-13.282930117395154,-12.523073378976733,-11.639751909204278,4.286681613377368,2.3584430426381005,-5.357044499147378,-11.276937904694933
1.784,-7.638844976474502,-11.065833266366099,-11.378196092096914,-9.959649928056024,6.70996094318798,2.7278611649489903,-3.4945620960279484,-9.65458130567822
1.788,-5.397298565658275,-8.825425744623317,-9.462759475848543,-7.556938133386211,7.863466976416021,3.0775742258992977,-2.0973928933344723,-8.2543837482026
1.792,-3.4891623894864097,-7.168878593858608,-8.085876792444651,-5.057562720281567,7.570137434804565,2.871729861599306,-1.8501489729387686,-7.932583370585235
1.796,-2.7799951098741076,-6.531132070207605,-8.21936817326332,-3.114136867079651,6.105515479725,1.8049589393631322,-3.0317070116707328,-9.111589220092355
1.8,-3.5043723283197323,-6.966819927284632,-10.056159446723541,-2.0742816925157967,4.007788963266648,-0.0013693311011593323,-5.4759529026378,-11.572721090381492
1.804,-5.1746810601162,-8.110471398686968,-12.959585076726853,-1.8333723905361694,1.8075117328189663,-2.017694154606943,-8.661243334876417,-14.532623278422761
1.808,-6.8897024236866855,-9.325622386116265,-15.796390235287618,-1.955659191680752,-0.17446708309216774,-3.5471021222801937,-11.876760123343047,-16.996329285324464
1.812,-7.85818780515001,-9.970318969597429,-17.474552573327855,-1.9970639280618343,-1.874343251791288,-4.069407158382091,-14.419471428635006,-18.222785044519696
1.816,-7.841784533428836,-9.66528389377163,-17.44309366375228,-1.838089539847715,-3.410568068747125,-3.5158087582531152,-15.797975668074287,-18.07905952852525
1.82,-7.259715570357912,-8.424739574948944,-15.918601334272353,-1.8018937898032164,-4.937635386037982,-2.3202948166926944,-15.89433817765348,-17.101066593679207
1.824,-6.903609440118089,-6.606035537102798,-13.76157732547017,-2.4747163237079803,-6.524952803491033,-1.202404704697983,-15.014681799482787,-16.198829056531395
1.828,-7.447727256555481,-4.704443028784226,-12.060495724510474,-4.309674998747141,-8.09589052022966,-0.8033719177492458,-13.778622634061321,-16.14631634684156
1.832,-9.06039264789706,-3.115113224873312,-11.619068239107037,-7.252312572991286,-9.434597717348879,-1.3692998539518157,-12.862986056758018,-17.12925046476994
1.836,-11.336713121850153,-1.99046601446571,-12.594059183555146,-10.633965844701379,-10.259391597712238,-2.6537623186995916,-12.697016855487163,-18.60436386442416
1.84,-13.57885159426769,-1.2644985332162832,-14.448432522023268,-13.434445726808917,-10.326749435318561,-4.101905243151123,-13.259929816053045,-19.57665994094714
1.844,-15.256038800385795,-0.8471904468296998,-16.264147412699458,-14.821937026305022,-9.567002579234213,-5.1989473199573695,-14.124899537162491,-19.16225169803147
1.848,-16.325838479253434,-0.8168484374136824,-17.229744284296885,-14.65731378374403,-8.173832408055205,-5.782034818879765,-14.730831217349987,-17.13448719102871
1.852,-17.215249716988183,-1.4542560945228615,-17.053721852033505,-13.655282424004326,-6.590704155510139,-6.1260373541626905,-14.732626264274586,-14.134646991929912
1.856,-18.47195041496434,-3.071470719805802,-16.086538160190685,-13.058985875126382,-5.375578587701057,-6.745213742375199,-14.227060832097777,-11.39890836621089
1.86,-20.304886209220058,-5.713439544995708,-15.08144490914492,-13.955369393052024,-4.966917153704344,-8.032626042946504,-13.696891301451615,-10.131390951719368
1.864,-22.321520975254316,-8.94298138733393,-14.75743048352524,-16.61530527393188,-5.475470291262809,-9.952406650763805,-13.708619266135429,-10.860763103886711
1.868,-23.63488273683106,-11.864090264131846,-15.3941988294373,-20.227873485924647,-6.592627076250665,-11.98760498552656,-14.543585757683104,-13.140865666053287
1.872,-23.306344508064285,-13.428447495571163,-16.678701094516327,-23.21893402920432,-7.6800078825149285,-13.380060222574684,-15.987119360781435,-15.767679259609395
1.8760000000000001,-20.875474765900435,-12.90264677513187,-17.892074646021683,-24.0218138846667,-8.037073642771247,-13.523255639331182,-17.42323129248325,-17.40014876178975
1.8800000000000001,-16.66126293776142,-10.243345301252702,-18.313311195747247,-21.893765528851873,-7.222915800884493,-12.285906614497435,-18.18558856319396,-17.246204556375233
1.8840000000000001,-11.673297859201739,-6.196912455663551,-17.629034276194943,-17.355489627116185,-5.3048949466228805,-10.07406688276933,-17.957201660825376,-15.435925706645321
1.8880000000000001,-7.17075691986156,-2.031373198556139,-16.102237224845794,-11.988485245416086,-2.8899122332700244,-7.603924952965826,-16.965821367872195,-12.900699887062729
1.8920000000000001,-4.119795763916045,0.9845809665148408,-14.408620187140514,-7.687651198501953,-0.8898573589685839,-5.527516030861079,-15.832144260860332,-10.844524626386374
1.8960000000000001,-2.8493841219687965,2.091271294359103,-13.263363029243465,-5.767596891674657,-0.12688195981490935,-4.139842161303022,-15.16707538083574,-10.121767561492561
1.9000000000000001,-3.0512500543400165,1.3060510922787216,-13.05059524642138,-6.383735239589441,-0.9389534843871843,-3.332651950593572,-15.152726210160836,-10.861041730516263
1.9040000000000001,-4.076661492754283,-0.6787169766594161,-13.675232513650826,-8.563729153940585,-2.994264257741179,-2.794253738638872,-15.365865357384791,-12.497367937817216
1.9080000000000001,-5.322369629504465,-2.872054042005402,-14.689890479985479,-10.78879202090593,-5.399033986717768,-2.30889311237479,-14.975934516197412,-14.153898635412588
1.9120000000000001,-6.472435499854328,-4.4132796955927915,-15.579718578906522,-11.78239859538644,-7.049313032842747,-1.9464278117320646,-13.21182604817659,-15.110676695690017
1.9160000000000001,-7.484024738766493,-4.852844822831685,-16.02166525427583,-11.076885024128387,-7.084495003819939,-2.0031925190523907,-9.83889977324634,-15.086038722846752
1.92,-8.392975404133722,-4.177063604345676,-15.956455423132411,-9.080753088195706,-5.224341418208496,-2.7406088679417735,-5.367129190412015,-14.224212305256515
1.924,-9.125538073470125,-2.6652804930217826,-15.493840914419252,-6.693675480292768,-1.8742411028811148,-4.107028376076414,-0.8747495923435054,-12.865837649334026
1.928,-9.470433292539383,-0.7057274254739241,-14.756402411898762,-4.7474950368232385,2.0430137695939266,-5.648108974861316,2.4433611381437004,-11.307696444156136
1.932,-9.22425582953747,1.3325585819547996,-13.789574709826411,-3.5991916787506852,5.47031323821966,-6.691223143880052,3.771707811248234,-9.710291193984176
1.936,-8.3875812675833,3.1270402671425472,-12.603474359293614,-3.077932940635037,7.636567959741569,-6.713088645123207,2.9754508267378696,-8.170031849884708
1.94,-7.228444087004391,4.4017012053718645,-11.277258631786935,-2.7411993901287133,8.350096377469526,-5.658657340965874,0.5929965002233075,-6.844500213984702
1.944,-6.149847429544025,4.941287271402871,-10.028643527651639,-2.233857919904949,8.027926848417792,-3.999407813997095,-2.436434807264959,-5.978787849726359
1.948,-5.427887675057718,4.659737384260552,-9.14352388789439,-1.4947926717804876,7.466861664644057,-2.4805225337568118,-5.140826516499146,-5.781218344203808
1.952,-5.010593154232083,3.679639919330839,-8.786591542070255,-0.7182476246898659,7.467739094185163,-1.6940596227432252,-6.8165614911631565,-6.231091126993306
1.956,-4.539046637847605,2.326551837727493,-8.844274232133102,-0.15608741437426943,8.459293749026983,-1.7368150419588346,-7.1858841999110155,-6.988079434453084
1.96,-3.6110289173748242,1.0084396620395637,-8.934193394399244,0.07025764512309252,10.295712173367974,-2.1734619035305514,-6.407258292260849,-7.516755312665737
1.964,-2.138329323058315,0.01059397558310593,-8.637065237203842,-0.008007355741938227,12.296661856804349,-2.33154340150395,-4.996903869095149,-7.385679252625778
1.968,-0.5456868143137399,-0.6582173258639159,-7.821195657101271,-0.32958697933372605,13.527177518842109,-1.7566230176907993,-3.7002674303166714,-6.562709846240523
1.972,0.37165126047693775,-1.2405517566548951,-6.823608607053302,-0.9212515057533892,13.216377910282517,-0.5337616030974459,-3.3018833545411326,-5.487916452399986
1.976,-0.10625162395081134,-2.029277013160936,-6.331456661413995,-1.883131929240335,11.123852558017916,0.7349028652188281,-4.372763893008596,-4.83838136211034
1.98,-2.129923888880512,-3.0966840572418732,-6.979211201875842,-3.21281993685443,7.705173702191132,1.2906756339307321,-7.0073399077118665,-5.091716731363249
1.984,-5.056661507302124,-4.152581459305111,-8.902562444339765,-4.61542384079894,3.968984241326325,0.7028507048253232,-10.667956893546943,-6.15523507327589
1.988,-7.659441635684743,-4.633914590675886,-11.51436159790137,-5.472659047771231,1.0944050920566042,-0.8230778084462145,-14.250883547550075,-7.316481303412729
1.992,-8.696377676738848,-4.0024877333448785,-13.68726172138804,-5.078478874193024,-0.027213990757445572,-2.516634490616525,-16.431041201585685,-7.59276068329882
1.996,-7.5465907980023985,-2.0856736515825105,-14.28799359847494,-3.0607009233081044,0.8590735502875759,-3.468912618588547,-16.185249346858654,-6.3029735510885985
2.0,-4.545186137528162,0.773512134504017,-12.753386284253793,0.27033912280421646,3.296830762233185,-3.167705377135462,-13.257698960203925,-3.5318900847896657
2.004,-0.8564243464543324,3.813498553489808,-9.415995987768383,3.8714610586575873,6.305753493282282,-1.822607208777299,-8.339088220053782,-0.20490970614719117
2.008,2.055897875976825,6.165126569752829,-5.376791293885162,6.327005718652799,8.759099705623157,-0.2770856119832388,-2.841242036546646,2.304172970352738
2.012,3.079329105567467,7.210923083619036,-1.9792210836692448,6.469642683203347,9.796392432527682,0.454630276338321,1.6614647327151033,2.83597098339078
2.016,1.8982456307066968,6.785555748611841,-0.185428568143152,3.9472655896761353,9.098977047711287,-0.23464950936249807,4.07220246201814,1.0285000477852009
2.02,-0.9570447619221341,5.141688565885488,-0.17571458750035163,-0.5649575225043009,6.954675113179746,-2.187792116523269,4.190075439031716,-2.495432479237479
2.024,-4.432094136102933,2.7243206670750624,-1.3908467543546976,-5.651285661110705,4.083312463078073,-4.545805544365976,2.70324578079817,-6.43304980689345
2.028,-7.4150293843381405,-0.05686258074501893,-2.942650003058816,-9.777465211314848,1.3302633073390098,-6.198794551116407,0.7833217926527141,-9.429333168814537
2.032,-9.115419068909887,-2.9118860611383752,-4.126003286004789,-11.92231336101213,-0.6461967528375681,-6.372116526775244,-0.5054303238230204,-10.699059013275019
2.036,-9.223990991204118,-5.605048298737984,-4.749924411313941,-11.914810687026147,-1.5968435409643007,-5.0221322948737,-0.6849018623533993,-10.324004648061418
2.04,-7.849085783603186,-7.828129777342838,-5.108467051303251,-10.331494693810782,-1.7240243979076695,-2.827911890741234,-0.005946841565673822,-9.100352632314753
2.044,-5.368160100303612,-9.194256994858733,-5.6833230020465635,-8.093079743031012,-1.5714430351858937,-0.7974167087286332,0.7646907985572398,-8.054624614057047
2.048,-2.2993350740957794,-9.398203749038203,-6.77420979422277,-6.008466384527765,-1.7877847851559636,0.26585785833594855,0.7649957418143458,-7.902977599579117
2.052,0.7969999935198757,-8.439610316270773,-8.275358763097529,-4.4973988655242465,-2.835957522829176,0.14964768247318716,-0.5424420351191657,-8.72397272069702
2.056,3.400268039598359,-6.757403398192764,-9.726311001206795,-3.598040810124985,-4.7708084830321695,-0.7259238244369044,-3.142759256298632,-9.986848597195149
2.06,5.139309268926354,-5.111984264674447,-10.548061325548133,-3.1577747415453814,-7.156085497116692,-1.6132967410194397,-6.4913361405233445,-10.884039177102295
2.064,5.908429332912874,-4.242310240714687,-10.318474361467452,-3.0313199422566868,-9.19399832466297,-1.894795056199655,-9.724569441320455,-10.761407604878968
2.068,5.9037584866628094,-4.477719394660198,-8.933368926384446,-3.1543244490926554,-10.02732878064785,-1.4276778768626173,-11.947939849013892,-9.437138492154645
2.072,5.537231630059978,-5.521230976226434,-6.576467217765639,-3.4609894201430507,-9.076583996941054,-0.5874983133244314,-12.484548786635514,-7.257431854857259
2.076,5.2382142106635,-6.574894908717852,-3.5740964987089683,-3.763918325191753,-6.2847584427645415,-0.012439612801244948,-11.048246114088215,-4.892995052808828
2.08,5.237184529892147,-6.7524878149729375,-0.23674092068176833,-3.731988987770819,-2.142443499643605,-0.21604059995843272,-7.8225676761303475,-3.002826037841942
2.084,5.465705165965119,-5.570208423089753,3.1956145034268957,-3.0246431365294484,2.499338887360409,-1.2904726796659816,-3.44946298884679,-1.9401234535625917
2.088,5.636013788547189,-3.2290909177490903,6.503521011182329,-1.5117563464355044,6.7424920083974484,-2.869153207828276,1.0898347732177172,-1.6455323132272497
2.092,5.439673226225295,-0.525760230434571,9.40023721591865,0.561104211060865,9.933366104485458,-4.35880958265443,4.698693832461686,-1.7750491590436468
2.096,4.734492206059258,1.5520208736315908,11.498959637737698,2.5961977020997438,11.798647667708337,-5.286147382633317,6.472136946940282,-1.9728026796619815
2.1,3.615598399130249,2.340889408921157,12.404493510756993,3.8960570903759617,12.409950434943312,-5.549121675995593,6.0117318870688905,-2.1304911994377562
2.104,2.316797755425796,1.8223992515295322,11.874784249693676,4.0025377904098605,12.023341836457803,-5.431534166265919,3.6014084439634644,-2.4743111644872897
2.108,1.0370257934209803,0.5953542131978793,9.98387287073092,2.945060606885818,10.928310742574013,-5.384631024751798,0.15311830231848944,-3.414979879259363
2.112,-0.14709230721018685,-0.4441955943998437,7.201899382589318,1.2650914941168594,9.408169239773542,-5.713896984374514,-3.0866664501718333,-5.229220134619936
2.116,-1.2112369122801283,-0.538586563519857,4.311117629114051,-0.2153732541851241,7.788140629732197,-6.35831975318888,-4.9773573255988595,-7.745713753536165
2.12,-2.0236153369496606,0.6120988835623393,2.178430078288102,-0.7728595439671153,6.478858132725918,-6.906141240679062,-4.899409002865923,-10.247775460982439
2.124,-2.2530080775247825,2.7710005908620587,1.4498033838214042,-0.13060245279712035,5.897625515620348,-6.839996109096774,-2.963046963243414,-11.694807618104733
2.128,-1.4732659045707805,5.318728961050965,2.296112479558815,1.4074942398679013,6.266411213055562,-5.867188799457836,0.08031458551886317,-11.197731311818188
2.132,0.5409577046666527,7.523385825493278,4.31802692112899,3.0925760779664415,7.392141758602065,-4.136018836446965,3.167109477552458,-8.523819830797947
2.136,3.4979664925490397,8.773614070874828,6.65852427853406,4.062368554717068,8.591374522495244,-2.203841509205631,5.338982640786526,-4.348381311000821
2.14,6.514329266248296,8.729619089154767,8.316587786071295,3.7290899735753555,8.903555559077176,-0.7621956325501742,6.080193603537737,-0.0698992433924559
2.144,8.405697033862907,7.368131158237247,8.53219744813623,2.035229058908044,7.531263552510836,-0.2648968262383278,5.437080341890123,2.780955713076537
2.148,8.254332548669254,4.970973765924555,7.101428246495743,-0.5241412157452032,4.315133241580952,-0.6732579548342983,3.9067512791598347,3.2620742202034307
2.152,5.9548109473782915,2.0871465915770386,4.485689924885719,-3.1177118957166385,-0.027762551189994156,-1.469886483873779,2.183396603923029,1.494431400247322
2.156,2.3938647435820712,-0.5632121655535229,1.642458810632661,-4.933804696963762,-4.0979554299599386,-1.9398007518348095,0.8850016413312005,-1.3786276737864682
2.16,-0.8875600672099608,-2.241875117549398,-0.3417728319265052,-5.501015155154619,-6.372625398081823,-1.5702165651709947,0.37475354805292227,-3.758343856056854
2.164,-2.4280121305559987,-2.415058498288545,-0.6847795879101568,-4.85367458343012,-5.896479486426983,-0.3433460322003157,0.7092725988948132,-4.405613174197242
2.168,-1.5854031149333423,-0.9589759756977401,0.788455396614836,-3.4640142160733376,-2.7396028934390415,1.2379311891922953,1.6960268885090954,-3.0843475486271927
2.172,1.1418236421736765,1.7720507260194154,3.604736268640295,-1.9816399187034222,2.032884897527083,2.4100049510211647,3.003240035922772,-0.6855563746805728
2.176,4.397644701471108,5.069302092431371,6.860945846977529,-0.9181338910411796,6.859553347846827,2.556812392522261,4.270390034414049,1.2437912443119785
2.18,6.707447781101109,8.173357746209149,9.606830771400837,-0.41833718731231784,10.409112631098992,1.537377752575594,5.1879642548237825,1.3203055694762043
2.184,7.258016980494176,10.598629441512458,11.208026913515027,-0.23016963483723885,12.142978369719572,-0.229816700329593,5.553397073018459,-0.9269465342167678
2.188,6.290994170559088,12.314426824149905,11.541401386717553,0.1239676021282321,12.43601037791575,-1.9691375141710523,5.309019194668508,-4.776039482180522
2.192,4.897445062710176,13.68656207051663,10.95601584259748,1.0630349102921173,12.22869711491603,-2.920031774790459,4.551253960275062,-8.649850276832012
2.196,4.349187381964839,15.185568863940262,10.039116696499377,2.69301496310095,12.42087226974229,-2.6721218678412697,3.5004629643299268,-10.88070591069436
2.2,5.371489185341261,17.036653295133647,9.320988326283668,4.716865561711984,13.363901461870682,-1.306398207852908,2.427118574049473,-10.515880988639083
2.204,7.753991096760274,18.991250769486214,9.032285358840909,6.543130718213888,14.692454831675377,0.7067569596292742,1.5257984130903424,-7.762934488822225
2.208,10.503982537984939,20.37601712283424,9.026759523267401,7.555750639302005,15.567959467042442,2.770699346802303,0.8049877392350027,-3.8667321235385543
2.212,12.408934021163304,20.413952311302523,8.886236492554872,7.408935143674171,15.169936793382817,4.422209346727641,0.06291569141353648,-0.5204251626325913
2.216,12.658789986956663,18.633004880308818,8.12588964087081,6.193527631855886,13.13369366782399,5.4607749096592215,-1.0273554611796953,0.880357022218277
2.22,11.213893937453008,15.185641125179927,6.44579654170019,4.427545794596426,9.74590424624796,5.923336372631184,-2.718903739510779,-0.20175905420865092
2.224,8.749129834009864,10.893166838950492,3.91402009542486,2.8648106270914013,5.82431722340516,5.964591523766103,-4.963490208773237,-3.2903831062365043
2.228,6.265157812302959,6.985160756227401,1.0158658305961126,2.2171283474974643,2.398871222643038,5.745246499798213,-7.280283030158216,-7.15641356335459
2.232,4.613785176707665,4.654832715885959,-1.4598646537160676,2.902900635494916,0.36906772288557477,5.387573808281786,-8.838510871901917,-10.338546512314224
2.236,4.182244617662263,4.603303298329365,-2.691572089357976,4.90725576622026,0.25531602433022726,4.998621032902292,-8.783748528420801,-11.68615304705827
2.24,4.86474510072901,6.783528129225715,-2.1446440142095753,7.810339807370497,2.115666820382387,4.704806679076,-6.672965360839044,-10.718173595292683
2.244,6.237937843900227,10.410992031219166,0.16376461519558916,10.93159424024418,5.563122018483227,4.631108230068094,-2.8108778782946047,-7.708234002926247
2.248,7.792654624229499,14.236682392553803,3.596316648511106,13.545162756670607,9.84451092525751,4.825070909992064,1.7227679176834272,-3.5193098315057796
2.2520000000000002,9.115354606704614,16.99226003445301,7.098554086549484,15.111197070236926,13.9896407110229,5.191542122843657,5.458478281602083,0.7333353291409139
2.2560000000000002,9.978429767914577,17.82604762272831,9.61863527285226,15.447407107743174,17.035001857915915,5.513571311204942,7.2102924945289715,4.0747570333733165
2.2600000000000002,10.362585126933254,16.580934517107607,10.56789894144265,14.788640577513206,18.308886469914682,5.5708164352017775,6.7150899017276515,5.981930542448936
2.2640000000000002,10.439298722784997,13.796988138706524,10.071491671487252,13.690416193416013,17.664311719656894,5.298582538128585,4.8681766993017845,6.515134600558042
2.2680000000000002,10.532766181537681,10.4621900201995,8.875743773914223,12.811292249354779,15.548473178392953,4.889408674392826,3.3745402387130525,6.217739891806275
2.2720000000000002,11.02332909163681,7.609164247240869,7.930276074110054,12.629453345306274,12.822781098003588,4.734755056110998,3.9159207414309094,5.815767323815692
2.2760000000000002,12.151181338096933,5.88525258138975,7.830212081175233,13.18947166107705,10.346341788647123,5.204117626292145,7.218848438336863,5.837786686207096
2.2800000000000002,13.829394989066827,5.325996365946139,8.45896582163303,14.037310172846446,8.552846333324283,6.387518234158733,12.548701333778126,6.342788726029994
2.2840000000000003,15.576621816766249,5.416817891577239,9.036475695354227,14.398485671532399,7.250358290214308,7.97047892164926,17.952817803799462,6.9156280533374
2.2880000000000003,16.661986542112004,5.406936131021041,8.575792295159204,13.551878904346268,5.790037672187225,9.344344991060552,21.18671163618683,6.951624284200477
2.2920000000000003,16.45662770198976,4.7343602436423,6.5215905280839195,11.238019998796801,3.55243625247806,9.919267470032878,20.87618143760818,6.092819884514142
2.2960000000000003,14.80927376002802,3.315294436654483,3.1780779087871736,7.874680099622367,0.4437670204481776,9.46359942222557,17.26330822148509,4.550057865214455
2.3000000000000003,12.224295368505125,1.5556171263514784,-0.3397722608334277,4.438485499369278,-2.9076291149224573,8.25802134524099,12.093359118174874,3.0799756448790276
2.3040000000000003,9.664543075904362,0.04367602487610611,-2.6742987234842133,2.0131311284185927,-5.4574996680925665,6.947937047593655,7.648060350192736,2.570771748378519
2.308,8.033761801807259,-0.8982208147162396,-3.021073951461716,1.2095395411296863,-6.422292596813861,6.152353436310818,5.42487159750641,3.42438724924682
2.312,7.6187832141977765,-1.517220179429387,-1.6901941387610862,1.768386759866189,-5.923130835473273,6.049470558138523,5.207519772487785,5.094618295516796
2.316,7.820970383863482,-2.5900637165674993,-0.08435069212276858,2.5805216686276253,-5.174267747218721,6.19972357668712,5.092796540978043,6.117687711819826
2.32,7.405539698098039,-4.9964779604840714,-0.024625540867333484,2.190688017968,-5.987170077077735,5.751518559980582,2.536395716797415,4.727041323610308
2.324,5.201868928616079,-9.118345693425567,-2.7496478282398016,-0.4363195679643468,-9.780994205755064,3.953263755516332,-4.11065665230592,-0.1859993449102717
2.328,0.8904668588613163,-14.404841550824756,-8.117031218893118,-5.2673089453940065,-16.615263959955996,0.6936091084155578,-14.421444432940802,-8.260635609708117
2.332,-4.585142049126603,-19.386855743141382,-14.452641215273161,-11.02745649123574,-24.81050320201689,-3.25033613871949,-25.74187736906265,-17.4786412878467
2.336,-9.280629803662748,-22.20707963126017,-19.177538404202153,-15.644945478099885,-31.46160462246803,-6.426771322476725,-34.21020835320769,-24.78933292712793
2.34,-11.12721897511068,-21.44228728965828,-19.939772544846846,-17.144739529886692,-33.66556488739633,-7.32579256073177,-36.471054956988496,-27.341123804889207
2.344,-8.99933418060823,-16.83096584108398,-15.723056770942435,-14.592868712858262,-29.906311863051087,-5.103549192265518,-31.225592646665177,-23.755627770605088
2.348,-3.3893495729980714,-9.51146351020617,-7.365385644865569,-8.609282196154595,-20.879527160027635,-0.04170718789600869,-19.838676971992754,-14.81748683571658
2.352,3.703926399262059,-1.6161007409410786,2.769880865341861,-1.1808214876593865,-9.312141644334645,6.497803769801521,-5.736364262715597,-3.230707360272959
2.356,9.654300964857498,4.585751248712199,11.794170409503067,5.148366118124727,1.1395449733851137,12.614698370950919,7.063719002825451,7.474309237562693
2.36,12.436562311610487,7.614916867578586,17.4960038332257,8.352602001365426,7.405385797320378,16.65002558259289,15.550800135399754,14.379812621839108
2.364,11.537731220516775,7.302725664817899,19.15102926109745,7.731139135103035,8.173635399155444,17.82351085557798,18.699315508260042,16.29258976580485
2.368,8.094707564045507,4.684282862105533,17.599562884102795,4.0860234858359945,4.202783399105215,16.444839224837324,17.461717816203986,14.031566757791495
2.372,4.204345921354161,1.365511162492794,14.617018417466454,-0.7810210684855292,-2.2847743544294303,13.640119981660973,13.927329208058723,9.816003303497155
2.376,1.7888739304927412,-1.2851279748033448,11.938792687203943,-4.973529180575156,-8.756875257435922,10.76495048926563,10.180031125283563,6.112696204173062
2.38,1.6453191443783908,-2.684204710842664,10.45712633432737,-7.335690265913399,-13.441534125549595,8.810403641197354,7.4508063820659345,4.524642359654024
2.384,3.1786700074273995,-3.086064885894075,9.949404720693167,-7.82477172456197,-15.832298034878136,8.0804856916659,5.899997133235161,5.239437304742125
2.388,4.915728977855338,-3.177233018254583,9.428702240905864,-7.27175903150453,-16.47803540937491,8.24326842129858,4.986002366439038,7.2278518086448
2.392,5.468202471877248,-3.4942883650893464,7.882991326002241,-6.715980830244007,-16.288403239888623,8.663926853530711,4.09953472514826,9.00660991573659
2.396,4.373678521071383,-4.032885804819216,4.969501902311492,-6.71912451594153,-15.830888770261595,8.809963643799847,3.070338140184276,9.518768094696782
2.4,2.338736247059046,-4.260402062501498,1.2949931831315666,-7.037922204427446,-15.008451271523313,8.510847546984223,2.286277646854842,8.667097351803477
2.404,0.7728553380873109,-3.51028575252667,-1.8689850247493496,-6.8279476830258545,-13.263825899188078,7.965361670939274,2.4184811776880224,7.267976181305926
2.408,0.9268850771694588,-1.4810129823650868,-3.250852807794729,-5.222727807175602,-10.106207657777588,7.541397699428444,3.969766633854306,6.515148271336216
2.412,3.1538528705575573,1.4843694596439718,-2.2621583399391625,-1.936327790177188,-5.591501268345439,7.508088155383575,6.909945631845403,7.281428900553465
2.416,6.708052229939881,4.505650742074522,0.6512745683503454,2.4618115742777036,-0.46966288504734166,7.860277732157556,10.580259473696856,9.635489372621123
2.42,10.179297975021996,6.622620088168787,4.199140415980196,6.771155156190389,4.111193501722994,8.319126790346445,13.917566945517137,12.803546916125924
2.424,12.259618844104693,7.300345286975357,6.841033483993385,9.732690021280519,7.1439440548821835,8.485929074603973,15.877919075512295,15.56071262946466
2.428,12.384593077001,6.689533124591094,7.475132888958058,10.629391225252903,8.233596751685127,8.057262909557721,15.872520153650498,16.817950988482153
2.432,10.907916489207423,5.504429149102407,5.887553663401945,9.58653241640809,7.754337062254649,6.991019353108413,14.02892186162751,16.09740468159839
2.436,8.745046113964122,4.575427205402548,2.7341929878778046,7.410126657126966,6.596055217919286,5.538370186153998,11.148486860399771,13.67221344061727
2.44,6.75483634313855,4.363453926955799,-0.8854583410097234,5.08568521127745,5.663786179380963,4.131746745933697,8.366988074485334,10.340120207917721
2.444,5.259752173392599,4.711342714045486,-4.00845874838933,3.2393230114446396,5.394916066985047,3.1888911030248437,6.653477907236038,6.993725581778676
2.448,3.9989011625752937,4.986640134152935,-6.198540400654508,1.89410949474086,5.576107962892593,2.933153053666274,6.38867954031889,4.238069252907962
2.452,2.502598803123078,4.523442169883992,-7.5598065153073435,0.6429734525220283,5.556791938827018,3.3069936514916662,7.216788362472926,2.243991605461474
2.456,0.5932896741256855,3.081515179712028,-8.4329077789763,-0.9066018365583659,4.719828051133732,4.017125894678429,8.25162627172972,0.8757667482115039
2.46,-1.330135632512679,1.061687780452985,-8.996989951011244,-2.7020330414136424,2.9552848602580752,4.684471084476854,8.559282317076622,-0.03283200057592239
2.464,-2.441192913806958,-0.67456488005746,-9.079993439134512,-4.132480483622658,0.8422229648423354,5.023068492384937,7.671839075363778,-0.44572236978103774
2.468,-1.990728803588354,-1.2758653343576043,-8.312654610559434,-4.327717788600239,-0.5803845140910653,4.960305103022165,5.853413578654909,-0.09757514257807998
2.472,0.1507608431868448,-0.37820652278207945,-6.518092910292637,-2.6954280108927833,-0.34209389648549404,4.643259410249584,3.9580847905845076,1.3085145618636034
2.476,3.250710523541443,1.6623598564166286,-4.069983370814327,0.6225616076735605,1.8866590310462925,4.326108845750468,2.9279173836641803,3.8100317434694944
2.48,5.954923837336196,3.9303071986516898,-1.9126246280756618,4.686384229406713,5.523421692230727,4.206093978020817,3.2196199800221166,7.004758602536413
2.484,6.912045911001542,5.40195028493838,-1.1671971842354765,8.150248452868027,9.270635826788407,4.304349802722072,4.498156352205797,10.124957942307901
2.488,5.454496413043103,5.440792650963317,-2.5001192187983747,9.920846625118429,11.712668874481437,4.458228224322056,5.79457955491057,12.352536377928914
2.492,1.949808290170722,4.066617253811955,-5.628125974677403,9.704124652331757,12.022402870333735,4.42984883003578,6.0497052376993,13.20568367768044
2.496,-2.3650128729591415,1.857912024485131,-9.31298828617264,8.123568738105178,10.38492100921951,4.067455876516078,4.74533729625864,12.773732252037462
2.5,-5.967562873351881,-0.40958934854620566,-11.903670807153844,6.34645304802666,7.912019561658099,3.4195081752523038,2.248171664736674,11.649600573662724
2.504,-7.761730133876654,-2.1866314458322904,-12.183565906567082,5.40527821226533,6.0491347786432925,2.7196577145687115,-0.36648525877353677,10.584062237476815
2.508,-7.536237546762322,-3.3763973428265217,-10.044601101204648,5.613024912671335,5.7852652097504915,2.2402000426113773,-1.9142625684262384,10.058258084566432
2.512,-5.96886651864088,-4.2496707497330135,-6.585466975801296,6.401942911178594,7.098048282577338,2.1016201634201934,-1.7825439523605837,10.01711884679014
2.516,-4.204265710677646,-5.142641587898652,-3.5451764279829376,6.682679515782866,8.945806116386166,2.161095512330121,-0.28771747184600827,9.933199720438438
2.52,-3.2341753384819185,-6.11879618967464,-2.3453988189321535,5.540020359992468,9.853883806950194,2.064161227214754,1.512673604499696,9.175968667172924
2.524,-3.4220453097925656,-6.841927643866256,-3.2972964104826588,2.848766207048584,8.763253675279543,1.444931312645167,2.4371168733946433,7.4642525671783915
2.528,-4.383906562776474,-6.733980222612445,-5.415782654736631,-0.5286204913427355,5.6893187164828305,0.17173156296303205,1.8686288044152661,5.128216489125407
2.532,-5.2554099450160265,-5.321884669803239,-6.962980777019425,-3.0934555003141213,1.8206337924724494,-1.5122282908605484,0.11913499941351802,3.008603068200614
2.536,-5.214699035419017,-2.5959726210121516,-6.449981976651202,-3.461279006227187,-1.0561052000708742,-3.0680338937149827,-1.758571131065537,2.027331164456882
2.54,-3.9683786495245386,0.8572706010795628,-3.507630720734028,-1.1036680538602468,-1.482021894551849,-3.932514172918218,-2.598141009530991,2.665015625300498
2.544,-1.9680469252689363,4.020300709221829,0.8520299159007436,3.291660318808681,0.8713144959513102,-3.835786682703656,-1.8169875769488044,4.647864716325557
2.548,-0.2523820086723845,5.839817875079916,4.73022750816267,8.040340927968145,4.958370772237799,-2.9797386418467795,0.21751960303254236,7.035148561722167
2.552,0.007858056473196484,5.653436505865329,6.312957744301116,11.157730670716319,8.82581589692552,-1.9575025302460745,2.3609312528251394,8.670993173775287
2.556,-1.9463138057724336,3.4343669716954537,4.774634090792915,11.201962144016989,10.533806519050927,-1.4361528725498829,3.30786230779745,8.76896463203957
2.56,-6.066676854332627,-0.23510601878160742,0.6419980009106894,7.885799073170347,9.073326121279933,-1.7681650011054444,2.30971601592546,7.317550558970993
2.564,-11.435450139096702,-4.433729763768952,-4.553692763893878,2.181080464395791,4.803328647095782,-2.753292545720342,-0.40712713050811544,5.090923999253619
2.568,-16.581385534247374,-8.261402946136513,-9.092255915971577,-4.109032547821926,-0.7876984406606198,-3.7155669612234306,-3.738142627759771,3.264525843654269
2.572,-20.037654804922795,-11.104539182871122,-11.854640778620933,-9.093090113399512,-5.814747458362717,-3.866110179430507,-6.229157603327167,2.8543828778458646
2.576,-20.91909724572497,-12.743121635209945,-12.699419134212917,-11.533401444452238,-8.85229673964227,-2.7664715298610645,-6.759578478837511,4.263914662846219
2.58,-19.244126269089065,-13.274422270431614,-12.259887495610883,-11.255253748001905,-9.453035991352749,-0.6381755639254152,-5.032537964639232,7.150418146627317
2.584,-15.858935919198302,-12.949892134018228,-11.376836579882138,-9.07671532841573,-8.128696148028894,1.6810148425274747,-1.6429414260096564,10.650701438608621
2.588,-12.001892116064028,-12.027209885828597,-10.550913528640535,-6.3240777508692645,-5.879376442665489,3.1357834108966927,2.273065626909329,13.813725905627507
2.592,-8.707953329904512,-10.697314477913324,-9.732970442695432,-4.17344875540698,-3.5831836433196713,2.9973351145135894,5.580381928268707,15.99615531662721
2.596,-6.354105417498658,-9.110518081612554,-8.54761662714975,-3.133297679855559,-1.6199018255140345,1.2653132508035014,7.597750090433237,17.037189868798123
2.6,-4.565922738156814,-7.431036656926381,-6.731693804662314,-2.8870061944930967,0.1145408054658219,-1.2995866159135403,8.262624668747321,17.168028590800304
2.604,-2.526927736482776,-5.865314693897517,-4.471261754015018,-2.5557252001531197,1.8711368683021874,-3.5413836075240397,7.979647126994223,16.76823524070005
2.608,0.463990781728171,-4.637626691487867,-2.4055601608719144,-1.2377524627654566,3.643832322291928,-4.487053977959931,7.285975400392999,16.12554517870717
2.612,4.499132041329631,-3.910752154258489,-1.28346917719648,1.4613695950965848,5.000431351691077,-3.830643428186704,6.542086683987236,15.326182249978729
2.616,8.907251039231369,-3.7069312628466378,-1.5029958444968088,5.171174424831406,5.2555043267042265,-2.0684923976600658,5.807639275022666,14.305190395851923
2.62,12.527653956966105,-3.8666702359419105,-2.824329236510266,8.904230879582428,3.8967648519083014,-0.22132345833324507,4.931073583979014,12.969866728705028
2.624,14.276216847900969,-4.080608889495807,-4.441254737942813,11.529319282010874,1.0042477085783048,0.7004621361156751,3.7574705851193357,11.300675276551374
2.628,13.712788206447385,-3.9926483225713127,-5.365126775947488,12.337766826435654,-2.59864160929601,0.199758082176686,2.3097949403268103,9.375574600961272
2.632,11.308678064267951,-3.337919052862844,-4.8993735444066715,11.397680610428779,-5.58165738436378,-1.4941365320678415,0.8318881089771821,7.336508135218764
2.636,8.256248794156363,-2.077823235525102,-2.9559068060767686,9.500687088014274,-6.665593042317141,-3.6003528298679157,-0.3306482482666979,5.348905162602705
2.64,5.9170596077885875,-0.45960789261266655,-0.03943541888202162,7.745562303619408,-5.216216084079633,-5.22621151155181,-0.9215057161095501,3.6012763885062213
2.644,5.199025800627851,1.0191253314192181,3.046080282088269,6.9737175504069455,-1.585045730219008,-5.817335748155529,-0.9146970762103592,2.3334947919618116
2.648,6.178220633863248,1.7556435427995893,5.575612657669467,7.367204490870336,2.9763234746567377,-5.382283912280855,-0.5289960780041838,1.8308062548239832
2.652,8.141399676748733,1.258701834606427,7.1604770378039575,8.41803323123122,6.811778969691204,-4.396318629866073,-0.11416270579411503,2.3320198195353896
2.656,9.981662600758455,-0.6647232954087485,7.763420379516447,9.256692112099245,8.527202974222064,-3.4775895652487634,0.015013584299595095,3.8605209865240795
2.66,10.734593887489154,-3.8098515467129346,7.53019104687462,9.151045456816064,7.538005622274568,-3.0490435894721486,-0.3149769254146122,6.064988239565309
2.664,9.982351297941932,-7.612846206709037,6.586899006824524,7.892305295238657,4.257019181936812,-3.1693540667138222,-1.1341271420128578,8.21563735091263
2.668,7.956485523574884,-11.312409103423988,4.966488622413635,5.86707866525694,-0.13661332386050162,-3.6026692277332586,-2.403873495071366,9.427425619871428
2.672,5.3433497001283285,-14.157987920839787,2.7206715545497673,3.812972041325338,-4.207060593624419,-4.044132503603123,-4.079059536101795,9.056579385964596
2.676,2.9311873887354523,-15.601255403717232,0.09965222177277155,2.4218375511686645,-6.831680791264489,-4.336502640369417,-6.09390624233265,7.082670047565671
2.68,1.3100855747575224,-15.381698803322024,-2.3324691951374916,2.0418305855773724,-7.558895047917531,-4.537084874130869,-8.266021235205244,4.2449346658963805
2.684,0.7481873981416811,-13.501449242704439,-3.773971595760031,2.6245071857383664,-6.622336792990609,-4.807906344295134,-10.20821426555949,1.8139184943288456
2.688,1.2333519007888754,-10.15533025377249,-3.471382985326045,3.893852961364246,-4.6669327919426,-5.235713506940556,-11.351710451521285,1.0514979835556915
2.692,2.574804250773468,-5.673173494105868,-1.083965002089144,5.5754096884834325,-2.353041049559806,-5.720121127161292,-11.128354491324444,2.6055784221537124
2.696,4.46782707602415,-0.5131327531828447,3.0646650172777754,7.503614995714997,-0.06603558304550461,-6.018362366748988,-9.252237637032977,6.168414330140195
2.7,6.5032587283467365,4.734585676915685,8.013765320218454,9.555914938862315,2.1548530457928337,-5.91994383529709,-5.928325238315665,10.604669215341573
2.704,8.152108702654004,9.371287502247469,12.473948542609605,11.474074150407432,4.4528085581407595,-5.436462370120353,-1.8530970353599514,14.499468175123411
2.708,8.810848365946185,12.687326676440989,15.283238288090388,12.75003970504531,6.873412317716884,-4.863162230310081,2.021409603432403,16.847391569672027
2.712,7.964773903804144,14.150445625996781,15.817865932468749,12.734495764607345,9.170450287426092,-4.63957522835517,4.871688137491219,17.522904510258968
2.716,5.418274915045458,13.599747875817684,14.1749350099617,10.94939347693753,10.8080736406082,-5.075327798476792,6.334784694813152,17.277434986911658
2.72,1.4700628322157172,11.346446501738228,11.069896211670084,7.437487945303019,11.174757253310418,-6.107457124023313,6.6077130598318945,17.266112065338575
2.724,-3.091527814833171,8.095608270136381,7.5133078947055765,2.907748111078945,9.880345605823322,-7.249273409302987,6.257183129454916,18.37306583723307
2.728,-7.210196569068557,4.7085193612501826,4.436791189433052,-1.439629449066615,6.981341857716643,-7.786836134136138,5.865481631747116,20.72158194404983
2.732,-9.917840757518661,1.9112364963225446,2.428934488756795,-4.358518261720292,3.022781562371847,-7.13132129346468,5.731540661256531,23.632527884417414
2.736,-10.682719747525653,0.06345578489936088,1.6462203394802373,-5.07393440535634,-1.1461233029521054,-5.14719537668725,5.800480015073845,26.031845486886823
2.74,-9.583377455401205,-0.8875947941050981,1.9042695057379433,-3.584900233292501,-4.671850215921495,-2.269263040609985,5.8416423804424085,27.044527357092875
2.744,-7.226311558499901,-1.2646407406625713,2.849266603939327,-0.6126591010365701,-6.97340157447718,0.6632594802522362,5.723609585632403,26.41796858730754
2.748,-4.460144166895361,-1.4175192904865526,4.1188287310226315,2.770467247963097,-7.873602706403858,2.7733056166925962,5.5813996488741395,24.542518473466544
2.7520000000000002,-2.0175575631237734,-1.4957929504871572,5.451429515704376,5.645088373668841,-7.524765217957679,3.535223133533691,5.752477195260781,22.10230727357066
2.7560000000000002,-0.24359034817211977,-1.3639600809146941,6.720924106365487,7.613092948625308,-6.2143158155220135,2.992791327557825,6.518259256068632,19.609677234951278
2.7600000000000002,0.9718491505425391,-0.6807068184775744,7.932918327031302,8.867499610370942,-4.164280463249611,1.6958739817719106,7.828512572002637,17.127542801781374
2.7640000000000002,2.05201978756304,0.9033388649941116,9.1921855440944,9.970235493221935,-1.443886608595676,0.40571544194472153,9.211895640763942,14.362418497276622
2.7680000000000002,3.462686325617142,3.530074434596827,10.64427093512063,11.483132006151664,1.9663516342243383,-0.2735784114224771,9.963732726638227,11.032396396636159
2.7720000000000002,5.444236034461937,7.013600995844172,12.393696258405726,13.654003513379394,6.021358495060667,-0.15076399695317377,9.516301533738442,7.235752008838745
2.7760000000000002,7.859892467304462,10.844512441960433,14.396199651235634,16.284770889311403,10.453257305485067,0.5312251699897388,7.757082067819738,3.5515750277663756
2.7800000000000002,10.225775696012533,14.336374708117091,16.404705606932566,18.819186994932352,14.745798904380763,1.2959214056936617,5.116537520505517,0.7798447101133661
2.7840000000000003,11.890622697635763,16.8322333664737,17.996963781797263,20.550983095291485,18.249978181321012,1.7237764412216166,2.350795435584587,-0.5357786344907254
2.7880000000000003,12.286860433503534,17.888968661180343,18.702105853514354,20.84467263881652,20.388950912608834,1.6750527565536686,0.15321224752824492,-0.49077145731644123
2.7920000000000003,11.156760647958208,17.39711814843008,18.20879270577177,19.303172439271748,20.870008907667625,1.3258642903479085,-1.160295885827054,0.15766187529402487
2.7960000000000003,8.664819335603397,15.590943384170032,16.54838943660593,15.856879517660218,19.784635911477153,1.0190778102946751,-1.7181954685029268,0.376525414843627
2.8000000000000003,5.359946052741179,12.963331896541149,14.161839143690372,10.792667348722262,17.569525127527868,1.030088459990111,-1.891874992956673,-0.5579551667551641
2.8040000000000003,2.01221582342464,10.11529567784737,11.783009926751106,4.727201767878341,14.847523951121957,1.4015808134786312,-1.9752269981436257,-2.605295389376579
2.8080000000000003,-0.6279905416456586,7.579739112357174,10.164840056485787,-1.4862993479523539,12.209132027094938,1.9372486862566802,-1.9562175797668715,-4.909064361469518
2.8120000000000003,-2.0592581024689025,5.680430877936487,9.766406919205679,-6.92593149216691,10.025566820889935,2.3461409972014735,-1.536477631228081,-6.1998598961613425
2.816,-2.164514221904028,4.458434565891139,10.53030350392487,-10.82652632608324,8.338343877400348,2.444635910670968,-0.3791080607097683,-5.435333261298865
2.82,-1.2053757593641876,3.712601919767849,11.886805828092974,-12.78800413396857,6.8756401172543065,2.286582773889222,1.602119734345706,-2.3327395572775913
2.824,0.30923931733309473,3.12864636385234,12.986988747953092,-12.881800508825108,5.171972100825201,2.1420233871413075,4.107594956110006,2.480835569370356
2.828,1.8243232938584697,2.4438253973464725,13.066947475526831,-11.584265188119616,2.7487693309915358,2.331411130045126,6.558825268527926,7.748159577621891
2.832,2.9319445195224034,1.57927577364444,11.79250274149615,-9.546976643719063,-0.6794383413306377,3.017183079861752,8.376310725741405,12.120004856119522
2.836,3.4968137767457392,0.6767085743081225,9.42424309139858,-7.296043255958921,-5.037702458510921,4.089912616592301,9.243768401587886,14.673033390908813
2.84,3.68037527673323,0.053287040496570626,6.755089740725452,-4.987931922110874,-9.799562918095717,5.224453736643227,9.212361662940111,15.166084034736286
2.844,3.8466059889215103,0.08608797860836148,4.8308150758615795,-2.3654056140461535,-14.039326635390807,6.0804054343128655,8.594464137183877,13.965597149344944
2.848,4.387243107095173,1.0709295792738658,4.55599565542542,1.0481199693581402,-16.657553972684184,6.520003885434107,7.732242509120397,11.74060923912839
2.852,5.533298874392358,3.1236324068620434,6.351116077690449,5.599984893385908,-16.72628025056565,6.700190432165073,6.814996057037206,9.125832840993553
2.856,7.2121908865590285,6.120993213857673,9.971237992782221,11.164763611234093,-13.860758919687441,6.959067329590198,5.862980588210121,6.529200739381167
2.86,9.020705406124534,9.710590162158724,14.571593841361164,17.000435177835243,-8.450068363085279,7.558554553556405,4.860499784893818,4.127713843814263
2.864,10.342433127659888,13.376873890220395,18.9945785812522,21.90005406103569,-1.6259146365431434,8.43887530052507,3.9086703123143707,1.985339559510976
2.868,10.588458082817851,16.541105652882607,22.17564804872802,24.609466307769253,5.057212572731146,9.143118642150966,3.2616017795010066,0.17545862474264595
2.872,9.490700499644845,18.698467960153494,23.526275670541395,24.35491288409594,10.14129885026432,8.999496935567095,3.1984105037740846,-1.1740970622684017
2.876,7.306259246200625,19.55122827330956,23.132709402031878,21.233447805880132,12.7649707755495,7.487859769468287,3.8078669680687653,-1.9238897725241486
2.88,4.813494703893184,19.10676082118607,21.687111984751596,16.26996876219323,12.930524766399799,4.590660007181668,4.8465940026505905,-2.0071616649813677
2.884,3.0357815950055738,17.674364877683956,20.141902228333038,11.059934233399417,11.385201439858179,0.9204075780885432,5.796520291123443,-1.4807317814888847
2.888,2.778468832806084,15.729220018683918,19.221549282494266,7.121779001983668,9.152605574146833,-2.4834972587382254,6.098458130367135,-0.5186724954984356
2.892,4.199098172294953,13.701375217262694,19.025390066504087,5.257128643659371,6.956806452457158,-4.605665641709038,5.437033255115466,0.6471388017536128
2.896,6.6362788477426875,11.771628498180007,18.91509786245365,5.226498943504566,4.8290486836867785,-4.91869427299298,3.9071624009825427,1.817051896428893
2.9,8.835178428620452,9.789010520658621,17.77546254438903,5.913148323609903,2.1165508227760483,-3.6192791264338666,1.9392409616716577,2.881928132485882
2.904,9.5101180536235,7.3695945226434105,14.552057373509342,5.92257203173358,-2.09268684685901,-1.4972122886536,0.02953056341652882,3.8331331529270756
2.908,7.996665672565541,4.1493676424709065,8.827859123344865,4.351299473376002,-8.334230852437486,0.49493540136177216,-1.5407645050211158,4.7380180639977425
2.912,4.660150910776906,0.08252708951476961,1.167433318042697,1.3349517106171334,-16.241757910674778,1.7340367094773228,-2.806722505414882,5.693941881784781
2.916,0.817814853934351,-4.398959973499359,-6.977353869458852,-1.936201606160921,-24.445913539860157,2.20459015043366,-3.9810385647942894,6.76618956980451
2.92,-1.818768989156979,-8.452907549916972,-13.759554557563888,-3.746253858304044,-30.96308351950256,2.4108037603823504,-5.172513528771788,7.926954655118493
2.924,-1.9437655877532052,-11.13195727669472,-17.622041485924456,-2.6972297415152298,-33.918456462875724,2.985003210258583,-6.175998815267803,9.014769857693977
2.928,0.7138629761864195,-11.777262990242548,-17.856131371560195,1.5630597378344646,-32.26927767046686,4.2264729276041635,-6.5113865479575,9.731546827758962
2.932,5.27256259620799,-10.281147387534475,-14.765534019837105,8.119925077559401,-26.17038276951746,5.857215837298554,-5.706764442772283,9.708131751071733
2.936,10.128735560326845,-7.116147249012556,-9.405253618373422,15.17112981981927,-16.849697716208084,7.145086238111844,-3.6689291573202354,8.647132481349672
2.94,13.720030434888258,-3.0994072285939183,-3.0380121050912976,20.82156758900146,-6.067689175304281,7.33114231883701,-0.8753517888310398,6.495990699212598
2.944,15.220076237391368,0.9701973356084181,3.387623965120895,23.881620473559906,4.5384809918506335,6.116824768738525,1.7897212074890376,3.5854775012420532
2.948,14.801563093408049,4.589825730385769,9.474919463458946,24.261120349920247,13.894640853992087,3.905473633237307,3.483140466966688,0.6368475633253183
2.952,13.367266208351907,7.613899160758706,15.247524481591938,22.789431626501255,21.546554190402446,1.63677128506788,3.8770529708604045,-1.422705825881735
2.956,11.942075894619961,10.087661911758687,20.76149273110036,20.610012451453258,27.38114370985437,0.30058406412194927,3.3635793385444686,-1.793187444045202
2.96,11.099073980885237,12.010547051095955,25.755943204881817,18.53801538442201,31.279110365770123,0.40139220414357624,2.840971894734821,-0.1566994823758705
2.964,10.743058596058631,13.19741963085346,29.560674276904365,16.73982712760437,32.95151303853157,1.691400564988271,3.1826495991037973,3.1220505870486477
2.968,10.33809721902196,13.34253454812665,31.334066992072394,14.876635969093627,32.073085393620545,3.3280530095380527,4.7019292710140235,7.0735005823288475
2.972,9.396655755454162,12.264125211845794,30.521810231586358,12.573089235377438,28.641501272734672,4.381989152416736,6.965515805869472,10.493569251927
2.976,7.878952628388902,10.129703436991008,27.241344629670266,9.847599783074315,23.272199985317172,4.404349566979363,9.085921667406751,12.45856469920227
2.98,6.2392848314653975,7.494082519380186,22.348987806064997,7.204106954649205,17.171990016049563,3.7009595398633337,10.308973859508114,12.73580505061409
2.984,5.085727279165212,5.065417755242606,17.09919194998247,5.309169808184265,11.708556155358679,3.1391568806304804,10.51690535617206,11.868952152669067
2.988,4.672154534187257,3.2929716152336823,12.54226529313587,4.460769786527067,7.751077341803978,3.575043395215971,10.281207055072969,10.856021046157139
2.992,4.571717974807598,2.0386923960491004,8.981454432176008,4.2227103870359315,5.150963337716064,5.220423276650308,10.395373062890712,10.556598583879008
2.996,3.7744348894959217,0.5467695548744587,5.7847673017033685,3.496277168290362,2.6860561972276855,7.332022876486008,11.162463447033247,11.123737068617686
3.0,1.1937086846883744,-2.1971460366497695,1.7097063190819313,1.0588917988400226,-1.3979195084654066,8.435332961768836,11.910682420058833,11.774380409607943
3.004,-3.6807113044924336,-6.866696268542,-4.384675173181563,-3.7029622424704485,-8.450223897541719,7.013916979281362,11.131762592938799,11.068084324537324
3.008,-10.341372480992845,-13.2678810082989,-12.774172863114927,-10.27271168277207,-18.524877546532935,2.326459363396907,7.267501101390508,7.602934215638072
3.012,-17.290554664189244,-20.174347627142367,-22.42973173755277,-17.01115783931698,-29.986836668973467,-5.074796919770733,-0.2397873489412632,0.8135213020892706
3.016,-22.566738006981154,-25.682248781007218,-31.177246031981156,-21.75224654061708,-39.888164028861866,-13.412531598852297,-10.238251222252416,-8.523883030064724
3.02,-24.517740647913797,-27.940132626663058,-36.42797461346771,-22.700437698705514,-44.993829338766375,-20.337947656400843,-19.95898482296002,-18.37121591130864
3.024,-22.447566795653415,-25.922011727500603,-36.19202926917518,-19.19473178345362,-43.04331069592277,-23.86758761211445,-25.976418832265892,-26.10323723701066
