Timestamp,O1,Oz,O2,PO3,PO4,TP7,TP8,Fz
0.0,2.3021584638627246e-12,-2.1458390619955026e-12,-2.7284841053187847e-12,-5.144329406903125e-12,6.679101716144942e-13,-5.542233338928781e-13,1.6200374375330284e-12,-4.867217739956686e-13
0.004,-28.904398907582845,-31.823591595615426,-27.2263959748705,-26.261726767187156,-19.90782327959758,-16.457698500411666,-17.973771770859592,1.7826450809412684
0.008,-49.77190869894028,-55.12401871641539,-47.153286929322604,-45.500583877045756,-34.53884064962409,-28.547488449926945,-30.251527744636512,3.6050311486156588
0.012,-58.25219809557184,-65.19565904537798,-55.75944694339516,-53.8496921646784,-41.15863398011979,-33.883502283348435,-33.787418302849176,5.458726255242251
0.016,-55.47920826334219,-63.03783870517526,-53.93690806448552,-52.14973014507737,-40.763581194627164,-33.009321709732404,-29.457490941304904,7.255015861550952
0.02,-47.09229015284102,-54.4022350211561,-46.68644981065239,-45.13377959109002,-37.29103412142281,-28.834661481335345,-21.339883569931096,8.843965523837973
0.024,-40.06627068973074,-46.568506388864975,-40.34692918820603,-38.7481955042542,-35.31148911786826,-24.93349942480836,-14.42221306957289,10.08082368121855
0.028,-39.113744053695996,-44.622582772425645,-39.353896584535036,-37.09511668617871,-37.49880746380076,-23.690026810997097,-12.00492294736351,10.930512370177116
0.032,-44.59294351169535,-49.21930434886434,-44.239535728245585,-40.63712069965503,-43.28380217046912,-25.31594233567435,-14.208732918620974,11.552361989329576
0.036000000000000004,-52.922877281063634,-56.89487068647652,-51.845963906517696,-46.52465174153035,-49.396017976444355,-28.201701963758026,-18.31711423868571,12.273043616716283
0.04,-59.0669968834343,-62.53402535502677,-57.454654390708015,-50.66652673602616,-51.895637383268756,-30.24586542578949,-20.626180023685805,13.430731001916957
0.044,-59.51553265753809,-62.41815935020847,-57.52414332354945,-50.22517219110067,-48.47108723057061,-30.264252315568797,-18.660920046015992,15.138078600128601
0.048,-54.09175294516736,-56.15698818000512,-51.528362412348514,-45.12739471117929,-39.728637508883104,-28.63113611331289,-12.52705151213344,17.092975717286222
0.052000000000000005,-45.71316332131589,-46.58124252202368,-42.00287014687076,-37.85677244629299,-28.817925069782348,-26.85752051329021,-4.732221927453338,18.597067678377904
0.056,-38.45791070446701,-37.877807884033174,-32.9449347796204,-31.830927980454632,-19.700110584777285,-26.480876091960063,1.2866746660429413,18.8299937791701
0.06,-35.18760370008883,-33.18459752444489,-27.581519605838622,-29.409759076450726,-15.091336534619963,-28.01801654538322,3.03109633457548,17.28821292134739
0.064,-36.08247068276907,-33.000857774017156,-26.749869458307444,-30.67336425243586,-15.200813406691331,-30.621702458395028,0.18054553822573638,14.149962922766452
0.068,-38.84303791015914,-35.23282851133353,-28.730203079227394,-33.603265614318516,-17.90231788702672,-32.6337267579325,-5.417957229503397,10.323398889123418
0.07200000000000001,-40.31275686102768,-36.71480108454073,-30.527324149071347,-35.4597291135091,-20.150920099232906,-32.66761513842154,-10.911507533557685,7.089659046765576
0.076,-38.47170091701817,-35.209343900625456,-29.770881202375435,-34.47002752652742,-19.768566971541418,-30.528672854574737,-14.021037199773403,5.498219815600908
0.08,-33.602777657657825,-30.695054212992375,-26.10513363602115,-30.821139359553854,-16.57288042659264,-27.381294474733117,-14.143100674301479,5.844049500346788
0.084,-27.986445192633198,-25.217413126059384,-21.297998411509653,-26.419496221654214,-12.265622340812975,-25.05660608479313,-12.41742761568321,7.518417805272371
0.088,-24.430424738840415,-21.52838164556728,-18.110455709582354,-23.662072526659287,-9.28473853140109,-24.9484152658313,-10.84074584153366,9.340989112068758
0.092,-24.59758475400362,-21.41519950781634,-18.663526918678002,-24.018774555967823,-9.374709213370352,-27.169599295178386,-11.047440135987245,10.211669861235787
0.096,-28.12661914067401,-24.70816071240443,-23.25682132281601,-27.25773612985303,-12.707932900091294,-30.47503133083063,-13.444146021210507,9.730279628180858
0.1,-33.00012593971739,-29.499072557051157,-30.27988101222296,-31.70189651630406,-18.003323614089126,-32.98598653214763,-17.135596812372263,8.420139748212518
0.10400000000000001,-36.808473899695485,-33.30262856465053,-37.153728457143586,-35.24991446252275,-23.42596419023075,-33.258220349033074,-20.5600870801995,7.4124125729108705
0.108,-38.0915502881885,-34.41319634286438,-41.69148105643296,-36.49850325558718,-27.637150514160396,-31.057652046028146,-22.382835411756034,7.79832170569129
0.112,-36.991649874227164,-32.696224625097614,-43.11092863869844,-35.341747987041515,-30.372293791141452,-27.424958054594505,-22.125687197263147,10.028458354605
0.116,-34.95397672512557,-29.463564601350434,-42.20497626378592,-32.81195928440738,-32.274918256249606,-24.044324412317593,-20.256438104108177,13.689358769820442
0.12,-33.7313448792728,-26.58947222405169,-40.65373123188985,-30.334368041863854,-34.178611142195685,-22.2892296408751,-17.754303820795926,17.770339983738435
0.124,-34.2965238235182,-25.38867310474138,-39.9085810857706,-28.86179315158317,-36.329878160828734,-22.473139112480354,-15.439529530731548,21.2331371270376
0.128,-36.3058339382965,-25.922252242977912,-40.32754830235413,-28.39986515139003,-38.07781138344954,-23.716489035229493,-13.491448919399396,23.516422255656657
0.132,-38.38812312206435,-27.10290323973326,-41.047973723913145,-28.161085208483925,-38.22323160806037,-24.491890691136987,-11.45005609659416,24.67831822000327
0.136,-39.04932095031692,-27.491416831420214,-40.62983526486097,-27.21002065995154,-35.80629738873744,-23.534330463649546,-8.672668058837285,25.126839826596722
0.14,-37.600860219877,-26.26296560999568,-38.03972679424796,-25.15536583847816,-30.824610360870338,-20.594756919122908,-4.94642729141075,25.153868997034778
0.14400000000000002,-34.52743423726741,-23.713094282326168,-33.34010388671739,-22.43346620357805,-24.40084393533776,-16.616049525863048,-0.8494529843611183,24.611668404272645
0.148,-31.128252771787587,-21.040666653544754,-27.6948930689981,-20.041069061247057,-18.300584547924174,-13.231247387960572,2.377222162587973,22.98372430614794
0.152,-28.718155792885483,-19.599310850954964,-22.749214330466174,-18.934320669766578,-14.095362401697223,-11.89294541303456,3.3923532495316984,19.813045094011265
0.156,-27.87938968612569,-20.077565104122122,-19.76143134787698,-19.46044907650321,-12.436660957518924,-13.112635705289044,1.4584844058484023,15.210256186427685
0.16,-28.179566445831554,-22.07654663468204,-18.980073296437503,-21.135080618221856,-12.839711918748783,-16.193991737016454,-3.091632752790577,10.095991527172428
0.164,-28.460536072171415,-24.278821601700717,-19.592557228701544,-22.862204577718664,-14.054976237237454,-19.577976700200246,-8.876750820906356,5.957010502225815
0.168,-27.511230117063597,-25.129428787820068,-20.259602827627255,-23.47194572570102,-14.805582103308325,-21.609387660041953,-14.019015150853921,4.191342226452637
0.17200000000000001,-24.7720576417042,-23.696000516703617,-19.94655294233494,-22.320830456334363,-14.501031436690212,-21.355625103393436,-17.00192468438676,5.378098888656291
0.176,-20.70036620965729,-20.245788364351963,-18.576800427336636,-19.651447179290415,-13.548101711408556,-19.071583845910013,-17.394412685903653,8.8951615599663
0.18,-16.589693769467665,-16.201847440115188,-17.108853259421004,-16.50591547984388,-13.087086753018724,-16.05268111232133,-16.03037783994308,13.14009154087405
0.184,-13.918368376492154,-13.447595468613134,-16.962810191775006,-14.219788978998828,-14.297813938312547,-13.951218641789254,-14.51045788577644,16.260461494426522
0.188,-13.585364987555295,-13.34142306406428,-19.11899668801656,-13.753693982841497,-17.657738686968663,-13.91245797887008,-14.256799452790009,17.04626776234189
0.192,-15.45142460544173,-15.979039466354322,-23.41605932592371,-15.206382238838373,-22.553686139701256,-15.97562387481311,-15.64798864328656,15.534137931058133
0.196,-18.44055584694624,-20.120252615784857,-28.490979466917416,-17.775808524571353,-27.48355541830544,-19.052081160085834,-17.754826861706352,12.990448289068933
0.2,-21.128089813161957,-23.83074149608217,-32.42029526411373,-20.18394154188242,-30.756662339787884,-21.474073638083237,-18.851535931390128,11.266721779700912
0.20400000000000001,-22.467991075475886,-25.46820375529712,-33.698851513920225,-21.31580705297725,-31.319090592705873,-21.81257955790186,-17.43651678376903,11.838928499659815
0.20800000000000002,-22.293713439997767,-24.517909111192424,-32.03865481425255,-20.763514194018597,-29.291631210728426,-19.552466673148786,-13.212642710523978,15.022556669705104
0.212,-21.366772712039676,-21.87305399372273,-28.57028153902069,-19.025218661398846,-25.956129844776097,-15.320375502576166,-7.456856352715809,19.75657632357592
0.216,-20.938369534349285,-19.399864009166965,-25.29815250147569,-17.242870211475903,-23.157239137599444,-10.577923187104258,-2.5065963458417873,24.08160184084553
0.22,-22.035566558681758,-18.993831072638695,-24.063610243986375,-16.598421009826616,-22.39801849232601,-6.9382265554697184,-0.5926421315405257,26.075587704860368
0.224,-24.800936603465537,-21.549344428601664,-25.518174720444947,-17.641681608075146,-24.041763970394356,-5.439976541431186,-2.6050544861925538,24.782496339172212
0.228,-28.257673388298002,-26.397388828728538,-28.673065777585137,-19.916615368332266,-27.046279653844884,-6.130543057750447,-7.499785474047899,20.674475335405795
0.232,-30.685196275264904,-31.549934822793972,-31.322418442980485,-22.13206579736137,-29.42208771497698,-8.146651312150727,-12.740842036997297,15.408991535338272
0.23600000000000002,-30.41830839318217,-34.60825348375818,-31.122004356837472,-22.790393161724708,-29.196783320238673,-10.211049862821323,-15.559240226779853,11.008448735346626
0.24,-26.71034087590046,-33.92214662961523,-26.80774949292343,-20.980821636331278,-25.441501586000527,-11.28380985459404,-14.37553527809511,8.879904559843432
0.244,-20.226945444988218,-29.426815942986106,-18.930686230436393,-16.922914478309558,-18.827518641974702,-11.040079024204285,-9.62602959350295,9.185221340556382
0.248,-12.858259713260217,-22.70547517689463,-9.694688061429048,-11.927582151181383,-11.388187029654723,-9.940076766692997,-3.5186842255538284,10.879108587645359
0.252,-6.88457642280342,-16.217434554454723,-1.9503485796670859,-7.751996690753202,-5.578217191149037,-8.875973125883242,1.1660819937249958,12.37798629716333
0.256,-3.891249087373282,-12.082111511762681,2.1542455584711675,-5.664459338684576,-3.082781806058488,-8.59913349618422,2.5650475552560987,12.50985206269829
0.26,-4.0187996371093035,-11.089670407432797,2.1402092887994257,-5.758992118670275,-4.026565584921752,-9.260781570216796,0.6589603053201607,11.212083246033453
0.264,-5.962167292154017,-12.442754537820067,-0.7211669939922132,-6.918802188903996,-7.014186432905671,-10.304158526419542,-2.8548965092029146,9.590976137596975
0.268,-7.719804993954497,-14.320968734753665,-4.209922981880396,-7.448289155029823,-9.966358584027452,-10.746078516203305,-5.625024969534742,9.297809411767687
0.272,-7.694621719076174,-14.940471249697348,-6.3859846890764835,-6.036486767100914,-11.285960005017648,-9.697151779942008,-5.995399573326942,11.543304276792796
0.276,-5.568814343237328,-13.54183939749158,-6.594853166951289,-2.5394161009413594,-10.720242253795522,-6.861034672892696,-3.881750843634208,16.293116859772553
0.28,-2.497865587642732,-10.817143895715265,-5.741141616152753,1.847460292128968,-9.453551442154756,-2.7644091244553053,-0.7160742557590547,22.118130842567943
0.28400000000000003,-0.4998910648113437,-8.546427023839062,-5.696385612226674,5.149784098615783,-9.365467311643144,1.3937190131168506,1.4867855635395717,26.830964097154556
0.28800000000000003,-1.3351297063447838,-8.6266364938677,-8.168706312919259,5.634225685385093,-11.87870412833768,4.223243714521235,1.365369823552614,28.586651730860464
0.292,-5.461622841448033,-11.987120929291464,-13.631324613186944,2.763564776532661,-17.02919763132764,4.759204631500408,-0.9483097575194961,26.866999694825335
0.296,-11.644123148252156,-17.973841052904852,-20.897686183441877,-2.432865470833619,-23.28882690450745,2.915296852994528,-3.849202635054934,22.817641249376862
0.3,-17.48907941700368,-24.586212989404927,-27.615762980328523,-7.82150551635851,-28.2836602277807,-0.4663442355783278,-5.150629902307566,18.72803808465329
0.304,-20.65018598052169,-29.453224232790788,-31.422047852159874,-11.22912077654562,-30.01347647034703,-4.0100757689858515,-3.3265939066730716,16.89282213186986
0.308,-20.023506892355456,-31.008434362950517,-31.116197623823183,-11.512481149443559,-27.88812493605143,-6.4346950673080325,1.616943146350187,18.43890806089896
0.312,-16.263155680705715,-29.212644657824,-27.217050486688205,-9.04611887014765,-22.99241695473508,-7.095264081315406,8.119466236170076,22.740959946190614
0.316,-11.360244662498502,-25.463460983962605,-21.629209580373356,-5.400022608142944,-17.456853276040242,-6.194615754191593,13.881295909637137,27.73346257453921
0.32,-7.561585605441593,-21.802781987209848,-16.65389946946574,-2.4425519663247144,-13.31678539436985,-4.591222684180121,17.025750095544247,30.963108737744513
0.324,-6.249238002623791,-19.87234124715046,-13.891607492623034,-1.3932985913818712,-11.509615381712257,-3.324211852530068,16.9734351452531,30.82344006008919
0.328,-7.3625830581367975,-20.145715304067085,-13.583073646306376,-2.3201477136288062,-11.537909482567251,-3.095164538584285,14.603694788832481,27.32493803924073
0.332,-9.610033304169368,-21.79691148639699,-14.678008940821261,-4.285017098872322,-11.922235017135128,-3.962999307231959,11.68838364536375,22.01154899669544
0.336,-11.314473224360704,-23.253166374764493,-15.547376173796001,-6.009252612291233,-11.145859715256297,-5.388780379538982,9.947553478805089,17.089345035065833
0.34,-11.402488940629143,-23.13359281870194,-14.942618978916595,-6.658058107166859,-8.555979517683799,-6.599466042252221,10.20981751465888,14.257976981278613
0.34400000000000003,-9.985427306706805,-21.061188899719138,-12.692461716712971,-6.304815883654873,-4.7364857782779515,-7.06572850364282,12.08017556233256,13.86169054095017
0.34800000000000003,-8.203467536086173,-17.880524677571316,-9.755788643203765,-5.80737650572811,-1.1595062966624017,-6.797141783809916,14.25293764915134,14.813363407354279
0.352,-7.4344548181015595,-15.14649397737664,-7.613218577238616,-6.174183712243719,0.6748303155516786,-6.2688669009533795,15.268015447192205,15.311108748563194
0.356,-8.397546125125691,-14.211286821345709,-7.380866387728398,-7.847122322361611,0.0890402894093194,-6.05271528860175,14.286098406113446,13.926743298206082
0.36,-10.712331702551591,-15.462305554772762,-9.174103936237943,-10.37126385843845,-2.4280444654874103,-6.410192659284508,11.462699141460579,10.4486829244781
0.364,-13.160061182667029,-18.13246231837598,-12.06829710637938,-12.640162785576603,-5.554115187312594,-7.1065937519289974,7.778492253774496,6.030577919148495
0.368,-14.449554908777381,-20.75651538012726,-14.638434449132754,-13.546917852957538,-7.914748664564416,-7.552079173042483,4.479614910837617,2.580552218413838
0.372,-14.003616639332362,-21.99235731226967,-15.762660306124321,-12.650415543494104,-8.86034265645117,-7.185551267746105,2.452657559479667,1.7211341666114635
0.376,-12.313894816774742,-21.360080802239658,-15.26173552980126,-10.479047326824103,-8.813800654976456,-5.8719571603292255,1.8462877985331478,3.895352539023584
0.38,-10.664300534912236,-19.504791851315648,-14.020417764737564,-8.290563996428054,-8.994302076461041,-4.043046979768101,2.1089365240164044,8.119708103553855
0.384,-10.403099889181945,-17.851963964341067,-13.533170685365452,-7.4336866990473345,-10.694117553315719,-2.4881929082588923,2.3706332962660586,12.497583055807262
0.388,-12.177203051504351,-17.834869776798868,-15.100876748732514,-8.646743095233354,-14.498934053421511,-1.9037489031257082,1.9544046058430538,15.189546028070474
0.392,-15.540174069660148,-20.093964539919117,-19.066745388161,-11.65288124137956,-19.83792488752629,-2.457555193153864,0.7488061372801549,15.30776547313258
0.396,-19.14942143854251,-24.082050442449674,-24.494646855127954,-15.27106302877452,-25.111023676447907,-3.65728559100057,-0.7259483795514101,13.268329643710402
0.4,-21.46127806515002,-28.31381174208945,-29.494558952255197,-17.99469733039841,-28.358777080186528,-4.64750604754083,-1.6134050616213935,10.446156715317521
0.404,-21.5405083998756,-31.124231219508005,-32.05740710712358,-18.73784954367888,-28.14541622840639,-4.7805436538937425,-1.2191548198394364,8.352769743996255
0.40800000000000003,-19.521862086219546,-31.48938090558027,-30.96759798953863,-17.335157224136445,-24.211112131188216,-4.09314111048325,0.5790360287992069,7.8100841775021665
0.41200000000000003,-16.45857831723219,-29.44189852648666,-26.320699020936594,-14.524203135901015,-17.567806282860584,-3.349540670608776,3.244371653007134,8.574546358506172
0.41600000000000004,-13.671897966628464,-25.887165943499916,-19.411972004078777,-11.463301087001165,-10.017879187811015,-3.5825899648800643,5.8446069026348875,9.575117886644012
0.42,-12.01958394673903,-22.00402853070097,-12.10440293293718,-9.094751962565207,-3.3786427077991847,-5.399018922326812,7.4929771516070955,9.589291066016145
0.424,-11.488723393176942,-18.59810428073099,-6.014517594511114,-7.709932004038239,1.1979366264772113,-8.467792647260667,7.749712294534936,7.960793652887623
0.428,-11.309283809144247,-15.777366526688606,-1.9203469880640576,-6.93399105720653,3.4969921493373244,-11.536423802157532,6.783148509177138,4.952629913440219
0.432,-10.49944388270608,-13.111272537242812,0.3342149274769697,-6.102549043248168,4.025642702526996,-13.031703946012659,5.226340968258123,1.5639439801423531
0.436,-8.509438180249735,-10.132169402619166,1.451194539815542,-4.780543153251457,3.4981494350127083,-11.934602012868822,3.830826311157577,-1.0416150929108454
0.44,-5.6187848201591315,-6.86880339910139,2.0547076119231114,-3.1293213763460273,2.3321426868395907,-8.451623204667133,3.093726312139655,-2.1487422725408436
0.444,-2.877659347596987,-4.05421805521428,2.219616590375228,-1.9026019547048145,0.45677084350009345,-4.060684336782692,3.0537403098642395,-1.7928606305909174
0.448,-1.5841313460976423,-2.811701809147067,1.459663742452113,-2.0375717415585086,-2.4586601230053056,-0.8302063399485888,3.3723032825459187,-0.6155140716154239
0.452,-2.561618575580848,-3.960724361097501,-0.8105691424066279,-4.056103867640136,-6.50833854886611,-0.3401974062297928,3.62684984607053,0.6072970485583431
0.456,-5.649477458339426,-7.3815063798940415,-4.6669042769369495,-7.646515035990252,-11.156368935374449,-2.804385020600156,3.6220957541629777,1.4501073752972597
0.46,-9.716533053636251,-11.892166180394675,-9.365170197745439,-11.713282876326684,-15.26590284501402,-6.912632703587865,3.5135184087701976,2.0450506091259513
0.464,-13.20633071150657,-15.770864240954866,-13.584753396381386,-14.899686358126889,-17.589377727537553,-10.508262579067141,3.664639664187715,2.9111677807717937
0.468,-14.919512714744375,-17.660406910326316,-16.1157636450614,-16.296015599330588,-17.45527637680629,-11.740577910502157,4.34594931889033,4.53709850739514
0.47200000000000003,-14.596814580164471,-17.32333602768363,-16.57810124125667,-15.924080775985804,-15.223095313582608,-10.048724295410462,5.475223624240201,6.983091647612024
0.47600000000000003,-12.998431252731478,-15.784282007134063,-15.715935962500911,-14.7079663156,-12.192340154839009,-6.431033294945736,6.567684126094683,9.749979137029332
0.48,-11.452595713703356,-14.764611903960459,-15.051757107668495,-13.94100985212391,-9.972853621942082,-2.87256383495133,6.932798429678366,11.988311354990879
0.484,-11.132034406925417,-15.70012735032657,-16.047452137925248,-14.546162811759778,-9.640791088333568,-1.2717263411710564,6.013743240864482,12.919885493018255
0.488,-12.417299707109375,-18.853129125188218,-19.194615284022042,-16.51378831954854,-11.118674402220654,-2.447855214693274,3.715667197794054,12.238076515874676
0.492,-14.677040966114284,-23.03820924069728,-23.574898494939482,-18.838550858514033,-13.160924744277034,-5.771925843799239,0.5540195705761826,10.246600844334345
0.496,-16.594211875197523,-26.16273930004753,-27.197672128411796,-20.02886543518615,-13.993450264901472,-9.603561873333021,-2.4958061757719476,7.666730186018594
0.5,-16.87730843036202,-26.34178316766008,-27.995932334849357,-18.93854384921191,-12.287022881190321,-12.249960537209251,-4.406112609163252,5.237681406919089
0.504,-14.983408448486585,-22.984538145800315,-24.957154868016655,-15.473628068722807,-7.92999238080287,-12.88983035922628,-4.570930997937921,3.336913323135935
0.508,-11.44461979436382,-17.22401295408368,-18.7465956655317,-10.757005245323693,-2.161994274441187,-11.927677205319902,-3.1154961179275396,1.8293767844978186
0.512,-7.59364092611538,-11.401523194467714,-11.436717303932912,-6.615326495072596,3.0306892447091984,-10.597820859243347,-0.8611966527714072,0.22268347863788795
0.516,-4.841958401141623,-7.858524588548573,-5.476332816373376,-4.6496390086676245,5.934546102253172,-10.105279257475736,1.0548806301324902,-1.969264875636676
0.52,-3.9271077414515707,-7.712335814160404,-2.47028992790562,-5.396908788232496,5.975864223407805,-10.845276577448107,1.7260982420559476,-4.852793386088389
0.524,-4.550938154038681,-10.28987887426051,-2.437376366533781,-8.045859661037653,3.964585391280494,-12.167677975417961,0.9394822904868341,-7.978929264924698
0.528,-5.592283909137375,-13.513581367595028,-3.9289291878761983,-10.859097143808206,1.6079969840819537,-12.805313358494447,-0.675533473222143,-10.477743545032292
0.532,-5.757473580493899,-15.00861720300138,-4.90698643278165,-12.070199204033994,0.5850228888229019,-11.69272886631776,-1.9067502653469486,-11.451820634229346
0.536,-4.3034607544752355,-13.330715545217542,-3.8696337047489617,-10.781684192850179,1.6892323938018006,-8.677855555730236,-1.5353098838456705,-10.442836442086076
0.54,-1.4622125236230001,-8.687980758389411,-0.6291407926119659,-7.412068699352858,4.471643703271296,-4.717515601329023,1.0026853324838423,-7.7379716039883455
0.544,1.6354120352824317,-2.82417080022379,3.621944582241288,-3.491649159692024,7.511673898942927,-1.4617266932342372,5.187346023572604,-4.3652723709758545
0.548,3.4908801791153437,1.836378195898714,6.937450105103119,-0.9288443087533391,9.122722821202037,-0.4573537924804669,9.443082023942985,-1.7766036667660634
0.552,2.9528734499465186,3.326430215810762,7.568486323844388,-1.1192352658520912,8.120006861583397,-2.3920461351983953,11.680719553875612,-1.3346288126987322
0.556,-0.24645125674611634,0.9794651344390797,4.734226622850242,-4.337353345759634,4.275537687840209,-6.776289537220362,10.153489771851156,-3.8024900883723767
0.56,-5.4009518348640775,-4.411791312878152,-1.1406764555769406,-9.68123988982591,-1.6951534639974088,-12.194642605233476,4.2544986597814605,-9.027957347249378
0.5640000000000001,-11.171340233972902,-11.09031770177863,-8.726483665124901,-15.524641483708699,-8.492341574305037,-16.95928033512847,-5.1021384021168625,-15.943291211167292
0.5680000000000001,-16.133638332700777,-17.13101890178664,-16.364214719068443,-20.193232312760898,-14.699355735083618,-19.807587044866764,-15.699201384312605,-22.88016825974482
0.5720000000000001,-19.241743453760925,-21.096395499962355,-22.57309711779038,-22.51127453335772,-19.124603221932936,-20.30007359513905,-24.74828525134329,-28.082690440759507
0.5760000000000001,-20.012068662433173,-22.283899392979166,-26.29064708789205,-22.0069236270233,-20.932283047512026,-18.779171912814743,-29.833469545057653,-30.23378021686728
0.58,-18.466738849646124,-20.63646204343867,-26.912829604599906,-18.826546365914332,-19.671828371252335,-16.016920109620035,-29.718277823522563,-28.827166764314185
0.584,-14.981220993315358,-16.527689982595355,-24.298949184746725,-13.535665730243725,-15.332287044378177,-12.808821075907556,-24.709580425805555,-24.288195219616203
0.588,-10.159106062876912,-10.609818617561322,-18.827329142645784,-6.9510346499144795,-8.431171012277321,-9.722862654745068,-16.47197711099112,-17.82265989786987
0.592,-4.767207275640338,-3.771499444240881,-11.457982157666606,-0.04979504153475833,-0.05529307887915813,-7.0623450192162,-7.390849708067415,-11.049369134953174
0.596,0.3290377346968525,2.9074475181496884,-3.6495383088402775,6.110446002959775,8.285773402433644,-4.968052182716296,0.25648715310644166,-5.521387810509846
0.6,4.297724586552177,8.312535645469701,2.972853919686691,10.545324136883234,15.035969565320912,-3.5308706759227007,4.996977739340889,-2.284301858039411
0.604,6.546610095021705,11.583293536177312,7.139732522611091,12.589644683448528,19.08330759731628,-2.8262202208693745,6.501748519073127,-1.599159173237481
0.608,6.939112318602628,12.43419729618433,8.425588731856912,12.151002598734575,20.1477401191191,-2.849898681330837,5.5028688351017045,-2.9129704941449805
0.612,5.89219035725837,11.317646951057583,7.431239666277694,9.814461431633935,18.85283302766962,-3.4239564048944837,3.371205636686687,-5.100638370259659
0.616,4.24775450873655,9.275538588807795,5.510474459730605,6.672824327731712,16.413708436642303,-4.1857045954685494,1.5467825125532022,-6.906077169404048
0.62,2.916098595852926,7.482241642392107,4.112602597109105,3.8969749145557264,14.061758578698292,-4.707307018057222,1.0129518503805497,-7.414951942681268
0.624,2.4499028964030565,6.698727923800236,4.068280661281896,2.237215810289255,12.503008352465105,-4.688701713146433,1.9869664603501611,-6.371574574131576
0.628,2.794691921455298,6.947658176630642,5.2212558697518405,1.7318868363246445,11.699396872460365,-4.094400878417563,3.9398112842791235,-4.212949115158956
0.632,3.381594075304836,7.6120862808910035,6.620023645970608,1.8048889415312037,11.079493800461345,-3.1408014609928845,5.931426592461499,-1.7926885213723407
0.636,3.5228918493501458,7.89783331930018,7.158059258176051,1.7057565039756422,10.039924746672536,-2.1367833854490192,7.1057970516483895,0.072541415540053
0.64,2.872622935831054,7.365483274253933,6.2703690229629725,1.0301925112606969,8.419743306241166,-1.274432922571685,7.114154387353406,1.0127191016456463
0.644,1.6643025254978279,6.205097885854455,4.26582213992655,-0.004843845282403447,6.655179325498314,-0.5189295127637457,6.257649053982305,1.258352319171209
0.648,0.5871178406326707,5.096582460431081,2.105346902133963,-0.6924533616104539,5.521922414710254,0.3355539203178082,5.273187914212899,1.45283028614698
0.652,0.37912577003911707,4.775389520281591,0.7858494181241484,-0.28837083683800213,5.639854354880102,1.4885714882191445,4.875739088513347,2.229685457338116
0.656,1.362844464499414,5.570430562342848,0.7033739045703169,1.4801566304021438,7.0403518129366365,2.9386577598151673,5.311750301268556,3.7867032296778524
0.66,3.190157204209829,7.174861583408861,1.3733503906368414,4.148040246306787,9.060325366173014,4.395915559684761,6.163028376449999,5.7001064861325546
0.664,4.967001328708035,8.788725232089059,1.69481338721374,6.662962413457055,10.65183763407468,5.378643598516153,6.539943684898441,7.109321530125127
0.668,5.715898472817539,9.555803051232852,0.6221798413110151,7.903093560105173,10.949319070313623,5.45829745232156,5.597153674625467,7.193311055336961
0.672,4.939383169526852,9.054993783389968,-2.1299138362420407,7.2913849981779535,9.789845208299404,4.52501603632032,3.1017915465342165,5.68028962508226
0.676,2.935493552202291,7.5491071458201136,-5.785547309568564,5.130546450986772,7.8663400051478956,2.9062010579788997,-0.3061723107891534,3.071677933008428
0.68,0.6716504701919321,5.8495125332586,-8.80920681959764,2.4678627333334013,6.409876401080819,1.251306860158922,-3.337408992305502,0.444844087150976
0.684,-0.7349720735354328,4.880626723906005,-9.671802123341164,0.545251430044158,6.553352752391456,0.21875957047389744,-4.681171927722835,-1.0855252216989477
0.6880000000000001,-0.6522830201739003,5.188824157751055,-7.668561262296022,0.1289523696147199,8.711558223631249,0.1332668929386347,-3.716147176126795,-0.9679979334468953
0.6920000000000001,0.6951019870447732,6.670727333042202,-3.3324182095355614,1.1013451375944305,12.314286278355285,0.8206761233863866,-0.8943184837326785,0.4615455992152562
0.6960000000000001,2.3273237765324204,8.648566030610896,1.7749470061715167,2.5269953595949053,16.030640747344187,1.7043767619078372,2.4485091787099877,2.1189703659883783
0.7000000000000001,3.0481052606371595,10.229027632678388,5.791053375895685,3.1608621057372903,18.3772132792895,2.122217166536439,4.762797353292791,2.726947848429681
0.704,2.1139763767448194,10.72613869956518,7.4077160300992375,2.1044210564395107,18.38909508193835,1.6878372832538524,5.062134999979651,1.4839134806610197
0.708,-0.3326412499457998,9.943295576196597,6.417839922859809,-0.7347081349574758,16.01298900047264,0.49873295667485706,3.3779636367989747,-1.5195091808461898
0.712,-3.289021836950073,8.22153665705211,3.7146947258847085,-4.588321142345304,12.06600550030885,-0.9049266363038386,0.6619291248016381,-5.343903279462773
0.716,-5.394273317090272,6.244472093444735,0.7601934612601582,-8.207619244550035,7.79462605166659,-1.8273852767718959,-1.8000033924554266,-8.692529884322731
0.72,-5.658668404335694,4.695302395179581,-1.1912502729548482,-10.480288130620885,4.271173811753666,-1.802844109508913,-3.1250349482431314,-10.577711127368923
0.724,-4.017210023482609,3.9380885325915216,-1.6954811722660388,-10.954173957107372,1.950509098915754,-0.8602135089997986,-3.289604192566685,-10.79212164728916
0.728,-1.3951730698486484,3.8689604379667113,-1.2437238076103618,-9.999058873249634,0.603321870025983,0.4718466436344215,-3.0451055792776494,-9.938141194711326
0.732,0.7643048521465245,3.9975338427608094,-0.8769993478011706,-8.538731494521812,-0.3806512885167983,1.4232986001849723,-3.373098273342075,-9.020406921496352
0.736,1.26090967882008,3.7128545571942397,-1.528141572780669,-7.517964765828965,-1.513771583228066,1.3722054845359994,-4.823353458813919,-8.854325511469753
0.74,-0.2363447928761896,2.583539158593987,-3.4832293197701327,-7.4089414401717795,-2.852506427456648,0.14847561877521231,-7.159773099971835,-9.636119392559458
0.744,-3.0408744180264384,0.5527312055091826,-6.252530579188142,-8.023042731756405,-3.961666392576163,-1.9085320086306012,-9.524469818970813,-10.905155841959541
0.748,-5.845718853672903,-2.0461262935523807,-8.887964750946857,-8.702547737248828,-4.195028124992457,-4.155575430813685,-10.992110901462203,-11.890520332839435
0.752,-7.444414949191533,-4.651357318211918,-10.537712844999316,-8.76469678191297,-3.119946918335172,-5.983718149233738,-11.165632733225252,-12.026240333703024
0.756,-7.354674926557451,-6.71024984978738,-10.896509347070399,-7.921537342040258,-0.8236307735229973,-7.088448259267022,-10.422433444625291,-11.314419422185173
0.76,-6.015686536608024,-7.883630334176106,-10.299901899503217,-6.446342869893126,2.0736480897194545,-7.53894575910285,-9.664595903987944,-10.320978746829834
0.764,-4.4617026494940015,-8.120780984226275,-9.428199970851104,-4.998691479732951,4.709332244765966,-7.639265720862639,-9.734113054247512,-9.818118388674472
0.768,-3.671632071997087,-7.584857609369345,-8.823222488025216,-4.215545769584497,6.401689717392973,-7.679713915125025,-10.851871486630877,-10.301543039389138
0.772,-3.985748472192327,-6.492943826351354,-8.526173460528192,-4.317908418081898,6.964224204736746,-7.747011297873828,-12.436891410410514,-11.683500917587528
0.776,-4.917013064832831,-4.973177943650656,-8.065041192614379,-4.963890314741013,6.7508178457783234,-7.71209367770811,-13.408429329168609,-13.338756677707938
0.78,-5.47549592803904,-3.0526804896975306,-6.818168389067464,-5.449660064683458,6.399493639297641,-7.384866605247799,-12.80338236153896,-14.473319523005799
0.784,-4.819571525061478,-0.7945389853489324,-4.534558051083444,-5.16161833424318,6.428205152286694,-6.730016583555313,-10.36256742585526,-14.595266769870232
0.788,-2.8270611276083275,1.5350097429763059,-1.6627919456917786,-3.997593482968193,6.928260904806171,-5.981185138746607,-6.732947384885163,-13.797734141011883
0.792,-0.2275044399231363,3.4193184299091985,0.7516261695178894,-2.4856992919732814,7.523339447940561,-5.549883457651203,-3.1763105577407167,-12.693274283023984
0.796,1.8003807323868806,4.252033765294319,1.5887950852389068,-1.5055903942400901,7.620329011847227,-5.765966833928344,-0.9571919809174377,-12.043623217474778
0.8,2.3277267345887296,3.639272548790414,0.30668562238984265,-1.7573681877412446,6.789727020271019,-6.609909047285148,-0.7551459865648695,-12.303628194773587
0.804,1.250506042237144,1.6726169683495868,-2.6777421519709668,-3.2974063701716525,5.044434480397226,-7.623248986052199,-2.4080896456656733,-13.350875087389051
0.808,-0.608021394291988,-1.0144414560172006,-6.132359677067923,-5.429328907263779,2.8495633050988785,-8.085916796853086,-5.091425125662424,-14.56423259862964
0.812,-1.9363945914448832,-3.4829306709801116,-8.619924196890164,-7.029001921964838,0.8679079501139446,-7.386526050820461,-7.78871255767789,-15.188456166580709
0.8160000000000001,-1.6755334318398871,-4.920436248472075,-9.257973792204083,-7.15217686534222,-0.41246150157839967,-5.392099179076215,-9.768009944671402,-14.772132216608387
0.8200000000000001,0.35158271851106654,-5.061328929191179,-8.208491729137926,-5.592631163145128,-0.9540567394593777,-2.6045718755485745,-10.825408984697512,-13.427196840593105
0.8240000000000001,3.293580383702071,-4.339362270067735,-6.5885737489370575,-3.055392901032149,-1.1724312964424906,0.0061138863153096246,-11.204137796518367,-11.75101728439926
0.8280000000000001,5.719211794109117,-3.642548206484028,-5.823590164815178,-0.8106482821172589,-1.655408006487189,1.4390988265380558,-11.285345750835724,-10.46664068103939
0.8320000000000001,6.406812282525952,-3.795522001528608,-6.8017585998339065,-0.010456239526180244,-2.768901503762187,1.147218111100134,-11.26958579094132,-10.013134347494688
0.836,5.035463333940341,-5.044050404446054,-9.295958491448786,-1.0400087576897454,-4.370903823650581,-0.6732643182829314,-11.035699577800578,-10.32435511491052
0.84,2.389694855280786,-6.84807797957016,-11.997995493656658,-3.271490654880602,-5.806917037985926,-3.143487549173458,-10.239551008244769,-10.904036695767807
0.844,-0.062402562550862406,-8.146702400457984,-13.186383093372376,-5.397306137410987,-6.226280042224902,-5.105216939522324,-8.574728069991696,-11.155114734161675
0.848,-0.9736605191884689,-7.960255588791137,-11.6707624086829,-6.158188713126873,-5.055201199745113,-5.6521118178743315,-6.024708574188493,-10.746637097856363
0.852,0.1562123554548167,-5.983454484671122,-7.47939441276465,-5.042510611099165,-2.3479536250843163,-4.513617946214271,-2.9396754397021834,-9.785722393866681
0.856,2.75151877276706,-2.809199127730981,-1.893398041503171,-2.550698763354906,1.1835489417532958,-2.10597154218772,0.11002722493630834,-8.696921968810228
0.86,5.536572392027541,0.344867669974386,3.185690207227065,0.12031848774892495,4.484847611324117,0.7472018555708049,2.5982467710318504,-7.893878847747507
0.864,7.282454045038827,2.266753465714043,6.195812931056178,1.7825601280947785,6.663519295801208,3.2508292977532927,4.2721395274992044,-7.460659332303662
0.868,7.487026194145223,2.386149781142926,6.676606915196976,1.938096065387397,7.405533334659186,4.991258906372391,5.22606850978009,-7.0484251098748985
0.872,6.608796663248295,1.0684847662325314,5.4314829202756325,1.0418750439432038,7.082397860170195,6.034169189905013,5.801464671079398,-6.064597565039824
0.876,5.728337807630613,-0.6049022641378738,4.008745555418512,0.18558323172123403,6.495303395164457,6.739277404694381,6.361252772587877,-4.063195851816536
0.88,5.839433501800399,-1.457514744618888,3.7889138710703074,0.3885683283848098,6.383777951890071,7.435868006586708,7.061721190717084,-1.0996352247359709
0.884,7.194752172975281,-0.8904888941621338,5.193935567351073,1.9193630767032905,6.970520348080429,8.161645258761174,7.760107350114318,2.173181534116153
0.888,9.094759026078968,0.7709138234908242,7.451195691243444,4.061846036532365,7.806481129174989,8.63817177787121,8.094208448847281,4.747963912374109
0.892,10.260546470166222,2.4536036686426597,9.049094792824974,5.493359501786166,8.017207920889875,8.498094499200127,7.690607392567589,5.738555144747929
0.896,9.588368916947001,2.9499809113502686,8.630574341290911,5.07400311131519,6.835548915870666,7.615348016068257,6.405469563148499,4.841780310752094
0.9,6.858400362598442,1.6232157636084743,5.828756857232215,2.5981958404453893,4.129156456738521,6.318432942985155,4.461744569564833,2.543606374182464
0.904,2.977488528143065,-1.1952995519096452,1.571394683918243,-0.9508191577613943,0.6099665150950948,5.3170006115672095,2.3976579371489484,-0.05726404911620758
0.908,-0.4135310092161414,-4.338647588044873,-2.332466261458086,-3.826576315438902,-2.4227146213945168,5.350415755340012,0.8332469915178091,-1.7364040318916283
0.912,-1.7637370957891128,-6.387674316193776,-4.09482537962209,-4.41268744060104,-3.694310085348892,6.730689971801913,0.1813023525258477,-1.706196115719457
0.916,-0.43017914825916015,-6.394356213252341,-2.872119733945599,-2.1130037312402914,-2.619973807110447,9.04461914758732,0.4431385095313496,0.012726193089427906
0.92,2.9502594135073528,-4.367249844269067,0.7779157333464388,2.256665734187437,0.3343628456283638,11.229387282297573,1.2042518066737,2.587788631249719
0.924,6.729591699163603,-1.2786666507130544,5.140682123997289,6.795087394109439,3.8002436042008494,12.019623184260976,1.8367376735252545,4.732647264343799
0.928,9.023579338342232,1.4003511524536414,8.163230060634444,9.403308238523845,6.117291499600205,10.562824442379803,1.815465465042239,5.2640753159129
0.932,8.602993301102092,2.4036246217650596,8.438861495898657,8.798002047276448,6.126313308546518,6.905740348731838,1.0033090347038875,3.617030208655196
0.936,5.464094497691443,1.2668578984047905,5.868784106221241,5.1430360605077166,3.7500518883063023,2.087706849723454,-0.2307771778390384,0.08965369065706241
0.9400000000000001,0.7952683372168625,-1.4849117182000784,1.664915390066108,-0.027888734140582017,0.04241137010071139,-2.2516734084934518,-1.155552535715088,-4.276068808402462
0.9440000000000001,-3.620553639275483,-4.6277480047051345,-2.2806855624047655,-4.544107876594264,-3.311763244229226,-4.58177029445876,-1.0237959657589784,-8.103614367741184
0.9480000000000001,-6.252711887627524,-6.84813678887914,-4.334325779886281,-6.613309316220563,-4.812025899711865,-4.166140901343911,0.5402623009578416,-10.211359520699117
0.9520000000000001,-6.498323499950342,-7.362209684249898,-3.8951077198484123,-5.619803117139497,-3.8688751786462143,-1.3866607222330813,3.2842400112877477,-10.043641372650704
0.9560000000000001,-4.85229727507139,-6.226429599370586,-1.6102316235746903,-2.313846855378565,-1.064083866986333,2.4580150868025044,6.374386154758456,-7.832732992562094
0.96,-2.519436030816305,-4.1970072179707,1.0642050459114532,1.6739021097377713,2.191537247893006,5.786970310942719,8.74484774611013,-4.434536078080265
0.964,-0.7134768579797315,-2.2449049066101665,2.6970818385305826,4.707127941149777,4.418877624704876,7.481740458070359,9.583959269323902,-0.9237968953446986
0.968,-0.021678766971801267,-1.0082300207829844,2.660664952138074,5.949908198526874,4.838099729680372,7.368847220405036,8.74748051074154,1.8573974217346318
0.972,-0.16520684364382543,-0.4755369746515523,1.4432519531627812,5.701842547912715,3.7332531349117386,6.205553600167047,6.875217313090243,3.590243276636218
0.976,-0.245726331533481,-0.05933200033109198,0.342499892041517,5.117204484000564,2.2292522680055544,5.197043193025803,5.140347254671452,4.486790194928069
0.98,0.6789402330875811,0.9785984792467697,0.7128733403001055,5.484422361982048,1.6055944739120687,5.313956462930306,4.722298590717957,5.030885475090541
0.984,3.006977764807113,2.995661339124029,3.1768468092797733,7.458830021363797,2.5330268656745756,6.7676232293466985,6.234735863242197,5.604755202408696
0.988,6.29704315575265,5.62663228048114,7.2139130641799865,10.640894228334748,4.642529288822379,8.898237240625491,9.387103753336394,6.207927416527445
0.992,9.428135874130897,7.844554464904336,11.355940675803147,13.718601555954496,6.66825179637776,10.521698153499717,13.062258539779185,6.427811882213095
0.996,11.130161935236737,8.434852106497932,13.901723148740324,15.106372725780387,7.114430551614996,10.539059227694947,15.781705446099014,5.6882878466166105
1.0,10.604465173894438,6.634182387734338,13.767722374041321,13.748675684784878,5.074458423601277,8.483011368137046,16.36152176147999,3.641032014394619
1.004,7.895907943264652,2.579161457005662,11.010501220188281,9.661577118973604,0.7462715650034841,4.724737894983111,14.438090202084558,0.4722102220153852
1.008,3.8512170960241336,-2.6707428552655084,6.760920745791569,3.9593182897025248,-4.614689333401282,0.26721342004907456,10.61572528222214,-3.0608328899551243
1.012,-0.2978787901739297,-7.568636315837213,2.612320150680471,-1.6395225607758013,-9.292797784633613,-3.7377781147133553,6.15441654288094,-5.917012366341879
1.016,-3.506760495521241,-10.757197195535646,-0.1989667860562827,-5.576309368261461,-11.943903161467913,-6.485931474601136,2.3680944163044737,-7.250577738955624
1.02,-5.3334929053813385,-11.639745819174735,-1.3564662405382744,-7.088893143065899,-12.20947446130448,-7.771964895412151,0.040239517855335194,-6.818221387811041
1.024,-5.99897927255229,-10.562900168264566,-1.4919755237924144,-6.422911039351018,-10.806703890339051,-7.90538480723444,-0.8614010544044106,-5.090457261846771
1.028,-6.116441408332321,-8.551222114789,-1.7026368957682974,-4.567857802542735,-9.09346870612185,-7.41076225245832,-1.0508191787014187,-3.0148022470368105
1.032,-6.259109088872449,-6.744540283869872,-2.84527391931938,-2.684136025189846,-8.353127171142926,-6.702111286301581,-1.4566733624229258,-1.5608196494014166
1.036,-6.617293221828442,-5.842258767700905,-5.023244634316941,-1.534216480031671,-9.188834647778837,-5.919729607423738,-2.6751335432522394,-1.2861524441421976
1.04,-6.9192585346160325,-5.8263114364734285,-7.538100291043495,-1.1921182710300613,-11.32204612751438,-4.9859948370945295,-4.641062719059444,-2.136706914067308
1.044,-6.649023913775785,-6.084180940124084,-9.31578140461842,-1.1563308066251057,-13.858302349984875,-3.805856062486833,-6.6770996651100605,-3.5706412510363417
1.048,-5.420873631782725,-5.835242221803594,-9.541861696032248,-0.7627003635823935,-15.82616588081116,-2.464785271850957,-7.885646207354723,-4.9143836833903825
1.052,-3.2764983957305227,-4.596126602107287,-8.11837829350235,0.3706291083030435,-16.658220459030176,-1.2775332483104644,-7.643278188987564,-5.71735440291139
1.056,-0.7368065231868628,-2.433154715837338,-5.682286700944905,2.111484369854267,-16.36038416703449,-0.6474961925415732,-5.938395676300514,-5.91147119448095
1.06,1.4016871480859496,0.08982524229823863,-3.2139838758072576,3.889473999337289,-15.348678151205139,-0.8398847715879789,-3.383467410533205,-5.73203497552331
1.064,2.4165924253222233,2.2180022609618906,-1.4866256993104994,5.014466153771055,-14.10351946259878,-1.8116503280739695,-0.8918845644027416,-5.471651101206634
1.068,1.9785240930952908,3.3870054971008026,-0.6759638815862541,5.050703463967299,-12.870319325335853,-3.195191179709611,0.7893051936245601,-5.248268615078931
1.072,0.2928266208995094,3.4849643100669727,-0.3378324322759232,4.045593198269116,-11.578103820511897,-4.451903626403361,1.444003907496581,-4.936924821570987
1.076,-1.9705271133316726,2.9018998918255363,0.2762956423092702,2.5181718428241204,-9.979057113973195,-5.102069559096735,1.4781851462990647,-4.286856741835015
1.08,-3.912562638954845,2.355322658624652,1.7739448911518,1.2317558737795484,-7.89052213450933,-4.908093743755551,1.6996799449974969,-3.126754372113042
1.084,-4.715029551543033,2.580787494393549,4.293142387046284,0.8645293581473711,-5.375071276476863,-3.927805166425353,2.887093383834123,-1.5271362366373882
1.088,-3.92062683608532,4.018606291324473,7.446198705582471,1.7298089447764582,-2.751489862167174,-2.4377387391884495,5.358530584988638,0.18057671959195076
1.092,-1.6062444729026049,6.601860741466669,10.511495552940973,3.657182469472967,-0.45916652868148233,-0.7994771877359184,8.735015351646112,1.5329563616211603
1.096,1.6165905671099554,9.745437099627846,12.748088159239813,6.082034256157344,1.1377019629352123,0.6585845416572652,12.021503281310045,2.1302681781743904
1.1,4.776997488945326,12.538537176424446,13.659359649686682,8.291074604119688,1.8902841808179005,1.699474762033054,13.974468671590225,1.7899844395256488
1.104,6.861840366967183,14.083880226903585,13.123178130670881,9.717089781310218,1.9009697648845183,2.1782488636906088,13.612200971097694,0.5950639978719237
1.108,7.202382085637144,13.873957733339026,11.40049300758713,10.177184029459951,1.4769590361443452,2.0363157035307786,10.658087653756388,-1.1460591750967226
1.112,5.785721703192113,12.051355232514712,9.069704733107558,9.962002129661235,1.0416301072710894,1.333261875364875,5.740831311349597,-2.98076483128999
1.116,3.327715719504962,9.41599985919998,6.9015852402112525,9.714081853380579,1.0266070228544883,0.28349274749696163,0.23255412430419875,-4.413400833443385
1.12,1.0139915671916446,7.120366249490427,5.654652013022696,10.117929485353852,1.7316634567299953,-0.7540189918338744,-4.2554307866767065,-5.026853593376774
1.124,-0.03507417587677697,6.154759117151968,5.799041105462706,11.521642758693622,3.166572669647291,-1.3728791644307825,-6.508744443054037,-4.614638043626364
1.1280000000000001,0.6489179990376046,6.846284069647744,7.235706565400284,13.658932483068613,4.9268444108052085,-1.3006606698600953,-6.22383493076827,-3.292517405799078
1.1320000000000001,2.548049692033411,8.62816694222503,9.167763152561133,15.632344851923769,6.192822720753696,-0.583148288895615,-4.150322105270622,-1.531181604638803
1.1360000000000001,4.331119878026768,10.26309331757254,10.304498038996083,16.24428268086993,5.965756272319272,0.3739041551075706,-1.7506196728610393,-0.03210139541239754
1.1400000000000001,4.519214002218614,10.460331062665,9.412866439984942,14.568160748344798,3.509702887860242,0.9720120906433225,-0.49203108608518065,0.5596021991285658
1.1440000000000001,2.3273994176378006,8.589349553699654,5.99744185913965,10.49034462308829,-1.1751409396024544,0.7286707198071203,-1.094457031479788,0.0004929339947787881
1.1480000000000001,-1.7734573026156824,5.098549771676724,0.7467345034227097,4.928399102088035,-7.11615115100977,-0.42325978448249746,-3.1189607153007497,-1.3303032791282243
1.1520000000000001,-6.133195464190546,1.3725318499275216,-4.567552431835477,-0.44395788905523226,-12.582639450302015,-2.0259079955816723,-5.136306108904969,-2.5084510713660753
1.156,-8.66270203401259,-0.9247962123151758,-7.785553263696096,-3.885809869259994,-15.733657502115936,-3.274555165951594,-5.427562953120812,-2.475323479726529
1.16,-7.891034106313056,-0.6993621687616542,-7.364536648001234,-4.373409860771702,-15.433907751837443,-3.4202758333766727,-2.8938145804243627,-0.612068425178389
1.164,-3.782991671681992,1.9967567815843963,-3.174504296678699,-2.084511700132458,-11.812156639561126,-2.1973627242003513,2.3007599021307086,2.8239579664379697
1.168,2.16315470549934,5.99933716026984,3.390349220018301,1.6928389975350238,-6.2260522199235115,-0.01550544782806329,8.700238510677291,6.676336020488511
1.172,7.639731135507463,9.686977611751612,10.104445321789717,5.216966040503918,-0.5944001874492666,2.2192836810950713,14.190653223364357,9.362804199891638
1.176,10.705481562045298,11.898694711225314,15.048985368499821,7.181142564912393,3.571703079543868,3.574049300208925,16.987346080011594,9.636302382430399
1.18,10.773208755624337,12.580153903534985,17.56121439918741,7.360872891179014,5.898669110977229,3.598936572548582,16.453497460385055,7.243091104074001
1.184,8.843598033777472,12.757545078310436,18.431607797664302,6.653762482015063,7.208172203556234,2.5832049521616662,13.320636804542746,3.1055784343595363
1.188,6.8411605875445956,13.820090025136368,19.216542085080693,6.480848186475929,8.846260114151484,1.3906884692785373,9.200298142804561,-1.0985231970986475
1.192,6.435764993515876,16.530450163724854,21.081291008294876,7.8927687750549484,11.67932996372854,0.9509239862058398,5.6714374144612565,-3.743667190102504
1.196,8.036248996817312,20.37188594736491,23.890076973321648,10.890883960468667,15.36164128259231,1.6989865085060143,3.4702602492259054,-4.030947327823298
1.2,10.54320210387839,23.65512340971678,26.12742562221539,14.358443398004088,18.344797022388647,3.3032057322638195,2.2237887739853712,-2.31283122681804
1.204,12.015497026242818,24.393271673352437,25.75590383489083,16.658328882465398,18.684538156236698,4.854079385707646,0.8548669365000151,0.2086701724524742
1.208,10.843963820426712,21.456540788087224,21.50258370146015,16.546513197868165,15.180654847589157,5.400978515158241,-1.6211408381437078,2.2230598565735296
1.212,6.750838459045612,15.335286619399941,13.792126740697164,13.885953713639948,8.168279985491303,4.534122501299346,-5.394974893512867,3.0676323470532045
1.216,1.0284610911513845,8.047213824470301,4.737255061449067,9.751900483868438,-0.5251916685974052,2.6614342647063873,-9.674703035676497,3.068261190047367
1.22,-4.112758867343301,2.195172434950013,-2.8517755910874345,5.876942227548785,-8.472717540910901,0.8136807031935591,-13.111752822618925,3.2865341364967238
1.224,-6.7077517008931675,-0.3268390034904818,-6.893042614023496,3.752063277604788,-13.894482316998504,0.07758029318331694,-14.558362321409362,4.841609086289122
1.228,-6.061098439749173,0.7150719940439583,-7.082582698352451,3.872182825519998,-16.54388339350151,0.9739093716442615,-13.711632684585002,8.196385698285038
1.232,-3.0421908370396586,3.8395448599646773,-4.940341170421886,5.561197566471286,-17.682942581048003,3.158456781092478,-11.235496688996019,12.833650577301949
1.236,0.4844437611905561,6.727719861025673,-2.832955456545886,7.449934143357656,-19.156931350881177,5.620583178045919,-8.295209675958588,17.483079689810154
1.24,2.7328577447514353,7.535642057123161,-2.5400775240224673,8.307924646993037,-22.106934453966137,7.259322519108261,-5.810870373595907,20.756068632440886
1.244,2.935589819317742,5.904783558324583,-4.205903042421545,7.741823661812414,-26.086063607486622,7.483386485011637,-3.8965841103342793,21.820845723372223
1.248,1.634677372013293,3.106577526747193,-6.286163347759874,6.366500522517081,-29.128431818216043,6.489658597890196,-1.8264248663823617,20.744976938346646
1.252,0.21080667092890337,1.2594212394358575,-6.499678750971591,5.378584424333893,-28.766532630723287,5.066742931351595,1.4254286052581149,18.335243482285186
1.256,-0.013329962561784647,2.0878596005938537,-3.2058961398635093,5.808226507309147,-23.432118333311394,4.055876600725581,6.4065414557648,15.603468229944085
1.26,1.4505538171621306,5.9260428877913975,3.5794884296778937,7.883852225885619,-13.466980805995139,3.8082645855351425,12.636741409773114,13.18702784880753
1.264,4.026424731998841,11.506924043477309,12.079944042977784,10.866542165244457,-1.17451281298304,3.9616591598801754,18.6209730330944,11.050989552523003
1.268,6.471355796925284,16.63046004512809,19.60113153296273,13.438737277438834,10.133077189522123,3.6784860088459337,22.454193781145126,8.634636356494102
1.272,7.609497868673349,19.312633665926427,23.81800194117177,14.41159559956444,17.589802460085323,2.201131151193824,22.709056884945774,5.342802412063114
1.276,6.969544470664999,18.78125072574815,23.81404511524464,13.360850585052244,19.991151479493148,-0.6149188359742808,19.149609414625814,1.0726413543102677
1.28,4.991757416675377,15.802081775661868,20.37923865259092,10.869248045869645,18.177676574417173,-4.092748108895722,12.906816528649651,-3.526218709436011
1.284,2.728449275960365,12.19276095749974,15.47225959620486,8.246252500205001,14.440612858796488,-6.992117079977146,6.009102144458068,-7.231292171229905
1.288,1.2540120598877678,9.825518448017789,11.194420694650923,6.871574804054145,11.296315112372815,-8.116648802467253,0.49707599581922235,-8.799720634332811
1.292,1.1165343940436854,9.65118358660878,8.812611887776317,7.484038618227943,10.24796691966001,-6.952710889261361,-2.460402806590294,-7.62553050039549
1.296,2.1042609199070803,11.24806627281302,8.276036097079809,9.770083723775867,11.132568821695354,-4.001022529052801,-3.037842335805052,-4.1602112468824775
1.3,3.404697467319414,13.091138103640805,8.387778101479206,12.452771064150252,12.311042524158763,-0.6112904754771196,-2.6069842494484154,0.13992151157683264
1.304,4.011395268361575,13.342924824547243,7.4526575161251785,13.826490772122295,11.536438885653503,1.5893130710701122,-3.0682273555879767,3.340324738755214
1.308,3.1674237014261237,10.751331985312788,4.083078562570827,12.504468412732416,7.07806006847388,1.41247424984577,-5.951061065786581,3.825764020020458
1.312,0.6656462126453642,5.235574126451908,-2.161205222239972,8.056794367722269,-1.4072491641063563,-1.355868461256429,-11.662884331349993,1.022244245867384
1.316,-3.071539923841252,-2.055355533371269,-10.502588244930287,1.2723646598845608,-12.598379613845815,-5.845932521761209,-19.190491229200063,-4.282282196729989
1.32,-7.1149228145224015,-9.18380623233394,-19.11304335273591,-6.0699078580568875,-23.907193299654068,-10.454379052821958,-26.377250102206798,-10.183730707876993
1.324,-10.31001949553523,-14.152734149376645,-25.66525775558056,-11.848096903811312,-32.370430405584116,-13.50401532653039,-30.68860603489837,-14.398630278673917
1.328,-11.640394680482302,-15.617400258689504,-28.107443646527834,-14.407848845083624,-35.686722847626186,-13.929837693718309,-30.17201662788007,-15.180527903597092
1.332,-10.58456056709327,-13.335994358414535,-25.424451068463124,-13.207852359125482,-33.01566081827513,-11.696059215107649,-24.25918268546622,-12.033868303451012
1.336,-7.354119034203565,-8.223475920275693,-18.10218239299762,-9.0311835250899,-25.259004410921026,-7.783158620458577,-14.097191929108323,-5.9318894278715515
1.34,-2.89494591391258,-2.0088640802527684,-8.068462255679368,-3.653651151408795,-14.718799365564909,-3.752197665763076,-2.246751801620919,1.064012514352576
1.344,1.415124486686656,3.3899090571018866,1.9485810224004831,0.9076507283531752,-4.248019992832312,-1.0688751746386806,8.172321078271315,6.625313696143978
1.348,4.289511998064825,6.544050649547645,9.425909226224428,3.2308387813410873,3.7656367366311043,-0.4876315901359607,14.569203369529577,9.063612806366061
1.352,5.06852061096098,7.0068735966944065,13.007979733876592,3.0381331051992673,8.186354162210428,-1.7589277030756891,15.783661830705052,7.950308542883753
1.356,4.0114810346403855,5.434774264176693,12.981739715824155,1.2100478370368808,9.375064210886158,-3.7883742656918997,12.436107864301126,4.193982733026266
1.36,2.1743005839467715,3.261865654448349,11.016742493727989,-0.7317423373580777,8.804828990562793,-5.172396980967344,6.580595524983995,-0.42372012606281917
1.364,0.8952257755668216,2.0485378758460566,9.276421983010692,-1.417260800598538,8.234813720052074,-4.863170123199739,0.8078938058827917,-4.026343254397135
1.368,1.1178724253322327,2.768630790016883,9.339296251374925,-0.3055885654870816,8.837832835469088,-2.6584669663577656,-2.8183211925469798,-5.376516532696094
1.372,2.89465818587815,5.350458310192325,11.466946781515956,2.079983335678792,10.691210038144868,0.7055162397883143,-3.5359341790990024,-4.26051453159875
1.3760000000000001,5.348422712893381,8.713512094451115,14.58585886557384,4.46642504678673,12.863757684187135,3.909398373750972,-2.028197569660634,-1.3968004611058626
1.3800000000000001,7.128205122098383,11.30325595999922,16.965334328320004,5.518599515320105,14.016945627842514,5.678337969861662,0.09000719373261878,2.033336049500865
1.3840000000000001,7.117142540937928,11.857766562609136,17.18452226214584,4.522301555158837,13.17609889171222,5.363233770758707,1.1537109667343133,4.971902741280462
1.3880000000000001,4.999279063586805,10.015293403836207,14.839243025998336,1.7015783184517659,10.244447261010121,3.1949751111169347,0.27124241904631363,6.910168505338255
1.3920000000000001,1.3896744995963635,6.4566667408532314,10.629464399072344,-1.9629628522634168,6.005278229878239,0.11410563383826655,-2.3034192491060943,7.98974839186153
1.3960000000000001,-2.526195712024922,2.5156259726363475,5.833244103063472,-5.281820052882092,1.6505594431111108,-2.7152980729307377,-5.407674060280533,8.775190202692517
1.4000000000000001,-5.627788088676082,-0.5363373937745318,1.5228331660750354,-7.448038279549454,-1.8811129686787869,-4.451663643468508,-7.651437609042331,9.853841188587507
1.4040000000000001,-7.384881303494641,-2.1184344840680285,-1.970212195178156,-8.33476891105403,-4.353668900911981,-4.893425204201891,-8.156919092409614,11.486332865223238
1.408,-8.002682012049197,-2.557799179092734,-5.050337804367061,-8.372939034283224,-6.225361697951285,-4.442731125365262,-6.993929050699257,13.473777219296597
1.412,-8.143590801209356,-2.8037261070611352,-8.378794224526203,-8.133031115548567,-8.226267109776584,-3.781052964884684,-5.119747951710303,15.263839094082403
1.416,-8.41000378329379,-3.7936515437728766,-12.239190982112223,-7.877803146862204,-10.774293070344399,-3.451853743573687,-3.862237487660052,16.226052676844297
1.42,-8.91724501069605,-5.8393685204435535,-16.16643900668447,-7.368769352528325,-13.588038798453965,-3.5790735110127363,-4.2269583818327305,15.951337266896983
1.424,-9.202166185741241,-8.388184584974981,-19.079906348287828,-6.035021277529601,-15.727982356971587,-3.856220493289412,-6.3749884497623945,14.433638822812995
1.428,-8.512520883489822,-10.296063041057238,-19.83732636625679,-3.3906380843594115,-16.054227553495274,-3.779387588831993,-9.541628946146712,12.06107535361361
1.432,-6.294958878015978,-10.464562419751092,-17.878271902399256,0.557088289362003,-13.858272353918839,-2.9725288015117908,-12.410103903226464,9.426687312897332
1.436,-2.5864682041828835,-8.483105219642699,-13.584213899946135,5.153594966008801,-9.333632545024773,-1.424700974763967,-13.729826342046135,7.049215256631428
1.44,1.924012738161335,-4.908609565007026,-8.145976663733366,9.30772298240462,-3.6149345999558222,0.4823663384495165,-12.886430059349752,5.139976857155349
1.444,6.1806671656327286,-1.0338258543453422,-3.0326729885733457,11.94687159414077,1.64108283211218,2.1392199648257657,-10.158014672460949,3.5184051644979526
1.448,9.206944470608363,1.7135909750014853,0.62090053738003,12.454786754738159,4.915079464010985,2.959963905444508,-6.552266360912658,1.7215758902361142
1.452,10.46805231215754,2.427274399955306,2.4004948891780873,10.866913228393718,5.423314086955701,2.596315967890683,-3.3352588132739065,-0.7283557185084627
1.456,9.978237942999773,1.1020830469901042,2.607942959139989,7.740397764580356,3.383524096948228,1.0268560884556632,-1.4854448560643985,-4.028693482188434
1.46,8.126249906244492,-1.4549193991702478,1.9333602536187438,3.7946540496847727,-0.1558350450771333,-1.4826924253206673,-1.3235343492444316,-7.909062437002132
1.464,5.352966579110823,-4.115572741020671,1.01766928381704,-0.46744809830609635,-3.824980693585908,-4.503671018089725,-2.4650858583870234,-11.658341932506303
1.468,1.8867354508643042,-6.0489922558918785,0.1470886627653062,-4.948314448720431,-6.530862629408587,-7.582226270991203,-4.090856790752283,-14.36951060114082
1.472,-2.3159592425795408,-7.139966170562163,-0.7994275994074227,-9.866860215914414,-7.875046693336916,-10.35269755120272,-5.378901606099805,-15.301105876822067
1.476,-7.3923404765946135,-7.9714282185112815,-2.1606895297715614,-15.452396688725042,-8.213146505846819,-12.594947089734777,-5.867663472928475,-14.199599670260056
1.48,-13.261661744874917,-9.386904280069677,-4.205046199663073,-21.585603584563657,-8.361763086660808,-14.221068605770656,-5.591753483829236,-11.410833055996902
1.484,-19.379679462617133,-11.887915216290569,-6.914807928284594,-27.58781661175724,-9.12432148857775,-15.221423753300181,-4.961645761920888,-7.717364193634341
1.488,-24.73337498603845,-15.224877350437914,-9.966353304118822,-32.301972855239214,-10.889519874731777,-15.600310386316782,-4.4967286513340134,-4.000746020503065
1.492,-28.100838552682497,-18.41269626116952,-12.884536904782866,-34.43512575158955,-13.476291247347365,-15.324900828506323,-4.565889722891862,-0.8941277987532938
1.496,-28.473929470175726,-20.16044715037789,-15.256107348457842,-33.0182637880979,-16.264623069934785,-14.313557064031631,-5.24060788043346,1.4000796519052088
1.5,-25.4577930852386,-19.500489610697166,-16.88153844877747,-27.790091181510526,-18.507293455840163,-12.481565355075933,-6.328119344941491,3.0438799986144476
1.504,-19.472041673552297,-16.28459450484985,-17.79413276717774,-19.35438278725263,-19.637624554946196,-9.839047058061634,-7.533126904289169,4.307168362808403
1.508,-11.658011212909576,-11.288506081147798,-18.1590206057198,-9.059415409880268,-19.43645283194829,-6.598588081932304,-8.612047142636305,5.287621985761296
1.512,-3.5199586381114627,-5.866071638412489,-18.108569266492033,1.363905836730881,-17.995203710831106,-3.2172416580761514,-9.448138379737527,5.7898240099504354
1.516,3.565129369737528,-1.3209916383538864,-17.604595730352745,10.277742853987998,-15.539344725879323,-0.3260366068372553,-10.01040868882651,5.42971091719566
1.52,8.769013747784602,1.667447329870659,-16.411678963628294,16.56491388560932,-12.253838480998319,1.4526094766260798,-10.263271709598625,3.902030022558362
1.524,11.992399164035687,3.2746552499087436,-14.19555735989364,19.870493957429495,-8.223671745056622,1.7463681391028354,-10.102236873356333,1.242656279940519
1.528,13.732285401039347,4.308175514170686,-10.715899869252999,20.56769291106293,-3.532207352009765,0.6058831668767919,-9.375746439783766,-2.093758746152142
1.532,14.713247703488058,5.669219864779298,-6.027760317558439,19.482398140316576,1.5678373115945832,-1.4889555108825439,-7.991555237606359,-5.400483820803691
1.536,15.463831318470909,7.809875844522922,-0.5827499461026001,17.49307125118724,6.556781725042884,-3.8172340856261835,-6.039898260182655,-8.0425816412492
1.54,16.054693951442477,10.48066835233827,4.835297456802236,15.180707754810278,10.713139100835644,-5.714475605875576,-3.8318200689575788,-9.744125714429272
1.544,16.105016496014702,12.880700626732947,9.320899836180596,12.663078373343511,13.33149738375615,-6.8427398980687215,-1.8110445809190816,-10.669596409618084
1.548,15.039173677702511,14.094546481075291,12.120270041200861,9.669381293127511,13.979651285258255,-7.304532874676232,-0.3773351708160737,-11.24679888597933
1.552,12.458623683970455,13.561015587073534,12.858484501702716,5.81635857109492,12.6581569140025,-7.535826431179482,0.2846950110026025,-11.828725166002835
1.556,8.439992082623675,11.339812550843325,11.645802842963906,0.9550301478116081,9.793633940269226,-8.019669629628584,0.2983164228735182,-12.383442145797018
1.56,3.606620017927291,8.056323111330494,9.025786061340895,-4.597556714990053,6.072268778880312,-8.975979628111334,0.046032262720117956,-12.415019164458851
1.564,-1.07722927045244,4.588603085850517,5.78787559300657,-10.080977218386655,2.208886300622101,-10.1992943054433,-0.013080999967586493,-11.179862442456063
1.568,-4.706149468332956,1.6782423555218058,2.7096024461217207,-14.585736747113593,-1.2473702630371548,-11.13875795033377,0.4386906472709782,-8.099105557941696
1.572,-6.838255771628604,-0.34432551550629853,0.29964903620579086,-17.486247501625733,-4.010999398792949,-11.195029033965941,1.4200564245996485,-3.15936866491102
1.576,-7.698875236434407,-1.6034529374570106,-1.366077229185147,-18.779720699527235,-6.054399418472885,-10.075517846660698,2.6243745485113568,2.911476229540862
1.58,-8.064165832927744,-2.512681219256253,-2.648642708318913,-19.11823297778868,-7.541882861736675,-8.00107047132567,3.543834764326987,8.800366788289093
1.584,-8.873033071554705,-3.529066010186879,-4.190927749859809,-19.490709150681838,-8.75088847629887,-5.652259746956597,3.683831745230563,13.039696469320244
1.588,-10.734929177943771,-4.951520436666521,-6.635632279165374,-20.67340266366993,-9.987397433993376,-3.8679409823798214,2.7671593213150585,14.537270488796263
1.592,-13.569662335589669,-6.82433503907343,-10.302680060033332,-22.725174585049498,-11.477152670603111,-3.238813791422723,0.8429595263812919,12.99001054548347
1.596,-16.541058113502785,-8.923210173249938,-14.936160315574831,-24.802952943312278,-13.227041735555863,-3.8007097652142887,-1.723798510569753,9.005763993684226
1.6,-18.337899098995273,-10.799878686108825,-19.652880916074437,-25.44322092496475,-14.914207687144426,-4.989598197509379,-4.37833099346799,3.886138025454113
1.604,-17.703712956822375,-11.872407154666949,-23.168973280843787,-23.21860549978586,-15.894362086693263,-5.9030296177384685,-6.561028355700798,-0.8379462085644656
1.608,-13.982892871126692,-11.552638554714498,-24.250539095979846,-17.459296988890973,-15.369514465713845,-5.737035710913615,-7.858019637149895,-3.92125780374227
1.612,-7.4293153389837885,-9.405475517404712,-22.205631683695586,-8.67399722337493,-12.680621734799638,-4.17182124768456,-8.079423013611088,-4.772631239524969
1.616,0.8486601092317851,-5.3195631932706124,-17.202626726828612,1.5501209838047423,-7.62382936556349,-1.5289284976356377,-7.242695755545902,-3.5679536264180385
1.62,9.286675757185266,0.3818071792171427,-10.247539118294194,11.138541348614854,-0.6300900553433988,1.3754312652481868,-5.485806341251134,-1.086614401207056
1.624,16.414965431392233,6.946972369920844,-2.817034683264125,18.31565700861439,7.288948809870663,3.586915503634448,-2.99086896774889,1.635869463285772
1.6280000000000001,21.291613297971516,13.33451497670608,3.6756252937754472,22.185740039115807,14.816448855994361,4.406081157044192,0.04131186135419429,3.688205441934766
1.6320000000000001,23.65302504625405,18.462801313602682,8.33932300000171,22.853449899923522,20.715971931874325,3.6455145551441936,3.354395769520513,4.555521869202325
1.6360000000000001,23.75706122407071,21.489937779956158,10.982554540439462,21.077928580057005,24.165234990635142,1.639460255468105,6.580136677024483,4.207003750680424
1.6400000000000001,22.0636762040088,22.023024569929852,11.952797417157635,17.71276428252707,24.90821662646905,-0.9518436217031128,9.246880516109652,3.012933894529752
1.6440000000000001,18.96740353998659,20.18717012660863,11.774273070467434,13.278773368299241,23.1958137412507,-3.418239650095019,10.888265631160843,1.5585930703236874
1.6480000000000001,14.721777932753628,16.54186329527619,10.80848317797659,7.897467524388767,19.59376364446293,-5.234139018998835,11.223473832771116,0.4478716631303419
1.6520000000000001,9.548674757221319,11.878874252078582,9.116669956285602,1.5563180707252044,14.75537593664143,-6.176722432878016,10.315660087830707,0.148929323283026
1.6560000000000001,3.816717148035823,6.993428976912872,6.577917591572607,-5.520059419943766,9.264554805483574,-6.320832245838739,8.610301286684344,0.8997054659381383
1.6600000000000001,-1.8894057060210372,2.485539468364896,3.1321388199093976,-12.691746385125368,3.564151969782973,-5.945722603033143,6.786018853012907,2.6469346033907355
1.6640000000000001,-6.901995025158735,-1.3566879888421317,-1.0306811728600507,-19.062538958463964,-2.043948971651476,-5.418928857800569,5.449724719212826,5.019379412800489
1.668,-10.736836364141846,-4.558745239466704,-5.459771954080345,-23.87960870005739,-7.35733493369289,-5.089079570022738,4.838895413044759,7.355136503757184
1.672,-13.334900696146684,-7.374480353663606,-9.628195416434153,-26.92421607507962,-12.23379033572471,-5.206746451220765,4.6783533737210945,8.825090836699635
1.676,-15.076910873976592,-10.11126959386043,-13.155300030528764,-28.593563692988376,-16.52442987412946,-5.86277143583908,4.319618590776404,8.69734071984683
1.68,-16.516246273599855,-12.920421689468617,-15.913295466869755,-29.58613395105403,-19.999390266120756,-6.937564912589448,3.1278152609142964,6.6659990543652725
1.684,-17.981900507153817,-15.650185642906974,-17.954455906322313,-30.383778802268544,-22.312972095838145,-8.096995930140189,0.8986871203966835,3.0973820842153605
1.688,-19.29216392699523,-17.836934554613403,-19.324046272955854,-30.856123929100782,-23.04638057272121,-8.869809976266342,-1.9211078740762648,-0.9716206395484486
1.692,-19.785834262883622,-18.880517747190865,-19.923353242513663,-30.269369307311933,-21.86130681742535,-8.80361296150776,-4.358932794784637,-4.163762276222258
1.696,-18.70206270895391,-18.343389862178086,-19.541882737912957,-27.734478953646935,-18.713088092630798,-7.641891116767096,-5.369815969458941,-5.333184240105155
1.7,-15.692955060803843,-16.219715191990794,-18.039185492992882,-22.83465792239507,-14.002891318391619,-5.440201890074955,-4.3807227287498165,-4.129268355783243
1.704,-11.163282969366238,-13.028078956882435,-15.548692611584729,-16.05615851046232,-8.551783319249337,-2.5681840852849582,-1.6223054859670416,-1.2454789762634977
1.708,-6.202997264735429,-9.64333188331112,-12.542997855642454,-8.741775914770788,-3.3632222141530317,0.41323970616992156,1.9271465525402576,1.8230999235724392
1.712,-2.1274314590885792,-6.9430482580198305,-9.68467251908334,-2.564465684663349,0.7324625756134591,2.9490877335195975,4.9825146294656015,3.4606805986074898
1.716,0.11515500768440035,-5.453987510575109,-7.5449872961988484,1.1789692083543322,3.3638495244415836,4.659890771629841,6.545604006235485,2.725163935815962
1.72,0.35783027726070094,-5.168299842607929,-6.34544624932502,2.0822168388887285,4.690460064169937,5.415156382404603,6.332526296970357,-0.15576149777343873
1.724,-0.7856719606361466,-5.621857683501033,-5.872047537623577,0.6839933736651336,5.2184902931164485,5.2974242167586905,4.829266599041031,-3.878075851917157
1.728,-2.3194177878025646,-6.179433774809256,-5.623394600348696,-1.932869533263605,5.46283115738942,4.503831430259691,2.9756609189262724,-6.728760319574079
1.732,-3.429428742815424,-6.37519099015717,-5.118267536001625,-4.752484614832772,5.645204851518441,3.242749605959891,1.6482972248208354,-7.492937237127446
1.736,-3.894363372354907,-6.132569064411653,-4.18662208678778,-7.303857444500389,5.586333021401461,1.6662813598804906,1.2289298532958426,-6.126559976262456
1.74,-4.118120008386673,-5.759047491067873,-3.0858683628670436,-9.759940912407066,4.8342056321715425,-0.14287130393343395,1.4759835995441248,-3.8133661684141416
1.744,-4.795927019538176,-5.745118507471487,-2.386724289656984,-12.654846771074327,2.932173460079275,-2.139217542283022,1.730054606741529,-2.356075082659623
1.748,-6.437338907309914,-6.49374503237103,-2.698202197906974,-16.432226167028446,-0.3352723631300085,-4.26240809941445,1.3118246497694,-3.2144612378497177
1.752,-9.019934730194647,-8.121497441085703,-4.366852601090205,-21.0834074205795,-4.82526511200265,-6.3855700590061195,-0.11392299344454226,-6.678729978030125
1.756,-11.957726450096287,-10.401626322865416,-7.279269594713737,-26.063198343736573,-10.06387650506981,-8.278354164005648,-2.3777319990027355,-11.625733544840008
1.76,-14.36278634536249,-12.822754784743633,-10.83508365533921,-30.477894929722197,-15.352954979258648,-9.59735114397098,-4.8817395037753935,-15.989074016156637
1.764,-15.433452642248259,-14.725621387172843,-14.103673179023918,-33.41952686606591,-19.887338169532455,-9.925564641711409,-6.840794974847951,-17.71672925226239
1.768,-14.771395713258487,-15.471184113576463,-16.10598733730838,-34.27685748659851,-22.862646145666456,-8.887165722743873,-7.56101718458908,-15.737310006029794
1.772,-12.502058548228469,-14.624099652177138,-16.149692914860697,-32.9152904407659,-23.61196206514788,-6.322170703213093,-6.66365954244019,-10.461443892397448
1.776,-9.196713794322996,-12.134925101152836,-14.118939261971663,-29.701427607149185,-21.805427655002813,-2.4689766786541982,-4.18910522098492,-3.586986015165628
1.78,-5.658973832912331,-8.448341090733557,-10.589293242550198,-25.385149295812703,-17.65698889698351,1.961360183637355,-0.584172922833841,2.6702236722389863
1.784,-2.6800121261155496,-4.455447797460931,-6.685960804038625,-20.881562728920695,-12.006564484787049,5.9209349181030575,3.410861857129575,6.533895062723752
1.788,-0.8219617853305028,-1.2320582090827656,-3.6854234662221126,-16.997993592606807,-6.142833202094151,8.367560533332455,6.95374074143237,7.363666435576601
1.792,-0.26847072487811907,0.370032564072325,-2.4956251104338607,-14.171878580134326,-1.363917353787972,8.688471326120428,9.332327280651757,5.793229018108941
1.796,-0.7775478638719573,0.11094171606955072,-3.2365312961707264,-12.318441381017614,1.5542692212095375,7.004309252413304,10.185333339768189,3.2954343916454376
1.8,-1.7452360303467263,-1.4710358481321508,-5.1367878358334425,-10.8686324382281,2.7088265072533897,4.185096288490552,9.628830854120036,1.4212690685375646
1.804,-2.4094289977704486,-3.2652772122698783,-6.858804013664736,-9.040019327267796,3.005828741419725,1.5094351148427372,8.202465129143949,1.079013430303716
1.808,-2.1493568055122427,-4.108327920857235,-7.134779315430111,-6.256070232564469,3.656428477385738,0.09858279989436725,6.647528675785529,2.169965996593698
1.812,-0.7802867986833988,-3.383623865950638,-5.417511387255474,-2.5297933806372597,5.464397611731512,0.3911377915522858,5.5812439089389825,3.714304093251991
1.816,1.3105340052137162,-1.3716218919718817,-2.195948053942006,1.4104763686907464,8.306215396570432,1.9232418201153212,5.2323913138475255,4.378964904064967
1.82,3.302575997482935,0.8781041405123151,1.2201173230407427,4.3800244204759045,11.127036060291676,3.5561842036159956,5.382764160034719,3.1412565563909
1.824,4.326853262144629,2.104950292850331,3.363400350049437,5.290314411458303,12.493687929236701,4.060357842506118,5.537484980912148,-0.21074057362832832
1.828,3.9303917915183035,1.5432748348624854,3.386344637967342,3.7342387440292324,11.426583222313834,2.761347191222376,5.242693393615311,-4.946835571085748
1.832,2.356740555369313,-0.6395475692760348,1.5121037594096143,0.27075291530474477,8.020174968539786,-0.0793214239067419,4.365229550354584,-9.674605822593698
1.836,0.4505969637438394,-3.4288474433855365,-1.0960869111865854,-3.7909987033073858,3.4754827672713944,-3.3528917864906114,3.155667699386663,-12.907445152218543
1.84,-0.7810098761658315,-5.5185821741839405,-2.97638773309247,-7.005234207820312,-0.48518264735459304,-5.625117669182635,2.063214047592263,-13.665953674643188
1.844,-0.7249861372517499,-6.0155921715566265,-3.1610787753158887,-8.481898668795719,-2.49995028803756,-5.831998605767906,1.426997874431458,-11.857274371419253
1.848,0.48063925893883486,-4.880677700474858,-1.6718468292937647,-8.278477963217735,-2.2419995199903324,-3.792187931711927,1.249525128841781,-8.27581384804671
1.852,1.9968406325216232,-2.875744015393926,0.5450241642630766,-7.272979400250977,-0.5037973772679445,-0.2905372369909631,1.1975052726833528,-4.22906443867408
1.856,2.7277716017129254,-1.0735450263343749,2.18279704596548,-6.602466550904672,1.3387894335462283,3.2973739288029886,0.8347366528478899,-0.9726700811212399
1.86,1.9300587343167912,-0.23356462866214267,2.30931590891041,-6.981593092228118,2.156151992766405,5.649758750031985,-0.04767412737348048,0.794058282878416
1.864,-0.36319921724159876,-0.4210052623887566,0.8524378720070671,-8.292190294783694,1.6957139352843873,6.085062859049222,-1.2192589261954083,1.1576189667867496
1.868,-3.333171531021684,-1.053081130873971,-1.41285832115587,-9.665807932280588,0.6616154082565693,4.812016520113805,-2.055861166022171,0.8535636443861314
1.872,-5.796324888309819,-1.3196412368582329,-3.3344238008547675,-10.000586868488366,0.21432051957751774,2.735144295563453,-1.8644234897374687,0.8488085534394365
1.8760000000000001,-6.8334320725952065,-0.694589191935199,-4.019940416323658,-8.61099841377443,1.20679082954892,0.9444138436334346,-0.31196536660000884,1.8315001992647524
1.8800000000000001,-6.262697639561852,0.785282137288559,-3.2697450894850624,-5.627105386812676,3.6281384119133726,0.1708897308432128,2.303827582274395,3.8546347946690864
1.8840000000000001,-4.695806545016722,2.6176959170496303,-1.584703507280234,-1.9167513840348045,6.5917428771016535,0.4909452725364353,5.107109904573944,6.3057583158228105
1.8880000000000001,-3.1673554149524046,4.194869049012525,0.19441916319462837,1.3910369693320446,8.847797300491166,1.407319601115376,7.004681863608646,8.191004147852388
1.8920000000000001,-2.562691276302454,5.159383032088907,1.3543842795879035,3.4893921814511635,9.50267764813227,2.2259801489034694,7.174150065621548,8.59696463481645
1.8960000000000001,-3.177784768135059,5.523221240220025,1.6099408681591878,4.24355736667398,8.511845086450387,2.495495873072259,5.436666044394368,7.116642140410049
1.9000000000000001,-4.630164830415419,5.510965618189706,1.106648254622772,4.136497284927072,6.670596004143139,2.2621510626509354,2.3333393161099476,4.040596193805529
1.9040000000000001,-6.150670257983826,5.270425202955954,0.19240749482353303,3.8721253322675526,5.125085590470952,1.9968473197678465,-1.139447958479971,0.22522080470798178
1.9080000000000001,-7.059669903393194,4.686281959954516,-0.8451014697750536,3.904392951234689,4.70622489208857,2.2521900330814564,-3.9740902464271084,-3.2824154262678644
1.9120000000000001,-7.144501380273361,3.43164679150994,-1.900452351322274,4.17271014882908,5.460261365992633,3.2598132531903716,-5.550766535487684,-5.682996624873778
1.9160000000000001,-6.7209655257675145,1.2439133891890932,-2.9683934291700553,4.193585239234294,6.6453586793157635,4.716213969049904,-5.80369657030524,-6.7129692494868625
1.92,-6.341475860087175,-1.7374409037605505,-3.939803162682484,3.4501945053837266,7.196343280973119,5.9091708053893175,-5.087678019716673,-6.651671183908746
1.924,-6.345026858458019,-4.809901184930267,-4.454812635796131,1.8283658601572608,6.369515396138689,6.1234286749458455,-3.859928738215184,-6.0699232707864965
1.928,-6.544305927549574,-6.861372752155319,-3.956671856992846,-0.17962645795479748,4.200233386096296,5.08181748523762,-2.3833731610159,-5.474809003540531
1.932,-6.267214602061214,-6.812435960967095,-1.9598220711259726,-1.6530808305033124,1.5167070440457797,3.154282577398911,-0.6356932014241234,-5.059978214024904
1.936,-4.751847133518255,-4.137038102289037,1.6128418529121191,-1.7129473983495718,-0.47796021705157243,1.1873650026295735,1.5427169542280668,-4.686721642876724
1.94,-1.6692054527095301,0.8093072947216502,6.236228620580995,-0.014408313941270734,-0.8169616279819942,0.05516616921606454,4.178986232976951,-4.087687455035905
1.944,2.5520792556324086,6.841961052757563,10.87696090571857,3.0284596125713446,0.7627885412405717,0.18230974409302325,6.9777145776426135,-3.1470540347038867
1.948,6.838337525308336,12.389877748545937,14.37084316356869,6.437316539626845,3.7471143241443636,1.323566532740617,9.35604382414001,-2.0645810956244137
1.952,9.97466076878553,16.109848841118534,15.90107681789248,9.176165114946448,7.156220835383269,2.728621715288373,10.709766198677496,-1.289559123747238
1.956,11.229503378400572,17.38899735103944,15.336864336224043,10.684311009481656,10.034847297280342,3.5919301109987978,10.756053756366867,-1.2598508068744074
1.96,10.758884651637516,16.529782870048443,13.27111526184516,11.147373891156327,11.861296166738507,3.5146493686447413,9.745234469371418,-2.10732845797249
1.964,9.531297521436569,14.537621253296644,10.735750460001663,11.345101344193044,12.677832634781003,2.6988851851429647,8.386257218709009,-3.521738159768704
1.968,8.78678957615223,12.620732051930203,8.739637209092631,12.159931030242412,12.923007023075257,1.7742768149367323,7.485055608109238,-4.877172720102679
1.972,9.314234804566528,11.630128630556102,7.85017823101692,14.019427694084408,13.09981254639275,1.3806584594478044,7.494654114486367,-5.562218963218058
1.976,10.960340294132855,11.699833808599912,8.000830907708984,16.588175418811428,13.478717634734064,1.7781296869750243,8.234255909449555,-5.323312707756564
1.98,12.674718001097782,12.25579203073022,8.607092571291634,18.90317799636964,13.994782821652144,2.737906308617942,8.96036106921591,-4.406209559272089
1.984,13.089787473403018,12.36827155576882,8.907537467077319,19.875474465639186,14.354309015773293,3.7651905684819464,8.778404357873264,-3.403459318334261
1.988,11.325198699552676,11.270919132769215,8.347994070394465,18.888725661501066,14.242105985264871,4.482774177150814,7.176917919551305,-2.8956655480389824
1.992,7.545415441346722,8.76632106050576,6.812308495712989,16.149277915570252,13.480607439746919,4.891079513554093,4.370415239198497,-3.108208947375611
1.996,2.9381961780343158,5.321491488327142,4.609823938981048,12.587930200334066,12.067933352239354,5.312190746954565,1.2343892493756075,-3.801599775480555
2.0,-0.8955847802179275,1.8128328551381876,2.2599620579417286,9.376474423388746,10.111790682324148,6.059001560568229,-1.1397619948515263,-4.460367176695591
2.004,-2.7834794462842787,-0.9203530103800146,0.22538306176435174,7.347220187413076,7.76327541842541,7.088877507529982,-2.021559216941531,-4.656520755803371
2.008,-2.5602987931849692,-2.4487532257990448,-1.2337119708136113,6.653099204511291,5.23935441033715,7.926233244240316,-1.4060919393458855,-4.336008293675969
2.012,-1.0726508168517865,-2.8784548805801586,-2.0475998898147045,6.831330318518316,2.887015895921736,7.952430107467455,0.040984436964958515,-3.8357379645178544
2.016,0.38301247081249246,-2.6804177108324696,-2.2265519632615463,7.197549327214136,1.2014196799969992,6.887200256111584,1.4079079481739896,-3.620873363887298
2.02,0.8551849036210077,-2.336296040394523,-1.7464600361244935,7.317075451662139,0.7267674332786751,5.134370845619199,2.075112511641431,-3.9156301251967256
2.024,0.2731579996175326,-2.0343293518932746,-0.5391162969123924,7.250006769830911,1.8181892356582103,3.7045928503829475,2.0428909714102117,-4.480068119784631
2.028,-0.5890407688948809,-1.5928268740419922,1.3927678504124936,7.425263825759222,4.377806532466342,3.677403083000481,1.8517692535590873,-4.711225860978965
2.032,-0.6824803737712113,-0.6508000983469104,3.8264362395890164,8.252858507969984,7.745132018251921,5.50512358989672,2.1594343569412127,-4.01587501048924
2.036,0.5763408931837941,1.0101453016989606,6.268465358004217,9.74439879743683,10.865872038505337,8.599413222059804,3.258614268967368,-2.2147322506315827
2.04,2.8702579180201444,3.2347335269724518,8.079768201770573,11.408227232632301,12.707301265496778,11.507906602107361,4.858788889628465,0.2863843278636713
2.044,5.124040295894947,5.499994130288013,8.737705665266034,12.503449456076083,12.727511410719464,12.64682351491535,6.275761904878426,2.699621416600204
2.048,6.150860991654081,7.174104462231045,8.109223907767657,12.507738145875352,11.149422877942701,11.197460247585568,6.916630174540542,4.329664184223926
2.052,5.391931689978163,7.853723773903588,6.5542399714709925,11.49024530523312,8.856614493819954,7.630917080175381,6.724981977326205,5.025786172999116
2.056,3.2864597642477085,7.564279946370844,4.76859993183163,10.132634314505632,6.94047669397989,3.522793371368389,6.273006490637011,5.304596801128842
2.06,1.0378540201683117,6.697293177178142,3.422467972783916,9.357998768400655,6.118957701842942,0.7244931188614432,6.407163454478537,6.023178711215957
2.064,-0.10894084601964682,5.716687374655541,2.7797906251783724,9.761606189453389,6.3350935841899165,0.3475907715902977,7.639787734491971,7.772513511815088
2.068,0.35744511335088225,4.817359179241173,2.507607199699175,11.17772538013648,6.755800148878855,2.144153381682301,9.656776567246348,10.343513004409306
2.072,1.8580021213270628,3.754141830599808,1.803554284647427,12.659348494849105,6.191329140916759,4.6439165823139925,11.283507969395734,12.631202704375585
2.076,2.9991520665554674,1.9592453403856125,-0.19140638142908584,12.903473668825558,3.7209812878636574,5.975271044297656,10.995072061259325,13.091928326294148
2.08,2.352065769976285,-1.0919057901210087,-3.886256127457047,10.92156653024991,-0.7882427202721753,4.897986667393507,7.731313304156991,10.545983271028884
2.084,-0.714396207999556,-5.482233846395107,-8.908513369620433,6.592724755720803,-6.531548733341494,1.4630316060633624,1.576256589136682,4.9066909029254235
2.088,-5.616856462384541,-10.651633160514814,-14.13287854228994,0.8061518210303431,-12.055162408627808,-3.0478538090155554,-6.078375008401171,-2.58270567308932
2.092,-10.7903974440058,-15.525358861082871,-18.08709543602179,-4.888177368449787,-15.836369571420168,-6.835102903308393,-13.013049002927035,-9.76821243766528
2.096,-14.464737584327228,-18.93585724681922,-19.57325115194468,-8.961893885723796,-16.88302747429376,-8.521324700207098,-17.09865864605034,-14.478757748986206
2.1,-15.535363851407606,-20.109300002384558,-18.197913864633378,-10.559317946251378,-15.077431185508663,-7.779800876671305,-17.182783110332807,-15.444928406083914
2.104,-14.062750904926077,-18.97614150421901,-14.558814913517146,-9.807952197851895,-11.152059438903905,-5.33316184600632,-13.528803970492532,-12.792544362029375
2.108,-11.149645595050567,-16.141914489671045,-9.98111020119693,-7.651732561754926,-6.333322788312696,-2.397017895975959,-7.618981001595621,-7.8757094624045045
2.112,-8.287234238588837,-12.554102803676116,-5.918991366202008,-5.315387984817747,-1.836353603089655,0.049291475479411595,-1.4380656187967642,-2.5694498300094093
2.116,-6.556016718577608,-9.059881957850862,-3.319548778592199,-3.7017323387350456,1.5581604769136126,1.7178230349381427,3.3819193298043504,1.5878154799793003
2.12,-6.108753439909597,-6.070320918297292,-2.240743811492295,-3.012863690314612,3.701856152576387,2.9776220466340693,6.139537886794082,3.975583266594076
2.124,-6.201011806546927,-3.5031636478323405,-1.9199610465955297,-2.768783138933539,4.9981380340036194,4.4208163653413335,7.136622912488519,4.937915553643261
2.128,-5.721959720931055,-1.0056800115588924,-1.2551208081004877,-2.179525038109246,6.100980667716899,6.352699371310604,7.279350766229421,5.341996205965477
2.132,-3.8988433914381853,1.696070859478112,0.5541907592105088,-0.6505216991923,7.546480903854937,8.54018641318729,7.463252195091682,5.9648601345316035
2.136,-0.7774174180652131,4.527363494340939,3.533612863249748,1.845960364577564,9.466583015969912,10.349187523248478,8.088390376186375,7.058897027298316
2.14,2.7816324858424633,7.032377597714089,6.875540981548899,4.724728935102561,11.497135171561695,11.154475422079885,8.93061383414158,8.31291898968758
2.144,5.559207728406305,8.580102912985447,9.319707043629734,7.068176349863204,12.908733607345546,10.736902787291816,9.374620879187995,9.173212391866542
2.148,6.615373969875927,8.686067588585246,9.77306546766768,8.070894787431175,12.901468564780137,9.410156459475816,8.846007705649354,9.26908434960935
2.152,5.752056947928446,7.263694772629047,7.843656033063283,7.414751911015606,10.945398313773287,7.817068694517856,7.182249676130016,8.670028371938596
2.156,3.5521535795217662,4.667658220849507,4.014236585174652,5.39242631331588,7.032276766217292,6.551135655527025,4.75764330591925,7.834399051490877
2.16,1.0219272584678043,1.536618858725598,-0.5999683689541779,2.7552797250580836,1.7487750619809597,5.8538906322355,2.3208860649043936,7.311724956784753
2.164,-0.9342196856956684,-1.4643055620487617,-4.761084741693101,0.38473484586886464,-3.861937030171474,5.571486970854318,0.639373340327192,7.408650136939488
2.168,-1.9005943138135366,-3.8407703293071576,-7.589596738178078,-1.0349435710206376,-8.591019525827658,5.361422443136043,0.16780831960844544,8.033545669950716
2.172,-2.0106336625666765,-5.3313268853357005,-8.793185378334178,-1.2110080732143995,-11.428533984504945,4.977835705909979,0.8884939899810007,8.79688726191147
2.176,-1.6981728813561339,-5.842911510137716,-8.579550153007165,-0.2584039014683519,-11.877712998226936,4.4308053856409035,2.3716717741726283,9.274529748894869
2.18,-1.3320033302193792,-5.353356836203208,-7.364621718942426,1.4189635036612156,-10.11390055445807,3.928611670127241,3.997142014025963,9.238890931103844
2.184,-0.9836206545320367,-3.888490550854722,-5.497783558691685,3.2912045709308124,-6.929351542338626,3.653347801704195,5.207614924855754,8.722818762207158
2.188,-0.4765808491664102,-1.6081401156421744,-3.185155628502028,4.8243918312406,-3.487800890547705,3.5457957861191436,5.668473276796902,7.8822774855018825
2.192,0.33904147151727626,1.070828077529419,-0.6147791963884834,5.550670750736524,-0.959545694471438,3.2754682927387315,5.279497187828128,6.783333640980759
2.196,1.3206888606950797,3.464587221788994,1.8772885503122936,5.1411688085662375,-0.11993535281432965,2.4369886422706135,4.099565644354524,5.304439603461201
2.2,1.9905169919151828,4.812409027643822,3.7815463915667107,3.5067235759313404,-1.064339905319207,0.857311083929007,2.268112668546858,3.231860080695343
2.204,1.7746805899064193,4.6134506178477,4.5967487384098025,0.8889355532985532,-3.167473285981684,-1.1956027705299794,-0.022250222197165437,0.4866926938973002
2.208,0.4081408562924992,2.94966214067745,4.125097687598625,-2.119256578284361,-5.325737090410475,-3.0599592891024265,-2.485046648197722,-2.677366639936024
2.212,-1.77185687761139,0.5687549040962756,2.672829686232916,-4.7027639897874165,-6.423429752792787,-3.9796187313878884,-4.714948699671826,-5.667259273774838
2.216,-3.8732979009069934,-1.3756900002217327,0.985751713480616,-6.106167217867505,-5.833388973517826,-3.5095016035416515,-6.250510664627226,-7.7705553590906336
2.22,-4.845768524365636,-1.83584117305722,-0.08545970016617899,-5.945856650766463,-3.7231123060100892,-1.7898653924244539,-6.719646381023531,-8.48159674902274
2.224,-4.036460732764864,-0.4004824893141694,-0.02662927941915294,-4.402887603466862,-1.008464014007223,0.47218811430932517,-6.027975981323516,-7.734533486128427
2.228,-1.584806317509484,2.4522161717304867,1.0570654541409654,-2.1704279022700064,1.0547293160182738,2.323714690182241,-4.472030939208257,-5.90856015859988
2.232,1.5901723656722258,5.533486804839243,2.495818000531174,-0.1465152211017937,1.4639273214386561,3.028271315915946,-2.6787862255854273,-3.5916872042244683
2.236,4.219773322928203,7.4763750840714955,3.412673804959282,0.9722184272171006,-0.048603173522254295,2.405307571998952,-1.3730272784998423,-1.2745455953337759
2.24,5.317532824159029,7.365165574602692,3.187074116820556,1.0005250846094285,-2.8950554247814013,0.8784352057244895,-1.0538311342092275,0.8319715539486623
2.244,4.670029778987115,5.137939936863123,1.7652003795511853,0.320122683587968,-5.940729716953099,-0.7833023344161241,-1.749714483993861,2.759525172215824
2.248,2.928638830873455,1.5796429112529218,-0.3387998997321695,-0.33672716033310834,-8.068756768949527,-1.8814201572643743,-2.9993433819987043,4.5665792094719775
2.2520000000000002,1.2467306488345544,-2.0876683994280167,-2.340475876381066,-0.26139747990187523,-8.71291920400628,-2.132904232612283,-4.091001657920794,6.114015522598096
2.2560000000000002,0.6652470160934079,-4.787945605721106,-3.585424392285392,0.89317683368263,-8.077997689597284,-1.7598250900000014,-4.451392549607898,7.005319089748703
2.2600000000000002,1.586332073125496,-6.039219562163665,-3.8238198912313184,2.9805916164967234,-6.9485416472970485,-1.3016327964754497,-3.9809564527021113,6.756332425262727
2.2640000000000002,3.591885702658567,-6.0738721999138825,-3.2467552363118353,5.462746434539175,-6.2228123099319586,-1.284831976452658,-3.1570782588438453,5.088991752915966
2.2680000000000002,5.695739215737376,-5.591903855075924,-2.291728529186196,7.670802517258992,-6.430628985911133,-1.927047545276521,-2.8153887952902217,2.165328408115408
2.2720000000000002,6.8668820186425314,-5.322830779983755,-1.3722239984807065,9.080594040333212,-7.495725736236825,-3.0448886765931618,-3.6941029811134545,-1.3914502138598426
2.2760000000000002,6.532044900537495,-5.642863919387267,-0.7018296175276517,9.469221039239448,-8.849008332619459,-4.203720563691242,-5.981883470490322,-4.72325547862083
2.2800000000000002,4.805572989657108,-6.428288144114971,-0.28496505658165017,8.908578791305995,-9.788268517559725,-4.996085456930585,-9.129327426474202,-7.100133735858839
2.2840000000000003,2.3478398333713635,-7.197499263367833,-0.03639846248603362,7.635524633861534,-9.861375926847668,-5.284762949711233,-12.052620252211698,-8.227720834283694
2.2880000000000003,-0.019474164826178253,-7.421296395156652,0.08583265572633358,5.9026822164757125,-9.0591087697692,-5.2700998252005355,-13.643243616517827,-8.338234054244102
2.2920000000000003,-1.7123660343676539,-6.828945405582163,0.022991248241429396,3.882876563831222,-7.7511071017066655,-5.3432097238563765,-13.327032507292907,-8.03340738435482
2.2960000000000003,-2.6030346942841325,-5.5611615666328085,-0.34398281240984474,1.6509011879582243,-6.435612820948123,-5.832623299058865,-11.38268262270046,-7.972608401228332
2.3000000000000003,-2.960103799948161,-4.095630017440854,-1.1002742163688044,-0.7645048859719785,-5.46950363801313,-6.788224592368772,-8.820105978742514,-8.562357958977422
2.3040000000000003,-3.181804675072049,-3.0063094763433855,-2.214277967217777,-3.298462172046223,-4.923695563477222,-7.922903273746481,-6.848880359377166,-9.785543720330175
2.308,-3.5053259773964127,-2.6838216905170795,-3.52237325732359,-5.783957135204779,-4.614915626728127,-8.74270863658381,-6.2185714861646435,-11.229326928938047
2.312,-3.8674916717079437,-3.1668315841125665,-4.786722274570667,-7.943644196518854,-4.2680566586903605,-8.796255022598688,-6.814796505428067,-12.282917097530115
2.316,-3.9868999356232537,-4.159641505568375,-5.783584189166497,-9.45692178249488,-3.7052275549315388,-7.921446382222706,-7.742927856454331,-12.409394191134083
2.32,-3.598854136210364,-5.217007932951239,-6.384781591080356,-10.08512219521385,-2.973224645489739,-6.354781969656185,-7.890963634635541,-11.392118685798867
2.324,-2.6818447229953835,-5.995182346911413,-6.60242003800586,-9.8003183383993,-2.3609624565596565,-4.648273842073722,-6.649842179689246,-9.458154908147636
2.328,-1.5145646499652305,-6.415347315470749,-6.5667790767394845,-8.831108519476453,-2.2857227876203243,-3.4279174904092766,-4.352170784436279,-7.206744811253753
2.332,-0.5247199320681746,-6.658142997646601,-6.453746195885552,-7.581876001384439,-3.103276438146513,-3.106768239883408,-2.1513245535924246,-5.375476136934939
2.336,-0.03098871361453126,-7.003664322193041,-6.405556179648139,-6.450980845324417,-4.919387600157071,-3.696138752876316,-1.3899258107667927,-4.535948687852713
2.34,-0.0332640290976709,-7.603609280137077,-6.4616166039154415,-5.6222992605346525,-7.465575972939531,-4.792848779673522,-2.7911164247687568,-4.844202449911604
2.344,-0.19757087590103817,-8.332967231247885,-6.533960914980723,-4.957781679633303,-10.11388265014029,-5.755115442626433,-5.9621334441649525,-5.966204018641713
2.348,-0.06123643153691427,-8.818302270010033,-6.458935591008299,-4.083440636772831,-12.064451157282527,-5.991124500753298,-9.547807555785568,-7.246843642736438
2.352,0.6581263919875813,-8.643947825853054,-6.106012533148535,-2.6477838463796126,-12.65342667361401,-5.230357970013364,-11.977374789373776,-8.049384762616732
2.356,1.841764398476209,-7.624660100501509,-5.488160657705075,-0.6146585186666402,-11.651683451562333,-3.6551246783143663,-12.369061650504602,-8.08606732668223
2.36,2.9944680895085556,-5.964827413101101,-4.791642272463936,1.6021996361437605,-9.399778338396676,-1.826320208557148,-11.047715478028174,-7.552669720753432
2.364,3.5245929524676476,-4.191391364817301,-4.271087533240858,3.2846254219468527,-6.664218554318295,-0.42913368808974106,-9.33527562777788,-6.969017974829862
2.368,3.1090498923046423,-2.888291634058966,-4.063814839920735,3.780831863153048,-4.271417255704895,0.036382030074656346,-8.723321863301543,-6.823098395422511
2.372,1.9173258557302835,-2.3859186125278113,-4.030000539696543,2.9074498293937343,-2.6972209002009504,-0.5249309218877694,-9.915633963111095,-7.224849374219886
2.376,0.5521280063596159,-2.587138012056182,-3.7435582366900717,1.1371528393000778,-1.8406609439677664,-1.7656669481646556,-12.329754340744405,-7.78890956063051
2.38,-0.27617282209576155,-3.041925742066963,-2.6899263782300253,-0.5757936694923531,-1.1330941923371762,-3.0552474533398866,-14.39104396946339,-7.843581249765836
2.384,-0.1587978776053256,-3.2344170588375136,-0.5906168242285692,-1.266303442490114,0.06358757987386543,-3.7583083048795984,-14.472197924667206,-6.8445685054429894
2.388,0.7867440055206756,-2.8861538520473475,2.344803824204555,-0.4592299480228714,2.0136144221870964,-3.4869787842906255,-11.894923812308482,-4.7310818073253404
2.392,2.026517688389583,-2.086679585932119,5.418890382894247,1.5924579905361034,4.391618687767981,-2.2120895927436655,-7.3815085047174325,-1.9861159382174867
2.396,2.9774550081040356,-1.18213846319314,7.744933698700265,4.066970457778863,6.450074980727783,-0.21191244574920098,-2.66554935848153,0.6500494187742207
2.4,3.3836108498196777,-0.5212334201796631,8.693693925521234,6.032123426037011,7.4697714587471244,2.0892102305814975,0.5052556929816949,2.6241557161394202
2.404,3.4421637767372815,-0.25335617347894157,8.224355433894235,6.923868956149033,7.213299613926694,4.292597751038542,1.3611770171822437,3.876428689503315
2.408,3.594840954040398,-0.3064048623366151,6.897194272626038,6.7708635864443965,6.090443310839731,6.115007878894054,0.4904084308462715,4.802395171407939
2.412,4.128657452771295,-0.5527800090442772,5.545070720019941,6.06249717560466,4.914778470222595,7.387926178004047,-0.6186604404403273,5.8967082618350375
2.416,4.866635502152507,-1.0184099152834105,4.790308484304427,5.37873770389921,4.400973249276259,8.00733061143711,-0.581192881310193,7.3259055896568075
2.42,5.203158232076961,-1.930701457600371,4.714491087442443,5.049266861128668,4.726091790515096,7.907667387648084,0.9913412540438842,8.738377473396593
2.424,4.499345243684326,-3.5278385093630513,4.894341985012075,5.061166778517811,5.441920663852512,7.095678857858649,3.270342905310981,9.477582857853749
2.428,2.6041693634506924,-5.734516875053839,4.781526430794978,5.239056403471144,5.8125579166921915,5.711884414209232,4.794107959638146,9.07209343493846
2.432,0.12702767383829783,-7.968475620278099,4.159039503952205,5.51398032886584,5.340450457936551,4.045597800599769,4.456347724180343,7.664360791144803
2.436,-1.767845438948938,-9.272519326575111,3.3623713083923015,6.057751667885613,4.136904896517969,2.4741031963688807,2.271394035828206,6.067237806695787
2.44,-1.973213728095995,-8.767476630915429,3.1013762553918385,7.1599135160426375,2.8870074197735054,1.3350172191193506,-0.5811828361939151,5.352926979492173
2.444,-0.12257575426624223,-6.205098529489921,3.9625399268883603,8.924470796693036,2.4058229454518876,0.7900446098760432,-2.461375316010379,6.201732355834424
2.448,3.0904732096755945,-2.263326114185367,5.925137227171773,11.024620800251856,3.079024242825071,0.7681410368608322,-2.2604008803084956,8.4163575249815
2.452,6.198648252742033,1.6564705543921077,8.233695858632213,12.736787458707482,4.568981826581302,1.0394431594721962,-0.054537117997282336,10.939471287572964
2.456,7.718040278579111,4.073124536385682,9.746270492245188,13.280139219981365,5.984619757152084,1.3672123400742335,2.991328539772536,12.415482492358393
2.46,6.958287374984321,4.182968915067274,9.583119627143471,12.277888959214234,6.426451936076781,1.6444625067500298,5.38039684645827,11.981053739093204
2.464,4.395948902709492,2.2783848823965003,7.67965625034185,10.032101438460074,5.564896796565055,1.9165667145284844,6.207931182225806,9.809504778359251
2.468,1.384337894382868,-0.42974053589588945,4.881002597895783,7.412969984879958,3.8724884796068535,2.276504273680782,5.661760593804129,7.063197083244576
2.472,-0.623630876482629,-2.489398136572027,2.5045086024985457,5.410303248072003,2.359849598476495,2.713057240286961,4.7986591011779325,5.271204067263271
2.476,-0.8899449015786147,-3.0019100437097994,1.6086852353987227,4.5980902754393105,1.9762483511322548,3.0269616103377377,4.774450186846632,5.484460449391636
2.48,0.23780782829785974,-2.0719389436270483,2.395331520780034,4.835536647417536,3.0429290612374795,2.894009467696891,6.041500803569733,7.68988114359609
2.484,1.6153591526073543,-0.649569911658574,4.1078639575767735,5.394747956874868,5.07690382650404,2.0678700816928637,8.045213042004587,10.83537640402653
2.488,2.052231997037715,0.127557935603964,5.482705029892186,5.430638266537825,7.10227767300991,0.5952196687047113,9.607687705731841,13.427114297803634
2.492,1.0628512272995554,-0.3196629261117261,5.488815050013901,4.514505340428915,8.25017135952821,-1.1009990228572133,9.739337345731812,14.348715839719143
2.496,-0.838396252149618,-1.6360422912652695,3.9217604699829747,2.9046059408363787,8.266977596425068,-2.348169189295718,8.33182140777971,13.43387829838708
2.5,-2.460580867334895,-2.750813780108877,1.5246710157932415,1.4029973153117945,7.626684676189562,-2.526163231296541,6.291394167414147,11.478470468103861
2.504,-2.66790046745757,-2.553465283487544,-0.41964989745731174,0.8944900039651928,7.191597211813519,-1.3976817309464078,5.024675453474381,9.715842304465575
2.508,-1.0789103751713882,-0.6055256834462526,-0.7766476720853901,1.8385929617031347,7.650374629590752,0.7164754913786355,5.594294908314907,9.084710202755003
2.512,1.685655124836447,2.543406538079846,0.8677985492585982,4.006178312851077,9.092308881060026,3.020982627548424,8.061489751403695,9.711408331427684
2.516,4.36281300135938,5.640747688726077,4.057328023209756,6.609725785026399,10.99408811127115,4.566482493599341,11.431926279556432,10.892568202306002
2.52,5.775417711274278,7.438216756118347,7.770475408800898,8.72345614757468,12.595464177347953,4.660042921856203,14.232775619186931,11.554133204403982
2.524,5.496844200741615,7.392168543327529,10.966284479632833,9.741609439726723,13.398939787154806,3.169353046345786,15.35609395399594,10.892186499664923
2.528,4.084658492857208,5.960729651005605,13.056140170011444,9.641042490053,13.475772544771045,0.579552213945477,14.660258360737432,8.835380709871682
2.532,2.752767030986897,4.318728713373985,14.05857085309054,8.928526904259934,13.377280317815094,-2.2152308894691997,12.981046567821032,6.0797265664686915
2.536,2.6687112820800483,3.6590281643521285,14.397384893357152,8.315101719418685,13.70862254766691,-4.287806025322659,11.560521954354911,3.6957066388072906
2.54,4.2853744533624605,4.49703372754262,14.521043789171229,8.31906422620399,14.647173601951668,-5.039945209303759,11.252348077108664,2.550796708956821
2.544,7.055702585757686,6.357341264209566,14.577606191621499,8.992043485015078,15.719419631834835,-4.399366427660398,11.985036517623545,2.862609169898268
2.548,9.694553139570097,8.034005588702215,14.340897829224586,9.89987120474728,16.00635167800328,-2.784195643260507,12.802473808662345,4.120176131453366
2.552,10.840000080453638,8.265133183218307,13.400187026367103,10.3524643835092,14.669880049564082,-0.8718973475934417,12.454302578712888,5.395655383000711
2.556,9.77085352694914,6.448737322778232,11.482176385067504,9.77415287843352,11.50948138204104,0.7062234365186404,10.194798171104317,5.871542370681769
2.56,6.813251737496112,3.0139139898704927,8.703577116454511,8.029863148469834,7.209210443926773,1.605008739543556,6.330804821161679,5.28748707730543
2.564,3.2178309243892613,-0.7589441650885398,5.606911681205018,5.5430972900391655,3.112788716872429,1.8442620115853972,2.1906870862729906,4.070958688547721
2.568,0.5618272626482995,-3.3668251172511194,2.9497879819184263,3.133107800951589,0.6154251111280455,1.7110516892148855,-0.4949025875170563,3.078223700461381
2.572,-0.03553704322479656,-3.833520193966764,1.3575789642314928,1.6279896189276237,0.47744486425181476,1.5541243826483229,-0.4726607886721683,3.0887231944773452
2.576,1.5098334223705285,-2.1796549779962824,1.0309322209408025,1.4329719172099207,2.433494184880243,1.580448512642246,2.3592276847796656,4.337054241101442
2.58,4.180237347347539,0.6319273593351671,1.6721723005679272,2.2846414256630627,5.316715729134397,1.7623772122032921,6.859174746247492,6.339767614351681
2.584,6.340566796167605,3.2167941835429343,2.6523565717299693,3.341460887163763,7.632227896337556,1.8951839452211572,11.165778072679974,8.114146378167753
2.588,6.577038992427209,4.495851540101766,3.358277577225672,3.6265746537043357,8.307679090192,1.7800722575976256,13.582712209437755,8.701121986854904
2.592,4.477559309560368,4.246653945213211,3.543383349006508,2.6267695756285585,7.242110798615271,1.4176068690985755,13.384725200840528,7.717091823157324
2.596,0.9326424881942508,3.1739501514420327,3.46987809924871,0.703432351557896,5.358356774591742,1.082075671462377,11.119678002084243,5.61724280633569
2.6,-2.2248904874234388,2.4783679775998797,3.761939206497394,-0.9558826124753566,4.1209011010743035,1.2183933718323496,8.265857099101584,3.503657955395938
2.604,-3.1100542550218213,3.152312734509252,5.024389858331245,-0.899072436344551,4.75811192549764,2.1924332614821567,6.431727742825224,2.5588186179239614
2.608,-0.7717399996325254,5.392276820585938,7.424677578244536,1.7660226842443727,7.581698084555106,4.0314507031988835,6.518209450988023,3.39297903346868
2.612,4.227782994212595,8.437290892854175,10.466173383996706,6.715322162211885,11.742530436735214,6.308138683505737,8.278041246339871,5.649473026280455
2.616,9.957791937671345,10.914558654291705,13.096028441613152,12.321975224493004,15.552865826923462,8.258062416511532,10.480115875566591,8.100338838178725
2.62,13.959757739614208,11.519928945044796,14.136241656945625,16.27438032067395,17.23540859664355,9.100977511618966,11.579941695896949,9.208892793295531
2.624,14.395068455365926,9.677424374170608,12.848989715169497,16.647654363104664,15.742473558085436,8.423512222241985,10.547222203217432,7.894128449989117
2.628,10.942251071672224,5.853479726950187,9.366769415181327,12.908102144805406,11.28145502720142,6.4227616869024375,7.423360108072052,4.118535169211663
2.632,4.976154886265549,1.3548798802119264,4.73514901154107,6.297068578041769,5.279889826460408,3.866222048363334,3.329710188710901,-1.015726955736063
2.636,-1.0769372233072518,-2.2728104192150274,0.5179295594913129,-0.6592922818073261,-0.19225630151315531,1.76649977998497,-0.07045549448600363,-5.7244962396629635
2.64,-4.872327590330585,-3.916977146438759,-1.8606247326413872,-5.288080823185049,-3.26761826862241,0.9211253470391239,-1.3728385112898143,-8.333727255706451
2.644,-5.203425889041032,-3.316731327537979,-1.7287713137357974,-5.993135540760669,-3.019092060685117,1.550440120452585,-0.08787860782637313,-8.021315717827637
2.648,-2.4681962128095973,-1.0592665043850396,0.5575596155539801,-2.9510744040123904,0.21787026880567328,3.21105452472273,3.149537683048727,-5.167922930664361
2.652,1.6727555457145904,1.8002764660782322,3.81603168906189,2.069954823935324,5.054279232468342,5.029163136222616,6.899396178286071,-1.1585461033345759
2.656,5.219919071069948,4.253165240426819,6.607556304507066,6.6388643570467,9.6518973936274,6.1276805297726735,9.576931974403252,2.250326618696035
2.66,6.826988849693157,5.716817474053904,7.897162268786354,8.83702628554145,12.444948903897874,6.033362961102263,10.14756521149135,3.7009487834046197
2.664,6.350869088171486,6.122462706590284,7.472888909336168,8.074869148072613,12.669363077641222,4.85805570429447,8.52455804297195,2.7904007504278185
2.668,4.71949920478556,5.734434568246229,5.926191815796653,5.167184515021543,10.507775896339364,3.184281559866209,5.515960581862257,0.1689174184043889
2.672,3.2536695788911985,4.866699080625336,4.233014752771365,1.7082644697452065,6.8459138642231,1.7330995056671146,2.3805176581239715,-2.829518342508784
2.676,2.8684719016452367,3.691270911165002,3.1852314929306536,-0.8367612698781473,2.82023585311911,1.0112315725899113,0.22876665408152008,-4.820789223265259
2.68,3.6051264678408566,2.231964231266852,2.9766817093927243,-1.8207218942228518,-0.6239129769453902,1.1162884305638487,-0.4585395616305652,-4.986755699103088
2.684,4.725114980908382,0.5027825794669774,3.1558144168613858,-1.5492746305415286,-2.992367279422905,1.7732541144662828,0.015794150867211698,-3.4047532466374495
2.688,5.27196077204197,-1.3259615003536993,2.9721608812916287,-0.8621174304854007,-4.23800857246224,2.5527213149820716,0.7897757577325413,-0.9532211895882439
2.692,4.73367482910105,-2.870959096918064,1.906924748533854,-0.4819236041567283,-4.565135863132428,3.119674169720234,0.9180728372900903,1.1334448802447126
2.696,3.3931278553600075,-3.65095514052906,0.06581452674296262,-0.5518960846957972,-4.1978673295429125,3.358233975209666,-0.12438441206899198,1.831990133764207
2.7,2.1744222314692285,-3.3002683245005824,-1.7870813849465472,-0.6079252948450025,-3.2362670663373994,3.3328730815098795,-2.136456814999538,0.7712120165069685
2.704,2.0837501396657743,-1.7747794583984449,-2.6008081587147323,0.03633340639103588,-1.6667606006434346,3.134585994774304,-4.247959800335096,-1.6540446372827828
2.708,3.5882089124851246,0.5732229628464238,-1.6175364398846566,1.7661709635356604,0.5122463264710042,2.733451033854043,-5.320391120990074,-4.528367495913437
2.712,6.30956158829628,3.104136755048058,1.1724310347112155,4.350040586089897,3.1561413959372437,1.9758419161578125,-4.500738420829782,-6.865522376213424
2.716,9.209707373073304,5.133270412832813,4.956174987121139,7.016755873995123,5.926304048068616,0.7294071495357084,-1.6659877169687967,-8.035779654058544
2.72,11.17841800914414,6.205172506492412,8.46761654714832,8.877567247119114,8.367061972074138,-0.9219452780796697,2.460734070416864,-7.973629732343122
2.724,11.668365592153634,6.265004091554399,10.601975360970574,9.425694692446411,10.068474385612895,-2.591669050259235,6.586780070328895,-7.085778732756054
2.728,10.990462520080937,5.648521297748694,10.946278215734248,8.80144361118853,10.828764781997819,-3.719824363038374,9.398594978685164,-5.953116117015318
2.732,10.093207327109399,4.888933799234533,9.919631228696506,7.665494098509322,10.713142565642329,-3.878667182421191,10.11745536176741,-5.025766004547127
2.736,9.950827328172407,4.432206760503781,8.449425764967073,6.76237335461231,9.99061724797563,-3.0945689472931353,8.794243630770822,-4.477763500120532
2.74,10.918704267902298,4.407177489836084,7.388284429859834,6.438919528037131,9.000207985921422,-1.9756140488067473,6.206682140432154,-4.273099796522405
2.744,12.437247877537281,4.551959821780526,7.00715893871785,6.401715604433906,8.01480683731524,-1.512505331126773,3.4250963492271715,-4.357478017775996
2.748,13.290248148814067,4.3619464688499345,6.879946799003455,5.87195992420558,7.180632221562586,-2.599624514934884,1.3197503781665547,-4.801739941355599
2.7520000000000002,12.298254769559179,3.4042617427259514,6.23150034128514,4.07151666727152,6.559317544258711,-5.492888906778359,0.2494105365381437,-5.766293115058841
2.7560000000000002,9.048416839927336,1.6225820086358587,4.5216545009507145,0.7521342946757446,6.203120174001722,-9.518499827762488,0.05756880182642776,-7.312553809752574
2.7600000000000002,4.247314237594571,-0.5336630965148315,1.9017780321060416,-3.5330987376664074,6.192103302288472,-13.238720728795165,0.3343287285419325,-9.206180687677644
2.7640000000000002,-0.5348040707624144,-2.2617486927307957,-0.7687797513684376,-7.5942119429716985,6.5847149076734866,-15.045523124371014,0.7305066352234064,-10.886639198390093
2.7680000000000002,-3.61253293391328,-2.786846960174124,-2.375715390663098,-10.14074991285488,7.307098220069907,-13.91976238651847,1.1356474575225686,-11.679539768862732
2.7720000000000002,-4.013738348404102,-1.777459916298202,-2.2029793007267116,-10.403183328786744,8.081715760064009,-9.955742804673822,1.6428840190636096,-11.148806011809366
2.7760000000000002,-1.9390524029055807,0.4336824546746796,-0.38512167797219954,-8.510051653626197,8.477641468008414,-4.370616899666061,2.366343572815213,-9.381633384252954
2.7800000000000002,1.4003814704712578,2.973888431739795,2.1385893051165294,-5.4135954807315025,8.097341869596432,1.034966152659179,3.280400039463153,-7.009508128007789
2.7840000000000003,4.458565917674202,4.8465304984892335,4.145217802827631,-2.410568621464199,6.813886042873314,4.691788777699984,4.204699837264286,-4.919667802247388
2.7880000000000003,6.1477484574301,5.42027943704257,4.814185451918238,-0.5206912920007376,4.909792765848833,5.931976293870907,4.927276394056108,-3.8126851464486915
2.7920000000000003,6.303268943614835,4.717981827706717,4.15294451836829,-0.054049870459487614,2.999241396865412,5.180894309183186,5.346743425163083,-3.863873359584264
2.7960000000000003,5.583074987940141,3.3393205097805514,2.9083304550910873,-0.5845004816470389,1.7600673461075886,3.5895558449050005,5.520732104555044,-4.67972631148867
2.8000000000000003,4.904142243063472,2.0604644220228536,2.027133166827528,-1.309730067652625,1.6049143257250975,2.3468111665003537,5.575535895185248,-5.566899932211097
2.8040000000000003,4.79396435512656,1.355893807446713,2.0236335077748864,-1.5602435079313415,2.475979987640717,2.071724088196974,5.560998333659116,-5.923625626897674
2.8080000000000003,5.076438021795964,1.1573322116667748,2.6795816382391893,-1.1476702440753623,3.909977187341158,2.621433411197663,5.394941787587074,-5.505234211319893
2.8120000000000003,5.054569436930382,0.9811131083686618,3.2531403460956474,-0.38448298249196045,5.320876646889303,3.367279712342897,4.950664916231161,-4.427609233453888
2.816,4.034272877491441,0.32653025683526327,3.036072107470039,0.18615282100037367,6.3160109505905595,3.70539580577508,4.218564484499298,-2.9632182420851114
2.82,1.8435667625735328,-0.9145835827753126,1.8814556375008815,0.15482063314163946,6.8530523062736055,3.451549631596445,3.39450332915038,-1.3195375714248678
2.824,-1.0124456118547904,-2.3378893373728986,0.3177833979631184,-0.5496547009917772,7.1206092080909364,2.8674932554953365,2.765756113530102,0.4023133740124103
2.828,-3.669677154317826,-3.2954042682928475,-0.8462307898680645,-1.7367384219832624,7.231301251142972,2.3217711735980457,2.4089069007002135,2.02775050271547
2.832,-5.468939538667612,-3.376252556121389,-1.1542255357872273,-3.210467791970336,6.957433775373749,1.8537047229967267,1.9140061799238457,3.08042226334225
2.836,-6.392461673819728,-2.7715572285975245,-0.9272717017562906,-4.988834414474367,5.7273941486871305,0.9843993255988218,0.38512575895290424,2.7550679926965795
2.84,-7.068136920950733,-2.2448601846124445,-1.1485921762594096,-7.289919362495226,2.9495666998139,-1.0460482986790898,-3.1579326217924004,0.23604029263330029
2.844,-8.306203103784895,-2.6659723171034173,-2.8198275821069823,-10.255404360217376,-1.4907062226263,-4.725357828893027,-9.119488716745792,-4.741856209417271
2.848,-10.478509537993345,-4.38396329980729,-6.181364020760803,-13.610182574786505,-6.883535049720775,-9.730666223901162,-16.790338776249957,-11.42300828723586
2.852,-13.157871086057733,-6.8528489520880616,-10.32295817817383,-16.53587930320481,-11.777479607490076,-14.785830920801185,-24.318668926559262,-18.01096480920262
2.856,-15.260070862815919,-8.781816239233011,-13.482828387108803,-17.908172893254402,-14.519400689647561,-18.073666886418273,-29.318925076914255,-22.224378505640367
2.86,-15.62867576627883,-8.779625648167112,-13.923003245645788,-16.827586460737265,-14.006441752912728,-18.03304792409678,-29.895252038068456,-22.229882847796308
2.864,-13.74209075940684,-6.169609642689166,-10.913166124459062,-13.170649424300233,-10.265276640689851,-14.140223232733558,-25.581445397685748,-17.49639131121418
2.868,-10.097021490168459,-1.4836561320446089,-5.228298488683327,-7.807020338368031,-4.520622351014147,-7.245858407359092,-17.659713776002274,-9.103002680248174
2.872,-6.019706645788562,3.690074139641745,1.1623080662913998,-2.299089757492767,1.3271213511966762,0.7199350870050748,-8.653799132863316,0.691654131778404
2.876,-3.028536768063901,7.430348498165271,6.026532305874409,1.7690835383304941,5.5308586855060975,7.524133289088724,-1.2468145498660403,9.391036180950131
2.88,-2.1057005297819593,8.403500693792507,7.920608028741218,3.4970706089739627,7.213758449748403,11.51373075534927,2.8348090760932343,15.232508117481814
2.884,-3.266385740890855,6.497865849443837,6.79979009336939,3.0365889982371534,6.633376013415932,12.180818223737408,3.4133425490757796,17.7193468381656
2.888,-5.657114002496632,2.820610053471606,3.8648294788799284,1.412995037242097,4.8730723592634195,10.17394053176071,1.653414631574712,17.490352685239962
2.892,-8.078981401826875,-0.91543209188651,0.7933626824015458,-0.07710345624786985,3.1754806296468283,6.8338941930288,-0.7594563980611444,15.700903286861212
2.896,-9.599859937632425,-3.2496172198493163,-1.1572456071576456,-0.5387460463364508,2.319699565037241,3.5494882187691,-2.549791162124021,13.338136657156689
2.9,-9.903539864039043,-3.596437819535586,-1.665413226449381,0.15952375815394504,2.3657471516403685,1.2694453742702292,-3.3716320251904675,10.875042556385342
2.904,-9.231442963845172,-2.3418523125498067,-1.2389956134831355,1.5017001756345065,2.8438868624426976,0.34809131807881877,-3.6908069186578167,8.394782673856145
2.908,-8.039838929091236,-0.43943605327740687,-0.6534898263472155,2.783354839737643,3.2041351220976746,0.694053530522326,-4.199079751649661,5.983497739323109
2.912,-6.644966044317167,1.1973232079276508,-0.3537284205540716,3.595702108878405,3.202734181538149,2.032026547373634,-5.1995612297962985,4.0397767992417855
2.916,-5.091320670177766,2.1444772388776774,-0.19946832590304586,4.0367629243436305,3.0052748318970917,4.090701891578739,-6.368884137447708,3.2398420100117193
2.92,-3.293698956162535,2.5378016920296087,0.32110594278411164,4.547562897336606,2.988785387231375,6.627543029783852,-7.0095665910814215,4.1575955621041985
2.924,-1.3019862779604563,2.7984200256436647,1.6005555980939628,5.517326667295835,3.4194715714764823,9.342693519152897,-6.594841917562286,6.806417743311626
2.928,0.5504043496375752,3.264125971184056,3.5098304883013256,6.952036315063434,4.244960642916697,11.811812901829255,-5.204424126315036,10.438470154365021
2.932,1.7526258040314815,3.9835311183985618,5.372288929776054,8.438784374338766,5.142727435000136,13.54853055501716,-3.5460519966624955,13.786737164599469
2.936,1.9078639390735772,4.7664210957628335,6.314144575168156,9.404658808517963,5.754117131344531,14.172805602383047,-2.556288664311121,15.627039248873022
2.94,1.0119914994799393,5.409225492945989,5.761480772111009,9.485493776609049,5.926635150984831,13.58701353378817,-2.8322564388467804,15.350290891162494
2.944,-0.5004458568314354,5.880015966490274,3.7590565512957683,8.735540903995226,5.777745456997812,12.038564292725226,-4.27133994584549,13.20956206609813
2.948,-1.98470149057858,6.324491779348211,0.9353768908038322,7.549642832656062,5.554774450817215,10.019864334649256,-6.131980558317852,10.114299018014018
2.952,-2.953339854039829,6.886738554113479,-1.843883620060307,6.361597519198641,5.406846313029495,8.05585870507688,-7.477950647774625,7.11636378897993
2.956,-3.341299419341719,7.499616631971279,-3.897938759636005,5.336765418919931,5.2506511041073605,6.48973178212824,-7.724317270342505,4.90659848762987
2.96,-3.4834972041111625,7.835272869841833,-4.967508198396848,4.289301576472635,4.848939098780779,5.380021690524928,-6.9421909434226805,3.608197253288777
2.964,-3.8444320518806636,7.466968037894571,-5.18311715713773,2.8650990677892025,4.037412335665391,4.5500302061142825,-5.758176635949322,2.9293658174864197
2.968,-4.682222775860964,6.1532405116392095,-4.854454121895969,0.848010443988847,2.91239713620395,3.7348027771109877,-4.948240778968062,2.500413149748716
2.972,-5.869525390079149,4.055115800407231,-4.254816552484375,-1.628707008345974,1.8244440248388107,2.7230631957154228,-4.995210988497566,2.136302797455885
2.976,-7.003056495063408,1.7130222988622017,-3.558319234455848,-4.13062166065023,1.1539715598002585,1.4213177181039693,-5.880448762033552,1.8472341328148287
2.98,-7.718426923268635,-0.22501524453286548,-2.929624096958596,-6.196018949741786,1.0046569705233206,-0.16380984258982068,-7.2058151907717,1.6256199192787513
2.984,-7.982026697179036,-1.3663023070044362,-2.6306624236118683,-7.632099698154265,1.0421603021565762,-1.975194446045156,-8.52841717182842,1.2287212810589827
2.988,-8.13549265513287,-1.7906288182813324,-2.994821892500442,-8.607362369711968,0.6304798614338347,-3.923856661292393,-9.644781255004244,0.17266185364264874
2.992,-8.660242054391638,-1.981352893225269,-4.2428156400835455,-9.474568357949192,-0.7841991305845717,-5.870167070952053,-10.643058377929929,-2.006182216037381
2.996,-9.803106784127651,-2.496209244672853,-6.24566028611991,-10.43829600595271,-3.260646968335191,-7.601979111837938,-11.700141042355586,-5.361867434374393
3.0,-11.304994844585432,-3.5589339216179123,-8.40735296483906,-11.299393784242989,-6.173549076694982,-8.85490386124459,-12.782171789556413,-9.292433069905476
3.004,-12.453497313039245,-4.8453903646694325,-9.818585116518502,-11.49965016256603,-8.409956792785614,-9.395210052275111,-13.491172236164399,-12.650364982657022
3.008,-12.4451505190486,-5.597537750769341,-9.635200677781668,-10.460913862923018,-8.864830709318607,-9.135891555700248,-13.177850640232862,-14.20677470281275
