Timestamp,O1,Oz,O2,PO3,PO4,TP7,TP8,Fz
0.0,6.821210263296962e-12,-4.433786671143025e-12,-6.821210263296962e-13,2.7284841053187847e-12,-3.410605131648481e-13,9.43600753089413e-12,-3.0127011996228248e-12,2.8421709430404007e-13
0.004,38.90455279998764,28.634580998173874,25.777588551554345,30.61746448303097,-0.3598894545287976,21.798250806888063,11.576661072496961,5.2257718395057395
0.008,67.02129522047937,49.58597274082922,44.02064129308985,52.74973068249437,-1.6605741722015637,37.2628049736544,19.250461011123946,8.206805579031027
0.012,78.31045296181344,58.52900801090709,50.64692677387302,61.6329872055104,-4.378065641193643,42.90754151129954,20.944598956807226,7.906192223334642
0.016,73.8248988548113,56.14620967555618,46.6890205277773,58.06694124761691,-8.27762326572838,39.48750549790668,17.28514932848759,5.026266452581353
0.02,60.54233481423853,47.284276571875466,37.35289432015327,47.509315243486185,-12.495630218532028,31.269514792771588,11.110181031703348,1.5751233762325114
0.024,47.47211874346374,38.19995500902252,29.088669320603685,37.02471024321767,-15.89763527910003,23.648765431249558,5.927121236689743,-0.27224149845301326
0.028,41.21866407440393,33.45220495576524,26.33454818916948,31.808131920900337,-17.536811786896862,20.453965531510562,4.184093978753879,0.6501787664900576
0.032,43.340036797045514,34.1058015897778,29.681495828265042,33.11757114077943,-17.015762988261315,22.36853455762332,6.270327295246091,3.9449101097084167
0.036000000000000004,50.6687849602439,38.03845952010141,36.28499478483968,38.520157380716796,-14.617140078611214,27.18083177160679,10.692625126373628,7.9906666085942675
0.04,57.98761956344856,41.85916793812066,42.008476382419985,43.981838892997416,-11.182726075842538,31.502165151155168,15.141449920702826,10.917863611462508
0.044,61.25178397342427,43.1286928800709,43.88706243038996,46.382549266677756,-7.8187989222764145,32.82277427568056,17.751976365172993,11.617225740448191
0.048,59.4996821471284,41.56607267311222,41.507985671101665,44.997099148317375,-5.551227463325404,30.731281888335957,17.841018293122374,10.203894356043577
0.052000000000000005,54.6664745989342,38.75177095906048,36.74568170452255,41.334434132795195,-5.018057553756307,26.77364013832016,15.859927874679727,7.7552326221160115
0.056,49.84028241360045,36.78677431632832,32.30508302990472,37.76463101859349,-6.27383189739038,23.260563913818146,12.812946779779736,5.56772387982636
0.06,47.24502044448411,36.86826556518139,30.092898909647715,35.95280845983166,-8.770932236578062,21.848606055925245,9.612073087800582,4.410002524616857
0.064,47.17566183449583,38.656372225430175,30.36141519578223,36.053796731711486,-11.541967174740364,22.728805256479063,6.760426937892191,4.19600008069807
0.068,48.31265253298636,40.67413168276016,31.955163755666376,36.996549164823705,-13.553159471777576,24.781369083792583,4.435875842693292,4.201659479127443
0.07200000000000001,48.95828360335429,41.35286322045704,33.308179865664556,37.47977057514743,-14.12174386055932,26.449410050107872,2.782073407959075,3.618399851644881
0.076,48.254756450088394,39.99779818255951,33.456141992598646,36.91789196819184,-13.229127474661937,26.712227249599096,2.075115145628473,2.0594970654750284
0.08,46.58312325523468,37.07285196706596,32.43847631108804,35.71092703467252,-11.558465877323158,25.5674494237482,2.5969245560771697,-0.27002379174203384
0.084,45.00519543483608,33.73050358958386,30.965646368560442,34.73890658144376,-10.197678824297554,23.802662763161663,4.328821942880694,-2.792328179061826
0.088,44.28973642803692,30.99595503689534,29.733052349512946,34.55404697398376,-10.101765420497827,22.32886103863541,6.736535668806056,-4.947062324267762
0.092,44.331127449358746,29.21741742666319,28.954226728886397,34.92887080278297,-11.560500598695796,21.593337078983666,8.89956032606878,-6.4689878203246565
0.096,44.35844809616208,28.103977309666504,28.407508505470105,35.08279749338533,-13.974776538581523,21.43454185860304,9.97173067443407,-7.399232952859762
0.1,43.66399899550504,27.17732615123333,27.823931809321607,34.35179569935963,-16.118537514783384,21.36600082648374,9.663916754095425,-7.900026611582234
0.10400000000000001,42.22110472986992,26.214321483274716,27.210504911062174,32.74431259976609,-16.804370424623187,20.992411786689843,8.40325936961014,-8.079925358518409
0.108,40.695424260580694,25.334981986090042,26.812654086967257,30.953770413559198,-15.608778120618979,20.23784443570628,7.01826317031373,-7.983553397423776
0.112,39.86769130789264,24.7342285668131,26.76481666104263,29.828929907971144,-13.248600049885226,19.265376490120104,6.135052076140909,-7.74676707596052
0.116,39.94655584721954,24.355928404056215,26.768011384441706,29.713479413704647,-11.33540160549893,18.23328623735614,5.704138761250874,-7.738295747983528
0.12,40.293642684478925,23.805304283092937,26.099524990600116,30.135894214576012,-11.571224765006491,17.11572968543055,4.983094578146961,-8.49861470067836
0.124,39.785901874331444,22.5981394105234,24.007688259142412,30.08327638637843,-14.786673472539974,15.72833136933599,3.018753106272925,-10.445067956185568
0.128,37.596716686740024,20.58110280873001,20.272500823328073,28.700577931024156,-20.33732049398816,13.94418662940916,-0.6544431860023394,-13.4939623928407
0.132,33.88685150238439,18.22126664038069,15.55702965973876,25.966365460037878,-26.237149483497433,11.928499566181927,-5.538340598610148,-16.86818559553609
0.136,29.91565048143252,16.520918964859675,11.266733604732622,22.880641155374633,-30.02006930531911,10.183189659165123,-10.23784801704116,-19.290250467305157
0.14,27.419374168538866,16.528310454344933,8.921273226716266,20.974446136329448,-29.923139917296623,9.317138880430434,-13.094957060907177,-19.54742477256832
0.14400000000000002,27.597771147428034,18.705937929342213,9.35994571184176,21.396493097421057,-25.790414064679112,9.658329220533687,-13.063009668617042,-17.158031494713555
0.148,30.32178115736815,22.538797341808504,12.238860582182497,24.13597717571679,-19.22016618044603,10.964401269432187,-10.319399890317015,-12.745979376215644
0.152,34.113023151041716,26.67912449274786,16.1571716359349,27.906596192268125,-12.864804205588712,12.461660284454865,-6.231714616581229,-7.86225710684397
0.156,36.96901980771406,29.601741153993032,19.37944010791864,30.822909688855248,-9.213937299611757,13.245576731224446,-2.6671948469572158,-4.278290240312913
0.16,37.504440360676654,30.370794141419992,20.708126434225278,31.457192617807436,-9.47136690733771,12.803489161263656,-1.0428550928678533,-3.114795231947255
0.164,35.70049043714471,29.073929265300876,19.989572961107683,29.634043891818692,-13.082442400445473,11.316534440477994,-1.6461809095605986,-4.285131280943858
0.168,32.82336926142307,26.693596841793067,18.009616314760024,26.50146466016065,-18.10628600390993,9.54877165358755,-3.5904096782545594,-6.560057607123213
0.17200000000000001,30.60735936518654,24.531868007557705,15.9099741881721,23.860274183606634,-22.2086344517499,8.394755658495228,-5.389501623335036,-8.236351318353684
0.176,30.232601406023832,23.544738320315503,14.511969310475592,23.163131015506565,-23.76227882601995,8.366542154767217,-5.792892156957862,-8.04907627137004
0.18,31.685497826920823,23.92931715896509,13.943553661277292,24.745807330757998,-22.501623808076488,9.306415772832224,-4.419744400904676,-5.823176006141409
0.184,33.81359186917712,25.124256840237308,13.718119112543036,27.6723048903242,-19.47093236934097,10.4637736370305,-1.8837795228255914,-2.5360639427423735
0.188,35.022224087980476,26.173260455842637,13.16131244981591,30.25875407758042,-16.36236891980093,10.901986536889922,0.6141334033781618,0.22615057473370825
0.192,34.22940120585281,26.259646130022134,11.929257608302805,30.99745130081169,-14.621151547876366,10.025648000480373,1.9765772345726873,1.117413649893365
0.196,31.53439386638229,25.137014017903084,10.305155795742849,29.369967727534004,-14.777833266920538,7.941505759622601,1.7884524623610787,-0.2858786419961916
0.2,28.185772037509878,23.220073827958913,9.072613910935615,26.08506812600058,-16.312815051161124,5.4404490070131715,0.46219733749126135,-3.3223553362411167
0.20400000000000001,25.868308688214256,21.32160748421677,9.043051883513044,22.63316715458518,-18.0470615599894,3.6034777225230528,-1.0761650385059056,-6.6522109071351565
0.20800000000000002,25.73088844233712,20.201174013250693,10.521124943050836,20.44061963449076,-18.809353432370017,3.2413319061558923,-1.9391905905795852,-8.974771485656277
0.212,27.74709533836608,20.198106627434186,13.05498771763473,20.14023058582484,-18.010983953314508,4.494134202541659,-1.7440532050590036,-9.63963367080828
0.216,30.764601232294353,21.1291530776507,15.626462798299144,21.347973818511946,-15.875548283100102,6.802656646726518,-0.7222730366129326,-8.847543157791904
0.22,33.161124504605596,22.442624783446263,17.15367454326156,23.00164839703143,-13.255521579693095,9.233264227473342,0.504406507833778,-7.397937467859833
0.224,33.710444380808894,23.51250691290477,17.016204371043386,24.0085853205685,-11.166840349712174,10.950619884567459,1.307377222031505,-6.1901064342314385
0.228,32.183993276371666,23.91200871458409,15.33295380909567,23.823624578051067,-10.306704609035592,11.592596137434839,1.3643040414904135,-5.787332026368858
0.232,29.391955792538965,23.556135401847087,12.873460634584035,22.661330076528657,-10.785418460080336,11.377186270252196,0.7468531605294402,-6.26413472186789
0.23600000000000002,26.65638032085053,22.655275190219413,10.64338238965911,21.244636822972325,-12.16263893893995,10.892522377168007,-0.21839227433213182,-7.354349173832929
0.24,25.051441468809116,21.547299863040507,9.397789476127627,20.29747792003468,-13.716716774516726,10.721183896270986,-1.1746718515206567,-8.718448069123497
0.244,24.88161038072758,20.542753093920282,9.358192636440663,20.127751837196683,-14.789926846557819,11.133586880988105,-1.86965837154753,-10.117476220820095
0.248,25.63543574691016,19.829098583241375,10.230837189563545,20.508551362843036,-15.04060679993404,11.989510089181294,-2.1527110159903486,-11.390465528264713
0.252,26.380720179237187,19.45010157175227,11.460457440495702,20.87945552080032,-14.502923503603824,12.861709784883715,-1.9071026164801879,-12.302958391725838
0.256,26.34257949320454,19.350238922223753,12.556538780366964,20.72237237493573,-13.47298546447712,13.297652682833359,-1.019103587417817,-12.439639086128977
0.26,25.351106519544373,19.453626674780025,13.325971125711703,19.899759341233448,-12.315594292606988,13.086966976618896,0.5699485401390803,-11.276695376668158
0.264,23.945271275399364,19.74407190113061,13.910317756650784,18.77566773340982,-11.294785400905539,12.395368972694087,2.7420088715068687,-8.444166576264251
0.268,23.050993432217183,20.272386011994058,14.614511857107573,18.032455423434158,-10.51143393912912,11.684191584309474,5.109595117442154,-4.036454400738194
0.272,23.395599503068524,21.063687738048657,15.623803409843276,18.26301080989424,-9.955236095058126,11.448832811906186,7.037740786708014,1.228674699292469
0.276,25.01687027101434,22.00120914187869,16.803563337721698,19.584409715612765,-9.612238543061949,11.928879752676949,7.828591918614848,6.150637149857403
0.28,27.18353553356178,22.80197868562186,17.731707073462758,21.52280215707151,-9.547218907670413,12.96878293125269,7.014076344480827,9.468480900224677
0.28400000000000003,28.78221624909702,23.12834301278167,17.946433121335303,23.232587979476875,-9.905527740380649,14.108864029093866,4.608121857300375,10.36959607565575
0.28800000000000003,28.90847609039747,22.751365112912026,17.232942923525115,23.90625267541691,-10.836774502090066,14.831191131338983,1.148193482891429,8.829237593577886
0.292,27.29968247894749,21.654921174942274,15.744465652183635,23.128919266162484,-12.396916850208072,14.800359941717943,-2.5282217955574424,5.596411199966269
0.296,24.411369947359617,20.03690580758598,13.895000595295642,21.023203702018918,-14.490140346041244,13.987453030336837,-5.642274725942343,1.8362479548893589
0.3,21.146021549832312,18.221082520509526,12.109480371735572,18.155252270417122,-16.88509094331357,12.642641005170162,-7.772782143575228,-1.3856197296279333
0.304,18.418581797813204,16.544198187454413,10.606453399934935,15.277791849637424,-19.288101683605646,11.15469878272711,-8.93918538786761,-3.5171927760916333
0.308,16.762869078879703,15.249505260063643,9.321862224136112,13.022095749066466,-21.437387753702296,9.86441216674848,-9.444599577334202,-4.649141168319716
0.312,16.13975978695089,14.41287251968879,7.99521526735316,11.657309978633748,-23.161313717538405,8.915327824743827,-9.615372487058266,-5.337568342739928
0.316,16.040731460244388,13.959534658315533,6.381686862809147,11.034818493911189,-24.369589672970278,8.22577665506401,-9.604222822040242,-6.231171796858689
0.32,15.83358370966971,13.772272181623748,4.481968076650901,10.750603788710123,-25.006979148167375,7.604975356785417,-9.342823770976565,-7.7004713943661045
0.324,15.152889057540506,13.824720122374856,2.647467361443887,10.43238016671512,-25.01096636543707,6.934685075808602,-8.657589389891768,-9.640616346667002
0.328,14.091242288902777,14.221598319720897,1.4601790164897466,9.968443862369895,-24.316377763731452,6.2955195542328966,-7.473234542769205,-11.526095825287143
0.332,13.084761782302849,15.100367088362646,1.4346029843131873,9.53843199169387,-22.907757512260332,5.941891729876261,-5.942526349469972,-12.671844371885072
0.336,12.587620314314336,16.456659200335253,2.704630678128524,9.444862509266386,-20.8863886339891,6.141277339775797,-4.411331185057065,-12.569152388290604
0.34,12.765960675846145,18.019178898440032,4.891577746750954,9.882726984751116,-18.499140331202625,6.992273189871867,-3.228631880825901,-11.12988613250377
0.34400000000000003,13.413716489335002,19.289274072518083,7.255767973480943,10.801305517401488,-16.091018404859597,8.339127061790123,-2.517459595730884,-8.73340210660649
0.34800000000000003,14.093082591011807,19.717420962181563,9.028988292765007,11.913508404293907,-13.99786861891505,9.81213503508252,-2.0975519353354457,-6.084431787314884
0.352,14.393758352949817,18.93185445674385,9.746054075338407,12.84597595191508,-12.41319759210569,10.97418670912748,-1.6215072769266499,-3.93818614383963
0.356,14.155144311213462,16.90991861774819,9.41431805156526,13.339805781852647,-11.306433495545207,11.50014397004702,-0.8448151666062813,-2.81281538372707
0.36,13.552383515828751,14.03269338404084,8.476386059438028,13.40989709680025,-10.426835394021737,11.314536946295902,0.14998240853719835,-2.795684668519698
0.364,13.014655982636214,10.997653834359198,7.5961849610985155,13.366777153960356,-9.406922461804015,10.620522564793418,0.9375288483411168,-3.5297929805519743
0.368,12.988961372538597,8.587034298487879,7.349531131921594,13.642954041440134,-7.937108085085356,9.789300201544847,0.9771629805914017,-4.391887721135163
0.372,13.65918529303508,7.376198052106929,7.953903281705607,14.501501667499724,-5.93604383583056,9.154854302675176,-0.041213365013618386,-4.789858309379042
0.376,14.78734921755131,7.516497010797821,9.155138755381813,15.799664472463519,-3.6387482578459185,8.828635254833898,-1.945213988728824,-4.451730345331271
0.38,15.797051663912043,8.701509117237947,10.336365849106187,16.98283168891612,-1.5613815397234703,8.649508705297421,-4.079369626202151,-3.5638922314994943
0.384,16.086235985695566,10.340094626316159,10.8126905442914,17.357009315745927,-0.33429038480244344,8.307465658236652,-5.585452703665965,-2.669572099049674
0.388,15.359284275061327,11.81593345822148,10.145521956736502,16.46668094737788,-0.47335342234396194,7.5434465426774295,-5.846056211349833,-2.3888418054459635
0.392,13.775251255538933,12.691164311382636,8.313446300684063,14.345190485987132,-2.1746994135289697,6.293949264086905,-4.8503572744098165,-3.09946455002887
0.396,11.841378566880394,12.78682031102926,5.69026055533368,11.503499591080526,-5.205433117995881,4.704434136266627,-3.2645917090478633,-4.731833243739629
0.4,10.144730655274088,12.163299742097479,2.8858739360302934,8.680818051106144,-8.93417535846288,3.0304921725146414,-2.1193819857960534,-6.784239803172795
0.404,9.073039890840846,11.046655968050345,0.5335717308953463,6.493318898489633,-12.50797995986295,1.4920740390864466,-2.249070124969194,-8.554455009256799
0.40800000000000003,8.642423826781851,9.726220650326468,-0.9105939241385386,5.160046920271725,-15.111558927020042,0.163219467331146,-3.8030874932524057,-9.46987892791958
0.41200000000000003,8.500186317989574,8.456076892185592,-1.2958314066277126,4.44359064233231,-16.207960190090944,-1.0381771987658794,-6.108147409458525,-9.341217424211209
0.41600000000000004,8.116130882345715,7.40330891425765,-0.7832409405600629,3.8475890185231947,-15.672487816131934,-2.2428607644210388,-7.954187375262336,-8.3957400705508
0.42,7.0951854597369675,6.662402511823757,0.27446051599144994,2.980310965060198,-13.776271284020822,-3.4470809108152025,-8.160592302574287,-7.071011957404835
0.424,5.453853548332972,6.315478282708227,1.523243608701705,1.869944162138836,-11.045069061791537,-4.376686368766059,-6.139065562911355,-5.701329908280968
0.428,3.6909651153341656,6.469674574875853,2.7541237959658247,1.0177718033255587,-8.074966241342736,-4.515736783216198,-2.1666341966290474,-4.294387430050165
0.432,2.5920229462699353,7.228110808504198,3.92668033249538,1.1350871993458895,-5.373949007049532,-3.3312078349295007,2.7376323765086,-2.5464442234278977
0.436,2.8616912530969785,8.614021294867143,5.084419481026998,2.7099057135446856,-3.2733069891773994,-0.5916934259735172,7.261725911550684,-0.09600255042028039
0.44,4.7846669422565355,10.509563585216938,6.245307168258478,5.665199530868449,-1.914010655707898,3.4075439857197125,10.359067478468432,3.138284438485016
0.444,8.094167963873133,12.664009297979646,7.361710498870707,9.32264124701669,-1.258808799656208,7.863069593391174,11.644297318200415,6.7544622797272496
0.448,12.089811786298469,14.771843941458883,8.37097028011658,12.69559048049905,-1.0928876734549249,11.744098369271342,11.450814941678118,9.954203531426856
0.452,15.9180133285372,16.5650993174238,9.271106413334564,14.935927896111934,-1.0457680682482078,14.19865212126706,10.56181174936387,11.885523961727358
0.456,18.890018473414784,17.893619610304086,10.161364268855323,15.71438894259154,-0.6671430956816948,14.896786504687952,9.780248472520043,12.06737908645573
0.46,20.703099968331117,18.75878068757993,11.203094563891227,15.344334162984978,0.411304731755763,14.151486288835713,9.568786932701869,10.658569474997421
0.464,21.477932671626604,19.284380915392376,12.499171040914462,14.581618199402328,2.261926944327115,12.740813022797738,9.920130095749755,8.39470639435126
0.468,21.5913355174971,19.61164416166139,13.944225911403919,14.194988367491078,4.505418645284408,11.500902932331883,10.46405526720946,6.2061068553693985
0.47200000000000003,21.38419118188449,19.751594017770913,15.14042792967939,14.522704912115842,6.341071509400081,10.893690381556098,10.705376206038636,4.730162070151437
0.47600000000000003,20.919182282284055,19.49310237557711,15.478105126067021,15.259274697664296,6.816683731275816,10.782196463677792,10.269383839571901,3.993295225992597
0.48,19.963733250441692,18.478381944143848,14.423546284190252,15.623615468402477,5.28045100718623,10.555206856906807,9.08571095945149,3.4732034617354657
0.484,18.212079258821177,16.44137658778868,11.889349656662489,14.825424919017678,1.799289532131752,9.536991307382777,7.450417362093958,2.5120741221621756
0.488,15.607491183565344,13.488474238848312,8.457152053610116,12.57847076450662,-2.698733593208317,7.455412277738105,5.952521215458546,0.8422129462358043
0.492,12.53397833549343,10.225640433520994,5.25877070880415,9.350382528978571,-6.70313793959599,4.687822334644807,5.27186772321852,-1.1088136281960033
0.496,9.737531228888201,7.6066765322864285,3.50985389256266,6.189753159741031,-8.748180890157528,2.1352156367338466,5.892332629605789,-2.3560028637703
0.5,8.013591184883353,6.532927777645682,3.9140580083144414,4.2200499727237,-8.104920087562505,0.7994690254076886,7.836072269787792,-1.8889302204208889
0.504,7.831307051042131,7.39061503361313,6.2642350218625324,4.07078513972192,-5.172047342531414,1.2928874156523307,10.554710281462349,0.6997964239974408
0.508,9.066560783094701,9.737274363767028,9.454893568969965,5.522937104705761,-1.3443240316548781,3.5307641323020107,13.050743142297733,4.845952304686307
0.512,10.994746753702202,12.339272167319677,11.936200412616927,7.558973502574645,1.6168659504969582,6.7685309965568194,14.226232293425937,9.156406169444836
0.516,12.571130364673081,13.621185277926088,12.4177395850611,8.815890444322577,2.4144538677462606,9.955311056412711,13.358794451051153,12.03397929140533
0.52,12.901771183478104,12.375852886563962,10.480123873539469,8.247549792754853,0.8172571457935192,12.221297736669385,10.491976100499414,12.4711484211673
0.524,11.694513876315796,8.414603510399274,6.786851802146884,5.678206453374969,-2.273262777511718,13.247429914674967,6.528910707912928,10.58638950660088
0.528,9.432185356899026,2.7991637059833465,2.775141738559796,1.9446636770571786,-5.313486928067732,13.327553507427183,2.919235264719646,7.591723821543383
0.532,7.157928524565705,-2.524108115898798,-0.028031865838329395,-1.471219129828114,-6.901765281499365,13.104536603219458,1.036985501205777,5.187244501010355
0.536,5.985052639616242,-5.548857461183616,-0.6995619562158026,-3.129914200019357,-6.434219021823083,13.159180036661155,1.5373690678212597,4.694187477838568
0.54,6.596091148843243,-5.089595805523459,0.7529734249601461,-2.2767453736910284,-4.291377729517308,13.707019557590456,4.037895717881156,6.401494325457747
0.544,8.971876726892333,-1.2835561824470005,3.5755043722970186,0.8758228992151089,-1.4948674963789017,14.557044452649961,7.318103011569633,9.478285631503581
0.548,12.439444170839579,4.507444392995467,6.787976226178216,5.321910989809112,0.9159414208718317,15.3072793945787,9.944414439537923,12.474757140201632
0.552,15.979054384047231,10.33346659015865,9.709831781830417,9.766737537989684,2.432534857018709,15.620460357010188,10.986936831195862,14.129171537236743
0.556,18.614171926690233,14.49233506229075,12.165235610390482,13.169182455405007,3.23492162538264,15.39140424723496,10.42524191709606,14.016129048085077
0.56,19.715466771910087,16.154018118438444,14.295223105711557,15.058405643734659,3.894082251488726,14.721908075814099,9.01709911346893,12.68370768992736
0.5640000000000001,19.129010147714325,15.514261388245359,16.16050837247758,15.515297154706332,4.842515381363228,13.758814608446073,7.720482919285814,11.225913153949477
0.5680000000000001,17.087538010933713,13.432270799352182,17.40848187829488,14.868137796203882,5.941332316129092,12.516971114484932,6.994682064095514,10.551061717970356
0.5720000000000001,13.984865730717502,10.800851095008738,17.25414036240818,13.32083497838039,6.4217465244501,10.822998413705136,6.40428256492828,10.782414249521707
0.5760000000000001,10.16574564002849,8.04633142971602,14.842732351948143,10.770200302376452,5.247408912973242,8.439011141297215,4.802931305889842,11.148386309274088
0.58,5.857545330379708,5.0447588961526435,9.81701316894987,6.947059889968841,1.7116415925163437,5.30798636361078,1.0362015050277478,10.444641541335159
0.584,1.270670299907124,1.4751401993848958,2.7642522860182908,1.795444473751104,-4.058111197715107,1.7647927884252113,-5.204978453834769,7.809893995633388
0.588,-3.2154977339105244,-2.6456546796371185,-4.742971775585829,-4.155116667216134,-10.958939392177399,-1.427682500322362,-12.877193729111355,3.3889832890370144
0.592,-6.954535858316831,-6.6338075344795016,-10.609470139752375,-9.705662616525387,-17.218057832142676,-3.292116471582858,-19.770711883826152,-1.51232921803512
0.596,-9.126607357530247,-9.26251342607361,-13.000535682784175,-13.312746954349223,-21.024482074210255,-3.0229962257606076,-23.35975798511822,-4.907338000289428
0.6,-8.999809834891039,-9.301799977315113,-11.063714362380324,-13.68664100903652,-21.198893526202937,-0.35207792123469517,-21.928089635908123,-5.019942840386761
0.604,-6.254652159384932,-6.185068545676131,-5.2619916559438025,-10.381442261515076,-17.622588794880812,4.284117142151672,-15.418383935274278,-1.1630015348071083
0.608,-1.2304247243391728,-0.43074952713186576,2.80903621208995,-4.086920641815823,-11.259690755791098,9.85348708420156,-5.575668952721571,5.827160231640619
0.612,5.0375979465179626,6.434954784885122,11.018520612975635,3.534205182803362,-3.785297670956652,15.063198891246202,4.698938952030289,13.824630426514432
0.616,11.06707297667208,12.455552829295812,17.450586841712948,10.424457753205843,3.016172350194438,18.789535790076798,12.499574754046876,20.226173264833506
0.62,15.420765570630465,16.067738899337655,21.010423046737515,14.891035328442285,7.8388062221238215,20.448250649569673,16.055289050631018,22.981825099410912
0.624,17.263679786573675,16.773205432743907,21.6819456935948,16.22396750982307,10.221961021759853,20.165082784638344,15.34687822328317,21.399696798450464
0.628,16.69975221182858,15.30236803804155,20.370682299907912,14.887648362812342,10.577986929313056,18.67099257352993,11.942840575162563,16.378987709853504
0.632,14.685416214174438,13.175067682882514,18.41267034489715,12.192525915624174,9.889296283272643,16.954722946665697,8.153079881159442,9.976285741307606
0.636,12.540158074359624,11.892034326290968,16.982493383237397,9.63043710140687,9.218875515428635,15.820548366687717,5.937119647705686,4.522843910559914
0.64,11.295298898045075,12.189035287155889,16.662027937081575,8.215349398996977,9.24554319418462,15.55314343088071,6.094253142157072,1.690788940571906
0.644,11.225536215630655,13.7545630992837,17.32283724818899,8.143940017267141,10.019785214023841,15.85168833102557,8.079865858962648,1.9089553772425916
0.648,11.79778051979838,15.53462533310028,18.333138572470943,8.902481485370345,11.041384101099766,16.059640240305725,10.48110122455364,4.363454596666088
0.652,12.05281315414527,16.416984969945588,18.943667323573436,9.694669196094537,11.593893772360389,15.552691704612016,11.854711016519559,7.519468786890911
0.656,11.227782707747338,15.907640173777395,18.66343053821106,9.933572050649445,11.165941792435433,14.100793027261716,11.478794385833453,9.890632199672496
0.66,9.248330249653918,14.410554327632326,17.460475048498893,9.517962303008744,9.746746553979733,12.029228967295012,9.649100003856574,10.685263868775905
0.664,6.796957357645397,12.949423105320989,15.698276012290535,8.753717569870332,7.832092162641857,10.076339472067957,7.415344115890662,10.027183327777152
0.668,4.9127677579147075,12.49867550582178,13.873997102564545,8.011791177985742,6.162962866386579,9.010582685749114,5.942980115209593,8.7011280424922
0.672,4.327546574018925,13.300108637462017,12.303576036668346,7.3491525230886054,5.337675163327958,9.19991908789143,5.856093687471002,7.603960770468802
0.676,4.954132438586839,14.59031931859738,10.940822878136487,6.364889531954759,5.511074342176926,10.37470464751118,6.910129999540459,7.214770813535893
0.68,5.87515965128614,14.945197194834577,9.449521284604998,4.425881156752666,6.347852412178099,11.736167134919583,8.158652220699764,7.37459766405334
0.684,5.898765699069827,13.103237384209365,7.498319322213547,1.1603064460935002,7.25185093897926,12.37339578961587,8.510746212626373,7.482315480447369
0.6880000000000001,4.354890438039774,8.80170759174257,5.0870690921656205,-3.092639346602482,7.733908699742528,11.764366950708109,7.344158167497426,6.953816520342798
0.6920000000000001,1.6485082191402398,3.1304051046722634,2.6930656079723576,-7.190343764150384,7.706265965098851,10.079656905420393,4.840790213258856,5.650509833614706
0.6960000000000001,-0.7975549975205922,-1.8409188001647863,1.120409918870564,-9.575240191868488,7.530492265519115,8.099992702189866,1.884284824851079,4.0152980566793985
0.7000000000000001,-1.2561758742256188,-4.02729651896118,1.1016589561349974,-8.990061150838073,7.787184034178495,6.790352611949743,-0.41196685223275153,2.819362309442454
0.704,1.3373539077720125,-2.365228700016928,2.8869345203186185,-5.131204604860386,8.924826592639533,6.7819804501613135,-1.2466574284670173,2.6909351717276877
0.708,6.719028256060938,2.6358298259186768,6.065755631607772,1.1335965639873393,11.00875716030771,8.047759790366285,-0.4505532017324754,3.729501207595206
0.712,13.294173660479373,9.10813627451705,9.706010939191628,8.094334542726074,13.69475102248282,9.930654788017819,1.543606993557603,5.435902272882686
0.716,18.830337912426558,14.705567688448355,12.746239369443174,13.915687388081778,16.428603081600954,11.498567268677107,4.007551731810963,7.002061368263526
0.72,21.495531014810012,17.689166018100195,14.449296614863442,17.3839515338002,18.74089502739139,12.025489947266578,6.28852577921441,7.786080471082926
0.724,20.675912141974777,17.631523595669478,14.660344417858596,18.292892247009377,20.415677976675852,11.32570270444478,8.038984653577074,7.668860325086314
0.728,17.140426719190145,15.390509500547523,13.745659706005426,17.296131838314977,21.44445064648926,9.776055013726818,9.189337747131901,7.07126144171707
0.732,12.488141366153968,12.41413870334452,12.275850433002006,15.352350296837358,21.82277852783068,8.041207471706457,9.745018219108829,6.630902956859245
0.736,8.230780113165565,9.815994556886835,10.655990407929266,13.116921676398078,21.357732309962103,6.685988528137273,9.604944750548668,6.754357520758617
0.74,5.0685532841130225,7.791413653103518,8.944308321996687,10.65757451387276,19.67072038327217,5.919869331509176,8.573280626402209,7.352111586996159
0.744,2.765508965266008,5.70894751468677,6.96195627118891,7.644587479837128,16.4475843909471,5.612101929600044,6.567216144390841,7.933019220769836
0.748,0.6033065922749756,2.755069365438999,4.57543168895063,3.8299108265866835,11.792054603223505,5.511379382407199,3.8395856008597207,7.980860110533911
0.752,-1.9415399771878583,-1.3201667858705832,1.9273844417466535,-0.5380015445098252,6.436747681476163,5.489084286049319,1.0247495173599646,7.363400826412317
0.756,-4.74467699566685,-5.850427717679622,-0.5479862379363567,-4.653259487077321,1.6218442453475745,5.634678359006671,-1.0759361535228322,6.475357649547618
0.76,-7.075377069572596,-9.521285527593818,-2.3362180652309235,-7.492771523098327,-1.3605359555352834,6.150004028272292,-1.890601376920415,6.001729736963171
0.764,-8.0673902637011,-11.08779336496275,-3.130240550166718,-8.341512569390488,-1.7575941975526348,7.132252062543444,-1.4073597338801278,6.445319878155203
0.768,-7.28758430703715,-10.09084879692773,-2.988674844386651,-7.165674152155361,0.2534092832428314,8.414979649439601,-0.2188989340132821,7.72576043193061
0.772,-5.030647015915292,-7.122820400313685,-2.2535060613341784,-4.605656154154076,3.617521906384127,9.582662131743746,0.7782537051179474,9.130849595665097
0.776,-2.164364490658727,-3.4766767536378893,-1.2799075846758114,-1.6038345395922988,6.899054743821239,10.163748333910007,0.888714364411328,9.69094813107921
0.78,0.3636107684237686,-0.3966147873314867,-0.1593142976391846,1.0958377005549664,8.981659220176084,9.887640162970001,0.022951442047201454,8.760284256783166
0.784,2.0390397322353238,1.6045060806912943,1.3541916053145542,3.2709430001314104,9.58239839630221,8.845427681677052,-1.2386263443289067,6.4426044589238245
0.788,2.9806375513071544,2.9310348642042072,3.632082945156185,5.166885425241503,9.282553643952497,7.446589566610555,-1.996129700917436,3.5798705678718648
0.792,3.723976335086604,4.484883796277359,6.7903313672679815,7.1318094771374945,9.060870322447045,6.191948090241112,-1.6057025069216593,1.29175359026965
0.796,4.757505717619665,6.919997555800705,10.392997964662413,9.208199544095692,9.605203743355673,5.392662734755049,-0.1267055262538861,0.3362234493664005
0.8,6.1356457519610785,10.066076719121725,13.475897936929414,10.978712602689598,10.817942216452934,5.014350290024026,1.6402569948526775,0.687984942282128
0.804,7.416811399249241,12.903127714099696,14.929195807180236,11.771687840314598,11.812420365783623,4.727965742967058,2.558172071952015,1.5838716776355
0.808,7.94114804730134,14.105296182547647,14.053667903380983,11.082085937550119,11.412401456379598,4.1249400497858915,1.7887737252571583,2.007135013097809
0.812,7.220754060524996,12.801059916650217,10.953464319725981,8.893512298102792,8.850548285008017,2.9579647059970284,-0.7087115231688017,1.2979639847753788
0.8160000000000001,5.190198809868434,9.096438917407227,6.530177543856894,5.680469798338322,4.262686474454313,1.2782480054551115,-4.115777065051532,-0.48549225441348653
0.8200000000000001,2.189393019456702,4.0539113046511375,2.0801907472631456,2.0985109060829927,-1.3057217100317757,-0.5867235483722197,-7.14569148111417,-2.6526256662643277
0.8240000000000001,-1.2598037912460995,-0.8420889105798892,-1.299462324200249,-1.4240547465063855,-6.387320613206668,-2.1849208095834456,-8.664309379814483,-4.337994161729398
0.8280000000000001,-4.703921309279622,-4.41448200852949,-3.170586307263534,-4.9037095363512435,-9.793792155836002,-3.1285532941165,-8.206943167546967,-5.015229913903681
0.8320000000000001,-7.8624110978300905,-6.29645913924918,-3.8373322551219644,-8.673799615322196,-11.1313453293497,-3.2312766462667923,-6.124077627311351,-4.747012085658923
0.836,-10.548032102846037,-6.942519154611205,-4.03815866020625,-12.98776541954328,-10.8483269832073,-2.5532435365665833,-3.3205154335805105,-4.038382834200263
0.84,-12.492914665529156,-7.179478377387056,-4.426465694591684,-17.596591954294695,-9.807005640614534,-1.345412217955186,-0.7525187645505866,-3.404357736870338
0.844,-13.249921901449852,-7.594034380174435,-5.135770296916689,-21.590345631607534,-8.666311340879417,0.07454179303590536,1.0173253221427103,-2.9683164280948517
0.848,-12.304668462787049,-8.140364952379173,-5.677296536254062,-23.657600304505422,-7.462729276000232,1.4514979839941589,1.9822564418252,-2.3736652894630197
0.852,-9.3608059891817,-8.186648746073104,-5.218730815507342,-22.655935088817273,-5.632363925544951,2.675451628142696,2.5226796939656992,-1.0721468973500237
0.856,-4.610842980358029,-6.930476673703197,-3.0693302569479783,-18.181842441111712,-2.439694764941919,3.793016997555469,3.0664016166308556,1.2123172420521655
0.86,1.2011646086158407,-3.906599120170995,0.9078396901561518,-10.831388482061357,2.462031315913748,4.951112448510628,3.7991773544575835,4.17336729975807
0.864,6.99958912494651,0.7092038850940412,6.169971899826351,-2.015296880586334,8.676780831585859,6.287669579335613,4.587960029028693,6.9830215632619
0.868,11.766086644994516,6.138784968266748,11.699654953724007,6.557960550216535,15.12664809680524,7.805600070618084,5.118263505911045,8.702770349867137
0.872,14.892010744737604,11.328840688896321,16.410053702488312,13.454933994858152,20.484005361891832,9.295359394674279,5.1340182566297585,8.80336260678422
0.876,16.31643241247434,15.361586740235623,19.531493805063178,17.88774251937923,23.726671024348377,10.367250913100236,4.600040806298409,7.470578124885378
0.88,16.40632679266764,17.740026825228483,20.8104074957447,19.774827717765106,24.521290804507544,10.6103748439387,3.6951557908672896,5.512626721610985
0.884,15.679195616759216,18.443992611388524,20.460833712519843,19.545729834347867,23.239767612547666,9.821849817178986,2.680616923543937,3.9205948793104426
0.888,14.53080194861775,17.782431200506664,18.9399658423539,17.846114147976095,20.652683948800018,8.182239212052707,1.738518322986323,3.342563549425506
0.892,13.096296482526782,16.16222763771401,16.688847100941302,15.2936410164466,17.51246341578326,6.2594173162949005,0.8889935428479987,3.7782569559993817
0.896,11.29159489231688,13.909581320864504,13.976191373929623,12.357822458042847,14.27029143007627,4.802448818920027,0.043747069179175924,4.661310171414073
0.9,8.952446499913435,11.19709975547255,10.89914566162372,9.325399706831718,11.04099397211246,4.394973639037175,-0.8544419951614941,5.240581723283981
0.904,5.989667524920833,8.092116088916043,7.520090729708386,6.308899965959881,7.781597650390381,5.157943110290489,-1.7147139826276998,5.022457422225216
0.908,2.4865507852387054,4.664384214019549,4.031723917229783,3.2705537119247765,4.520020161670232,6.673173898143432,-2.2791894541227293,4.016199832723885
0.912,-1.2929569223183535,1.0731159136500992,0.8245709234100786,0.06508995780041005,1.457745293703283,8.179665487413104,-2.2353581481630727,2.6482630988672327
0.916,-4.961150510736843,-2.410088637132958,-1.5967771264429302,-3.46544724297064,-1.1066809836155471,8.956791601984492,-1.4061854648060148,1.4425509680313553
0.92,-8.094741443016119,-5.449404927452861,-2.8211066956869217,-7.35068559461979,-2.959511579358036,8.69551052371662,0.09057949822317823,0.6815400875767637
0.924,-10.313536233280729,-7.724792056348861,-2.7456610984859253,-11.35620597096522,-4.108047940453957,7.648697410008822,1.8175139888095373,0.25012375699259337
0.928,-11.357616275147166,-9.018894094308848,-1.6864375238526463,-14.949784296986309,-4.769869024444915,6.470154402333264,3.1567024783754505,-0.2552983752626119
0.932,-11.168199375015547,-9.27878479869446,-0.30173348341145356,-17.433057184805875,-5.215115643076615,5.828590862809506,3.5635315297339503,-1.2394096097124248
0.936,-9.921593137960826,-8.614299091738076,0.6719370948565029,-18.193864801962263,-5.559183434779584,6.021224641089475,2.830266491213706,-2.8223447253691916
0.9400000000000001,-7.995830390308129,-7.244245431214267,0.7476661557134321,-16.971248232243852,-5.655392204573218,6.801913504320851,1.2122435615835911,-4.735029311050312
0.9440000000000001,-5.846015305265837,-5.401184372108446,-0.07243284626201785,-13.989515832169218,-5.169112156844335,7.528821897765624,-0.6392399037919176,-6.437594189670449
0.9480000000000001,-3.827188178794813,-3.2405268232226945,-1.2671112805969642,-9.879810940003836,-3.78812191354848,7.553930208049223,-1.921184618549887,-7.368462441810948
0.9520000000000001,-2.0665453486935803,-0.8147709997608672,-2.0269215520334,-5.4383449153897345,-1.4474137825347952,6.619808638105269,-2.0028980277127175,-7.186005125162183
0.9560000000000001,-0.48014303398736047,1.852674625110808,-1.662536220443826,-1.3662232137610317,1.5568953233604361,5.03106167735541,-0.6988684385798933,-5.889409165614097
0.96,1.064095772849896,4.633694926889689,0.005930120706125308,1.8826612976110937,4.632098728077835,3.5059891144292123,1.6349283558070056,-3.784190422340316
0.964,2.5317719940840107,7.189979034730527,2.477940243486046,4.091182028566436,7.076267573114819,2.792249012247794,4.236496483562064,-1.347596089653507
0.968,3.6076034366817566,8.983821325552071,4.731103179872207,5.165692824823509,8.289257224796984,3.2679410824166553,6.256506819852575,0.9302812564001215
0.972,3.7717426136405265,9.43183026905831,5.646476194908246,5.023229250245322,7.907092287880232,4.740798649710541,7.1035775783274175,2.6531670193029413
0.976,2.5616042345186543,8.157009033221357,4.515366418749181,3.5837965849900684,5.8424223195384,6.551620035472752,6.672916156218321,3.572239207334178
0.98,-0.1115223844672073,5.215123264893464,1.3901281943867616,0.8875154420256877,2.271547693287175,7.907195763333675,5.358014038304873,3.605748252319472
0.984,-3.7775067095890336,1.171749716906561,-2.895903397612983,-2.747103459076243,-2.375556918989787,8.256454264119157,3.8419506158380727,2.841552748314257
0.988,-7.477310685764678,-3.027359347741367,-7.037743138375845,-6.6434268503994645,-7.39607431520858,7.52807462830242,2.7917484341152203,1.5393401178541808
0.992,-10.096079639571599,-6.354936316024123,-9.760921056030384,-9.868181643826574,-11.832582450957261,6.115564661107555,2.6004225565588968,0.10177203853766059
0.996,-10.818765154095217,-8.052410214393603,-10.300492450267484,-11.518278339563949,-14.618938153546424,4.634331438655863,3.2886196645481505,-1.0183295325717836
1.0,-9.478096163542432,-7.864807621722775,-8.649120957061314,-11.062548540321131,-14.86930190609064,3.607883663208213,4.577035642990836,-1.4525811369633175
1.004,-6.614487877377087,-6.059502435384047,-5.48722542595624,-8.571193002214386,-12.239661685365718,3.2430066801196062,6.056895888337635,-1.0503981721051332
1.008,-3.210163461382308,-3.238568629358724,-1.8448886865071472,-4.703261054730319,-7.182481614380322,3.394368635136516,7.353662048103956,0.05222066519945656
1.012,-0.2387110640975152,-0.05444073522585313,1.331197092673392,-0.44569488399429247,-0.912323492548694,3.7077354663247206,8.220683981993034,1.477148718790204
1.016,1.7338202868163535,3.0169539495523168,3.496404001110477,3.2653246329036847,4.967343031257769,3.8333367230452495,8.527031975695536,2.7435252839152326
1.02,2.708831655836093,5.74832712156649,4.60183085542667,5.867952293353028,9.042117054894788,3.597116563925283,8.214245009357455,3.444563595677664
1.024,3.126736386515404,8.085279877328048,4.9728700307637155,7.310761576711229,10.615541976176473,3.0580357194830867,7.2883981904105895,3.391988207290069
1.028,3.5402976228933767,9.98490837331019,5.051582310512458,7.948219498582148,9.910404026757988,2.4437453069144794,5.8572338471892635,2.6587767013857047
1.032,4.280703014743722,11.291567244883936,5.143050628485071,8.272575967765988,7.836965523376421,2.0186653866689994,4.170308038359963,1.5166841722866593
1.036,5.278030906934873,11.731173818507386,5.279611920847856,8.627194124872403,5.465790899514559,1.952340181238469,2.5831608897224214,0.31316973925368075
1.04,6.103536937524495,11.024137462898125,5.238609036724483,9.037301600490082,3.4894824197554044,2.2382079490053,1.4309540472991102,-0.656831925123015
1.044,6.216970786294041,9.073585539216992,4.711823057496076,9.247726863995013,1.977267453073182,2.6952286916152843,0.8855944759352496,-1.2158986605541031
1.048,5.287853660576275,6.1263262438533275,3.5354641983499278,8.941090744885514,0.5563752438110896,3.050380417114411,0.8798644296864495,-1.28895440669271
1.052,3.4152235911838034,2.805024781568136,1.85397661711022,7.994983594021505,-1.1214194781446167,3.05469747129564,1.1719690419790822,-0.8486703270220914
1.056,1.1378025001768037,-0.030704064860856306,0.13641905324129766,6.62416079297418,-2.9422118612937993,2.587711690724518,1.5319173777404558,0.13415439639675242
1.06,-0.7793900141687118,-1.5713498326322224,-0.9830835419152208,5.3123077524710425,-4.233588919698377,1.7078682232095161,1.9322243534525114,1.6831320482447154
1.064,-1.6736359669903322,-1.3709060958140071,-0.9780565354867576,4.567244964683596,-4.100795891216876,0.6321854547691146,2.6137457345532766,3.752733797802648
1.068,-1.2830177531977824,0.44856398039246415,0.30897476564041426,4.626839324146204,-2.000169267345427,-0.3504713003217148,3.9451608015917827,6.142639022423737
1.072,0.11376412191839336,3.196365916207924,2.5412165752841247,5.280238167973039,1.8072958117509188,-1.0060062542843298,6.135392413120371,8.458422436099454
1.076,1.7980632795843121,5.847814089572694,4.980781030658363,5.928605932257597,6.238570397454168,-1.27021889122625,8.975023150880133,10.176837219835761
1.08,2.917837351761591,7.429423855323421,6.77306192089145,5.873707173795992,9.864487995358104,-1.2956029672795921,11.791593211086365,10.813926955165925
1.084,2.8764852587228233,7.403582846667632,7.316659287406765,4.7085157245455775,11.630156347944649,-1.393172254905494,13.692623565756094,10.137694881537755
1.088,1.6421544949471354,5.895739755518662,6.556847616138839,2.614035128600335,11.419095608850967,-1.8763132002245584,13.989777141256127,8.325534082331842
1.092,-0.1976066655379327,3.6384121798132583,5.033255337570154,0.3652352055933079,10.10673365029379,-2.886550947464002,12.559173926576022,5.95080383493837
1.096,-1.6899944777014753,1.64378334381081,3.63600589104135,-0.9972628032937791,9.048017111309491,-4.300418793445715,9.912531872601221,3.766946289589896
1.1,-1.972429468957671,0.748435383400647,3.1797276073693865,-0.682469049890642,9.287177932256327,-5.766559477417559,6.925006727474738,2.3721654152814153
1.104,-0.7102215413869999,1.246742139070193,4.002364788240811,1.4154520938118367,10.944588075762113,-6.8580084117488695,4.366505620286489,1.9209342466149337
1.108,1.715510029210236,2.7891444212605165,5.788668267075991,4.609663365151391,13.143569904474134,-7.2592958285513305,2.5315446182833057,2.0478944708575
1.112,4.373286919043494,4.586419039848806,7.7163894212426385,7.718195489257596,14.532532017689846,-6.895447584014619,1.18856718025404,2.069245427292117
1.116,6.230430660119964,5.809088980352499,8.85703497286795,9.627604706352031,14.099832758965476,-5.943839516423395,-0.1259478756073804,1.381702747763029
1.12,6.662207269237115,5.968692759750411,8.628461681968474,9.835056398094821,11.810330943669669,-4.7201204106982,-1.6657929821412836,-0.1510406029474325
1.124,5.750876994515238,5.095869684164882,7.072174316781457,8.673086098568092,8.686333426491274,-3.5129545315608084,-3.184400835413271,-2.050950685319094
1.1280000000000001,4.207374751618772,3.6381002096813972,4.809567387469542,7.086496215864827,6.267945327661437,-2.4641466757766466,-4.00548591539382,-3.4360647099306334
1.1320000000000001,2.948199475868023,2.1511561118168174,2.7018115456667147,6.071742841133528,5.7582118088644165,-1.5602575343064018,-3.453792426129894,-3.506390266661583
1.1360000000000001,2.5529420193324768,0.9641971989599369,1.3944777400502062,6.083115372704924,7.330258230665095,-0.7351255222720283,-1.3828641041991432,-2.0550264181379134
1.1400000000000001,2.909581354884722,0.0033309964123873215,0.9883850672285917,6.743136077057898,9.981922902047245,-0.0024906080925575225,1.5587001822268576,0.30484682532460283
1.1440000000000001,3.2524506194340574,-1.1350854130423613,1.0049734116091713,7.023064284140673,12.021496752628536,0.4770012593580759,4.134278124478897,2.361971425423235
1.1480000000000001,2.5964851628077668,-2.9046425807814558,0.6778706823843095,5.822035969948047,11.938012096410603,0.4527126629745908,5.129908151224299,2.9034315248104576
1.1520000000000001,0.34577764608548023,-5.475149923739082,-0.5721429723544134,2.6406844849370827,9.200279531334672,-0.25665162739642255,4.054407436882684,1.3988108631365321
1.156,-3.2865252876026716,-8.54701415628142,-2.7477705396031524,-2.0429866243630386,4.564657717411137,-1.6136845832425024,1.4951437815138888,-1.6249790355664118
1.16,-7.293841196233188,-11.423249250259232,-5.191914607320541,-6.908959813908041,-0.25230990689124155,-3.3220356711153727,-1.1171082373807621,-4.752916014192579
1.164,-10.323241138046797,-13.28955460878933,-6.861394668168032,-10.374254168970765,-3.355525355894315,-4.927540823017807,-2.2342799576058496,-6.348405219348933
1.168,-11.31961536927065,-13.560077149209974,-6.822933974461193,-11.306885447230343,-3.50945434760888,-6.005934509891631,-1.0168501445414222,-5.382963668516368
1.172,-10.02123783015577,-12.125005000104466,-4.723403351894376,-9.500756829729653,-0.6380079711025246,-6.335426278053092,2.210015562197441,-1.9821831553972515
1.176,-7.046417741075857,-9.38559478404386,-1.0022892914948898,-5.684940559148345,4.227683272377362,-5.956986929387313,6.11730826832536,2.6075821022941454
1.18,-3.5424586877124966,-6.078892138424635,3.2646090745183756,-1.0977572049905575,9.472023002072092,-5.099155881272964,9.089135546970738,6.630033014010223
1.184,-0.5796545173725463,-2.971081035025236,6.82710567426966,3.1281684608447904,13.615793558426049,-4.0240127050765295,10.104079160068068,8.69194772909077
1.188,1.3632379022783425,-0.5679626411101708,8.802725807007846,6.427832504195976,15.885609128639771,-2.895698412175989,9.262880646297162,8.428723121851817
1.192,2.5371948994961713,1.020519370709735,9.021355486165703,8.874338737742619,16.38351781644269,-1.757774391341627,7.658981757414949,6.600470526138906
1.196,3.628877725017446,2.019015394539565,8.003739112788026,10.87340455022786,15.834862778196111,-0.6317191682564953,6.670790662560194,4.58909199253776
1.2,5.217587445189565,2.7737258973029384,6.604797560414227,12.706336780373022,15.092028464695431,0.3543346222513719,7.107037473722812,3.5991767466130113
1.204,7.315510701961102,3.5115609070307983,5.525302027113867,14.223461913408755,14.660518877524737,0.9221423338603927,8.716568146823647,4.009733115893596
1.208,9.284064773142745,4.2111763780367255,4.9784118879069865,14.890820324648303,14.497723970828702,0.749528007241679,10.366951602982226,5.254467106712127
1.212,10.167210663479636,4.630295329776345,4.670750952409435,14.142908888472448,14.149911386348322,-0.31474795767917385,10.790642276977906,6.257855786663185
1.216,9.252926871247837,4.469964038056787,4.0867383158529265,11.806897039521573,13.117776940050135,-2.0658332414441247,9.4401963302289,6.138935404283984
1.22,6.521950299284072,3.563367669598847,2.878737602790352,8.30721309285218,11.216639411452888,-3.9358281792701746,6.894578544290198,4.746220132656617
1.224,2.7201935283028433,1.976932766394384,1.1092078860056063,4.503923140304323,8.72028436218261,-5.215041684350581,4.529415676533063,2.6970668693106745
1.228,-0.992938424431486,-0.034965778840160056,-0.8084011200771783,1.2530593163810408,6.1967093968714835,-5.40979807248732,3.618084591088518,0.9065853229403729
1.232,-3.647612437929638,-2.205298223655518,-2.4447901286384877,-1.0706483111989655,4.115624779084101,-4.553554134503429,4.383614867816959,-0.0953954747028547
1.236,-4.9645253746693925,-4.435238852647672,-3.7294249921033042,-2.783525838129208,2.4901838231189686,-3.27941820192882,5.612355765092616,-0.603664722782014
1.24,-5.471200657506415,-6.860089020059604,-5.092987798781905,-4.692944978392916,0.7897716095176293,-2.5861772573789494,5.1654917982800725,-1.6323281932345708
1.244,-6.158228928434255,-9.7227643275819,-7.228023744235543,-7.57847451874477,-1.766973523024717,-3.374405543343528,1.1733103180422404,-4.295094703645191
1.248,-7.843860026447146,-13.086509736127482,-10.559458207524585,-11.624725661458797,-5.660845571069331,-5.969602122208926,-6.724655889521273,-9.012344948391728
1.252,-10.60643235441421,-16.562120825840793,-14.744151643199075,-16.136539013970832,-10.576224905817071,-9.887521218231996,-16.79992174360359,-15.021062103792246
1.256,-13.609463478691396,-19.246956147328092,-18.55220598053893,-19.722642190248735,-15.276347208905463,-13.972981862676534,-25.73140986420958,-20.512745533172165
1.26,-15.447795768734068,-19.986782516745734,-20.30269095323638,-20.889988032253314,-17.999942789620945,-16.85927364677991,-30.021132784249858,-23.37892854952679
1.264,-14.854449301521527,-17.885577161627225,-18.687065824575257,-18.759647603445046,-17.247469752624966,-17.53723678683673,-27.634279963488552,-22.194024893221467
1.268,-11.377226654967671,-12.81050396891078,-13.535396610861426,-13.521340281929952,-12.563112381161773,-15.753564954628018,-19.002201270822297,-16.908278098972005
1.272,-5.675518315354566,-5.625574173748646,-6.092562546791669,-6.40551154037712,-4.9041635506464445,-12.062467227538946,-6.879038059440973,-8.902621075370917
1.276,0.6983092261962156,1.9964456584530126,1.3988979984460457,0.7926285822486534,3.6257384276705125,-7.545712682987869,4.867239580442401,-0.39503455948761257
1.28,5.925728059004541,8.142889715330057,6.643687793472054,6.401080951605763,10.596246762184819,-3.3626517683587736,12.901436054478836,6.483688103721761
1.284,8.664587966079125,11.379367162144263,8.29549513922575,9.449343062176922,14.238422535529935,-0.34930873309895105,15.692211258264251,10.478739716328164
1.288,8.558221197334205,11.283722017645232,6.501402147547196,9.887796581453586,14.127202308028245,1.1750125517664856,13.822494775436098,11.514896867239258
1.292,6.276290068191884,8.541168425535034,2.7056914923741715,8.39232322397038,11.23051625680273,1.3571505007876112,9.301416633574263,10.450142021993088
1.296,3.1082887913653394,4.565387734298383,-1.169436707665227,5.907207276799454,7.32737030005228,0.6003905589277565,4.36622773466388,8.49412694907096
1.3,0.34110814434643544,0.8445358984536142,-3.705494319256104,3.192390267027804,4.124990687925674,-0.6536841118831944,0.45557916671896237,6.6464843836402
1.304,-1.2748779635858227,-1.6611753063161814,-4.595344305751496,0.5959744464944379,2.5305245833660592,-2.047144113215836,-2.1601213607118552,5.421563684135435
1.308,-1.7299375153233996,-2.790003719863307,-4.5719528672361776,-1.8671256592915597,2.425391870686326,-3.307366288068806,-4.033706391362102,4.91391283125904
1.312,-1.5774681944676558,-3.032624459659928,-4.759924640980898,-4.241488819621736,2.9934302241472324,-4.195382210273237,-5.835939401923497,5.03704087092774
1.316,-1.527176769937796,-3.1135871881815547,-5.883944028781116,-6.382998200104339,3.3482430249550816,-4.494439978214359,-7.799757975298235,5.713621258265448
1.32,-2.038397594311391,-3.5514239413105315,-7.803820744253244,-7.8972848264147615,3.0953862978767575,-4.072756829555146,-9.630360738172385,6.894380905569051
1.324,-3.099124004073019,-4.419924998599527,-9.625493925750561,-8.297277982859669,2.525932023047062,-2.9778165903881018,-10.828636011522576,8.445543327412452
1.328,-4.262609772065844,-5.385693293906115,-10.274370128392547,-7.276331662964367,2.3802944539438613,-1.47790550173886,-11.107342335263638,10.058979411811379
1.332,-4.882936298932691,-5.938762610907361,-9.146056250803667,-4.920923994746772,3.366140549956981,0.01207881871596328,-10.571970180926655,11.30998955979976
1.336,-4.438273542462412,-5.676648774892783,-6.455177519244899,-1.7486435378050373,5.702585423401615,1.0884397397712746,-9.56237250625054,11.845372954265258
1.34,-2.7869625021412503,-4.494605941452392,-3.101065355936953,1.4640624713756552,8.949743394688994,1.5280682021384564,-8.335421993780983,11.584023992141738
1.344,-0.24357719621002616,-2.60883735268726,-0.1674601389131567,3.9805777419478545,12.193106718659692,1.3723930701544305,-6.866176550331147,10.76387270554369
1.348,2.5379621135725756,-0.4581299590790877,1.612798655183724,5.3759282402334065,14.454793877219345,0.8763112222168274,-4.964691658628908,9.769256805336227
1.352,4.825543499562627,1.4390703921617387,2.1197101027792087,5.6601543784709065,15.11747351361555,0.3546820250157907,-2.633350581300874,8.848921389457246
1.356,6.104795165963878,2.607178575332,1.7252216269043856,5.207925860320756,14.160987507004393,0.019991956229205243,-0.36588529882101284,7.917664384094678
1.36,6.261349780943419,2.680410166936781,0.9136389123632398,4.530803614346951,12.105791210025927,-0.10135516284935875,0.8886055002913054,6.597809160341058
1.364,5.590148459763441,1.462915662996238,-0.05845190524087229,4.024241518991403,9.72858854855076,-0.12252511735277949,0.17937444454400975,4.514646101764811
1.368,4.631060797630198,-1.0016696578477422,-1.2464322503037693,3.810747012939828,7.698321201638464,-0.1613913215624052,-2.8121510187029344,1.6591426358918397
1.372,3.8996474959494662,-4.382010440491285,-2.838495313470048,3.731005024363185,6.291337213206134,-0.2190009912574169,-7.3761370856746,-1.4361364793867324
1.3760000000000001,3.629993296079192,-8.085840406080024,-4.8754054527144035,3.4619406410765805,5.311282826954994,-0.16100832642223395,-11.926844319012162,-3.8644122956484352
1.3800000000000001,3.6587920801939617,-11.40397418005341,-7.092871689932508,2.6930127031955635,4.242410088831093,0.1788957883945841,-14.698525404559405,-4.803012522996141
1.3840000000000001,3.5262522535376775,-13.732628786516216,-9.00318173107371,1.2843651475704974,2.568842569640765,0.8424811917775514,-14.621360344646746,-4.007278421122464
1.3880000000000001,2.740231052834133,-14.79587166714191,-10.16011925571729,-0.6625107329564344,0.10251995038925088,1.6431486605324608,-11.880129228710757,-2.042364944959445
1.3920000000000001,1.0697888966460596,-14.756603153973629,-10.418458474669023,-2.8403468662108935,-2.844141948320612,2.2022677321128867,-7.817929415916296,-0.08901175450137089
1.3960000000000001,-1.289117623702623,-14.135582943374175,-10.00614286578275,-4.850689939732547,-5.526807625994479,2.129120840208998,-4.234158254228532,0.6014816834685917
1.4000000000000001,-3.7811789931474777,-13.570990827836795,-9.365130169277109,-6.352651859611797,-7.069125124076891,1.2436424107745552,-2.4847790136609547,-0.6845898620786102
1.4040000000000001,-5.757636872203875,-13.520047793677804,-8.866845162290701,-7.18076839483183,-6.868075074715307,-0.2826969227498921,-2.881547752844199,-3.7854738101268595
1.408,-6.777417379562394,-14.035276395621622,-8.574414376573259,-7.368095850677491,-4.902599283217569,-1.9458904744860774,-4.689989555187822,-7.762780661906618
1.412,-6.773230320424773,-14.728721732884878,-8.201917693309952,-7.074807967146626,-1.7831163526370801,-3.0999506935804675,-6.673246075544739,-11.3713852150413
1.416,-6.005839729034051,-14.949364630962009,-7.29841915412544,-6.4731965720129665,1.492356229273355,-3.2385083904864587,-7.831307037747138,-13.637156123651948
1.42,-4.859476431716757,-14.102573589225358,-5.544104309279646,-5.659659837318031,3.9621529168016423,-2.2357713212368253,-7.896053021778243,-14.234984070209975
1.424,-3.617502836190397,-11.953704450676014,-2.978544028428587,-4.645273717716918,5.086919223864243,-0.4316948312607565,-7.324911962231454,-13.50158973246289
1.428,-2.3602765168325277,-8.775224080036423,-0.03895471740906942,-3.4233901858096942,4.896267758023896,1.4891146459758602,-6.8784568194805615,-12.13356402385125
1.432,-1.0398824416442949,-5.268722900305875,2.5987034328718437,-2.068154829503328,3.839555145796112,2.776260425360306,-7.09616897435626,-10.776456538686944
1.436,0.3423970600379107,-2.297309757630501,4.282888492081838,-0.7866719487465161,2.448212866765971,2.9246302021747397,-7.995130472890196,-9.745181624087309
1.44,1.5942015105756582,-0.5581751175104728,4.6094604284953675,0.12020070186554221,1.0183803527233977,1.8728179539593839,-9.145528924002065,-9.00711946579031
1.444,2.3428824495167646,-0.34124013957080024,3.5131154855916975,0.37281332111524534,-0.5011153088034916,-0.0058546825111989165,-10.023431740208252,-8.384303150400228
1.448,2.226751838086784,-1.4527652968099574,1.2367129508675134,-0.13652750211258535,-2.3542101886851015,-2.0973950799307204,-10.369954395940113,-7.800219979578287
1.452,1.139764880797884,-3.33023187195613,-1.7774299449920363,-1.259974983997381,-4.688112820600509,-3.839421247566861,-10.327388360962686,-7.407861041337128
1.456,-0.6401441186098964,-5.287287060345989,-5.007139428133087,-2.640057274718856,-7.33539757739527,-4.9674467569439,-10.287143045991797,-7.5160511029207555
1.46,-2.5452613292036403,-6.773755135765896,-7.944424506848009,-3.866515758119931,-9.810800162122177,-5.593882252371259,-10.601722399044775,-8.367467780546576
1.464,-3.9882110900107364,-7.532449539041409,-10.165125484800228,-4.662986999959685,-11.538005867754691,-6.084916815922043,-11.353959210206995,-9.92465819381323
1.468,-4.653544104319735,-7.609637751174887,-11.385335082333768,-4.999402787354484,-12.170599813158333,-6.801601687697257,-12.316065450024325,-11.806379166291663
1.472,-4.635787956511194,-7.245088957701228,-11.509214170451742,-5.062123898074788,-11.790397196249614,-7.847168206291826,-13.108501942902876,-13.41812588052926
1.476,-4.34958809256932,-6.725592096205219,-10.662293133900675,-5.1170421711867675,-10.85915847430806,-8.966152703198532,-13.42428168247443,-14.226531766558765
1.48,-4.280007024462975,-6.275840609341685,-9.180922456478584,-5.359063325275201,-9.953202137288827,-9.675260572223124,-13.185179235128999,-14.037797717233843
1.484,-4.733289312272973,-6.026077034191985,-7.552801484082011,-5.850494222897396,-9.462086346882643,-9.569928322085616,-12.549206159488676,-13.139900079579093
1.488,-5.713259097261471,-6.027379127481254,-6.2928005885041784,-6.560499358973175,-9.430058287500287,-8.62693367690008,-11.788472497562907,-12.218670853771982
1.492,-6.95115869912479,-6.249934591440251,-5.773208061080368,-7.433478320352151,-9.603346659434465,-7.296669364628542,-11.114998025663226,-12.054284438050672
1.496,-8.04778678304865,-6.546537700469344,-6.0751817473064875,-8.419258214893489,-9.628419208858759,-6.309128269431312,-10.5615235061141,-13.136883547438629
1.5,-8.631503995740786,-6.621428513648425,-6.919013596005243,-9.427487973694952,-9.243442690720258,-6.275139714623947,-9.960288551874328,-15.371378920515781
1.504,-8.458262392814504,-6.070657882597516,-7.725506186925486,-10.249594279503071,-8.353808895129987,-7.301998014689161,-9.012777347328665,-18.02523718257362
1.508,-7.441477844586188,-4.5317655904218554,-7.811863493014243,-10.53753881629018,-6.985679214569245,-8.854296839763265,-7.4248930757603375,-19.971002065280118
1.512,-5.660579249724833,-1.9032530599379243,-6.66845246163939,-9.918863831248018,-5.208322608103117,-9.97863702750874,-5.063507839802696,-20.15039765010988
1.516,-3.3982993673635065,1.4646846935829672,-4.231373248996533,-8.244378319868702,-3.1448504750278516,-9.813244080487493,-2.098381406498447,-18.070690945391107
1.52,-1.1662120485052583,4.756377603214787,-1.0162529387162067,-5.821100387784099,-1.0727372500332422,-8.101937011786504,0.9331238514823781,-14.093138965263279
1.524,0.36787620188624715,6.942271073216034,1.9916244963751524,-3.4415159742857213,0.4878769289389311,-5.407388732499385,3.215599732915507,-9.355582803193101
1.528,0.6010397220452433,7.227740237211037,3.694656062620197,-2.105221680845716,0.8412503374493099,-2.8647706479387125,3.918685192891644,-5.326689794817867
1.532,-0.6997789528322755,5.486449589836411,3.363638199552952,-2.5191560762250447,-0.5967076559718407,-1.5896355010809202,2.5722755050337582,-3.179284833078782
1.536,-3.18304475772311,2.4207220498719835,1.0111904630502977,-4.649099011243379,-3.908912791797775,-2.0668428565040813,-0.6040002784866374,-3.279856943161576
1.54,-5.966383962528198,-0.6951343921627995,-2.5523471076521673,-7.613482627253688,-8.431632164119947,-3.879704312501417,-4.635670462688722,-5.043182631330637
1.544,-7.990709252662782,-2.593687913264148,-6.033081285921071,-10.038247904645687,-12.862442212421229,-5.948476128251059,-8.075101386364622,-7.226490617940726
1.548,-8.52865459397799,-2.641009267332265,-8.217320696556271,-10.73574855044717,-15.768525411218434,-7.150421631737117,-9.56367034793766,-8.520294961112086
1.552,-7.56973055855633,-1.1657035068965342,-8.511828318623884,-9.346863666407444,-16.263309370064235,-6.955205194324662,-8.439050222088554,-8.134139030536971
1.556,-5.854414886831364,0.7059305401344318,-7.186680882896326,-6.586010828112194,-14.48339044437671,-5.7083885600513895,-5.0700005263861385,-6.102218727593936
1.56,-4.516758850921178,1.6228067676074716,-5.1987145339589915,-3.929913562737056,-11.573088836314128,-4.403332373320154,-0.7205913077268633,-3.1886132337785966
1.564,-4.502171613868995,0.7029045074705209,-3.68436833506712,-2.8849080892759957,-9.131278084636506,-4.077889757365483,3.016691179971531,-0.4766382229827286
1.568,-6.075782141750096,-2.0136894102088263,-3.3825416158215376,-4.214185873846873,-8.387465154948586,-5.187480754946591,4.956003336410504,1.133599244589277
1.572,-8.690655734069878,-5.585340987476229,-4.287911912389973,-7.543897532592382,-9.555757963024007,-7.336614199608448,4.852491146542889,1.2732894612418022
1.576,-11.290156794533686,-8.636474319722765,-5.713339840567642,-11.565375361591578,-11.73851901791204,-9.523461898257665,3.4549059820128605,0.16687076433299808
1.58,-12.861111217549478,-10.011603471823037,-6.704368687980605,-14.70711156816833,-13.436052850556734,-10.740223469692864,2.0561509531835327,-1.5552019021215528
1.584,-12.915938308418845,-9.270403836177138,-6.560965608397964,-15.900227713915228,-13.390499571956752,-10.563036856794497,1.792799789862329,-3.151317233146983
1.588,-11.638775980540231,-6.785173702584871,-5.168970866154268,-15.021270436893246,-11.285607383390015,-9.371473133243853,3.06297667907711,-4.0122682570345205
1.592,-9.65907826423063,-3.4473534074968484,-2.981732905162062,-12.801098866879329,-7.900362574677274,-8.071400232911401,5.361282265303089,-3.7793574241723036
1.596,-7.649804621762087,-0.20749655277904822,-0.7164842543306804,-10.318484897055896,-4.653330845419987,-7.524030095410126,7.588596218836301,-2.370689348164433
1.6,-6.020012576338559,2.27870837667615,1.0244372111983466,-8.412095919215062,-2.8102546507270745,-8.043346674703571,8.638650557756591,0.019317419676099234
1.604,-4.857333573268988,3.7583570836613944,1.9928146729580476,-7.3372180748447136,-2.8056527069002186,-9.264606012595323,7.955759960751493,2.93205768973894
1.608,-4.084927713076468,4.27237658053491,2.2820427493570605,-6.806196316127171,-4.05262005518307,-10.434109066209203,5.780097970227871,5.699579915515642
1.612,-3.663306746078888,3.979407028578862,2.1294228456245037,-6.31422764067247,-5.322281168333575,-10.91753646540019,2.9979394333058735,7.598420874139265
1.616,-3.6640474077503313,3.0512418594007613,1.6955514912369836,-5.510805362871906,-5.4621868512113,-10.598844496911624,0.6994669331998011,8.096144643932348
1.62,-4.185492105403682,1.6621837171405787,0.951340850268025,-4.402467012267152,-4.052618282115873,-9.933249938334484,-0.3350231694876129,7.091531972953817
1.624,-5.190833644894155,0.024054914676526096,-0.25999630678415997,-3.293110643615364,-1.6425887854693428,-9.624779715610202,0.03889335334679345,5.015925355626678
1.6280000000000001,-6.420602338061144,-1.6210310715378,-2.0492203971552954,-2.547899527606205,0.5410604536882602,-10.148435609022272,1.3284553441662865,2.7010393319178547
1.6320000000000001,-7.493068422529177,-3.1072201233509986,-4.34359048069382,-2.373137658330961,1.2149713689304917,-11.433081864612177,2.6754256244294083,1.02909282699693
1.6360000000000001,-8.131454645885242,-4.47125028949813,-6.873583885750122,-2.7418555372059927,-0.3394178393500624,-12.893519923596614,3.2677932098213205,0.5347090833820403
1.6400000000000001,-8.34338958578519,-5.969954035268529,-9.277246262070548,-3.464406919760222,-3.9459340970861376,-13.773784902525222,2.7064601484198647,1.176351703441469
1.6440000000000001,-8.406122478147154,-7.917380742437672,-11.236612690863694,-4.312292478323798,-8.63006636958744,-13.584172982460586,1.1752294854941283,2.4009538668651658
1.6480000000000001,-8.648163528345322,-10.407061005917058,-12.556425398528518,-5.095644015760627,-13.059145719149456,-12.368406344641699,-0.6500067736687924,3.4685356687841704
1.6520000000000001,-9.16786350197799,-13.082888723944052,-13.144195507826225,-5.656709810835309,-16.074939696891306,-10.651695304040913,-1.9082923991827556,3.857981677923817
1.6560000000000001,-9.7164961463277,-15.161036456423972,-12.958625056828168,-5.8497949555167,-17.085485598368905,-9.135272054263623,-1.9473147428889206,3.5150954850723792
1.6600000000000001,-9.849904514889204,-15.749759799349704,-11.987194127184921,-5.570370269706473,-16.179982437217404,-8.33026179682929,-0.6223156126325193,2.8189329484412156
1.6640000000000001,-9.260312468039047,-14.319460379439988,-10.287848084997677,-4.853921199846809,-13.978666372535372,-8.34819828533,1.6297231220814865,2.2979872903360956
1.668,-8.065156069074874,-11.070540712418733,-8.072748930746457,-3.9757007030675595,-11.332253997767111,-8.941497581505246,3.9633855978536303,2.2739618562154646
1.672,-6.823244652605354,-6.956067669132608,-5.735472865442716,-3.431141424065572,-9.015122340861126,-9.7115919831449,5.488812220495674,2.64778256244972
1.676,-6.235976459218364,-3.307312493936479,-3.7652244905548287,-3.7536691004825116,-7.5417482054053835,-10.337099492357083,5.655432583267611,2.9380126629039296
1.68,-6.697392200196191,-1.2342592140921624,-2.558266941119655,-5.2253352558400366,-7.122147370198945,-10.68181515046308,4.469983220762515,2.550714841911031
1.684,-7.993522280383331,-1.117687841575389,-2.2271942939187284,-7.645487773814239,-7.714997248091095,-10.751099911385609,2.4446642002876615,1.123914335781592
1.688,-9.367067921877606,-2.4687937286362285,-2.534389340908092,-10.316837505466538,-9.121121530330129,-10.575202881029327,0.309607713821606,-1.2492191396995622
1.692,-9.935470367439848,-4.228160231967195,-3.0125561994755117,-12.296521040036168,-11.068094337309958,-10.128954396584959,-1.3654061155539239,-4.021677990771423
1.696,-9.216735994519695,-5.327006768513456,-3.2197062655031914,-12.800880726917967,-13.25506169295295,-9.350290357315316,-2.427692662573463,-6.400264432155382
1.7,-7.438773237226997,-5.216461700963919,-3.003062153733481,-11.563354497277032,-15.363366014134954,-8.235340088116573,-3.164341526406133,-7.663135583243275
1.704,-5.437853957297193,-4.089483936315446,-2.6202039461859385,-8.961806275365234,-17.065312377188093,-6.921075802714768,-4.085675407703093,-7.445508212658751
1.708,-4.2019191048893845,-2.6962478788900626,-2.6303997286013328,-5.8449326325935544,-18.063496595401375,-5.668240527918897,-5.588256693958101,-5.88540559636931
1.712,-4.321170614395669,-1.8740996749711485,-3.588345536878478,-3.1469316582224565,-18.156160991698925,-4.737331833688586,-7.6874309360446205,-3.5849291373287997
1.716,-5.665029840947682,-2.063944342000468,-5.6963918575165735,-1.4867935543734347,-17.30780433169639,-4.229913676239448,-9.956873054341486,-1.4071677507381537
1.72,-7.48617824403118,-3.0886133091735246,-8.626472914951592,-0.9647735501930583,-15.69928456793059,-4.014615440746638,-11.715329958404254,-0.1772603827121202
1.724,-8.885144661329832,-4.3005318273044395,-11.613272944239725,-1.2361091482671327,-13.705540923521767,-3.8078923948905867,-12.369092953784275,-0.382519181646785
1.728,-9.332393623182725,-4.987660218777819,-13.785752084404521,-1.7753872488829074,-11.795337013867538,-3.367947006738177,-11.714486513774318,-1.9785693243557034
1.732,-8.924493111673655,-4.786011844580571,-14.56577705107702,-2.162176341378654,-10.366858316903745,-2.674838889783132,-10.060341436054841,-4.384435880003366
1.736,-8.238897123199422,-3.8636740480706067,-13.91915337302271,-2.2322073648792866,-9.571981451810643,-1.9751659097782976,-8.103357339936338,-6.685705940541993
1.74,-7.906953136149241,-2.789478286076701,-12.337891976258106,-2.05161626321933,-9.223781451042669,-1.6517326790799416,-6.605036695487797,-7.992217869054002
1.744,-8.19397911512715,-2.174793452142694,-10.569271097199817,-1.779657596427569,-8.837712695451046,-1.9927872291627864,-6.043443027075227,-7.813782403076402
1.748,-8.844766386046103,-2.306869702944823,-9.232632705439755,-1.5315560513154196,-7.811623133671674,-3.0016839385862113,-6.401535604969467,-6.277901039638891
1.752,-9.273085630553396,-2.9814488886477193,-8.521922402873315,-1.3223005852923961,-5.6879704944130935,-4.3700101119611645,-7.183246154459084,-4.080563951264594
1.756,-8.944640918271034,-3.6148998112457775,-8.14355311779218,-1.102270536695869,-2.3904432143135637,-5.623374736160258,-7.638849595634383,-2.1766064507301053
1.76,-7.724129591690144,-3.5971743278587383,-7.536356962955324,-0.8529054344253382,1.6581618619784422,-6.36978961954992,-7.122840595965499,-1.3637165503478172
1.764,-5.9803920385820675,-2.6859100083456724,-6.251789402474969,-0.6621455322710972,5.607465547644097,-6.502879589110307,-5.419637275821515,-1.9643787002605677
1.768,-4.395865388079983,-1.2081637222454447,-4.283762957038562,-0.7169384070402884,8.434037868770247,-6.23700299916527,-2.878000677939781,-3.757912765702713
1.772,-3.5987868220254313,0.06177670296165161,-2.1550811388151487,-1.2066512390301796,9.303853087092648,-5.94406928470562,-0.27652057580053224,-6.165351863732212
1.776,-3.819562736487569,0.31273288221382245,-0.6884041762350535,-2.18335822224617,7.917026430550322,-5.887607262977326,1.5326846555608427,-8.55773672511441
1.78,-4.767337881992717,-0.8206670895087882,-0.5724428719477146,-3.4618749793189636,4.687664021712408,-6.0254267131495,2.0445967908035527,-10.514431110105761
1.784,-5.793313638198015,-2.9824251077843655,-1.9630483744185767,-4.636740033878596,0.661999912103056,-6.015239914457197,1.3635977467538396,-11.9108066100016
1.788,-6.231369570203242,-5.193595392820498,-4.3395449451309105,-5.225222274908447,-2.82388623992847,-5.430226464663065,0.16520351438339276,-12.832580636104467
1.792,-5.7256312141616945,-6.300493923965405,-6.7108416508708615,-4.877979160271934,-4.640378855459858,-4.056919826518424,-0.6256178795065352,-13.427697939118843
1.796,-4.388048750573944,-5.563763910618945,-8.08416202787339,-3.5681609786224726,-4.315421906929259,-2.0944132652257395,-0.3067672173083338,-13.81211148993225
1.8,-2.721154141036095,-3.075575103983283,-7.947426307535352,-1.6550905476615299,-2.223423297276895,-0.12855814365684637,1.2221184331519908,-14.067259902668411
1.804,-1.3723858426892548,0.2167574810791848,-6.521703036294639,0.21869473613332957,0.5838079113218555,1.1233475333228853,3.3795097630554665,-14.289261745056137
1.808,-0.8447710620384896,2.9224611954887223,-4.639782394708163,1.376421103352186,2.8460014446045534,1.1712710617648554,5.174695552186677,-14.596980384218114
1.812,-1.2702835808231612,3.8754496785804804,-3.2910369119563256,1.4214766867553408,3.6773119714835047,0.027660533432936063,5.723983944912106,-15.041388404422833
1.816,-2.347470132950548,2.719562869027868,-3.0776133900762943,0.4634540063198074,2.985828713804949,-1.75529508278305,4.738215832951937,-15.468201861684975
1.82,-3.4661024722990987,0.09999398079526145,-3.8828640221872774,-0.8850537196849473,1.5023753747318551,-3.3180848772244644,2.719552734399258,-15.469662219251404
1.824,-3.9819859281997196,-2.663072999985161,-4.951887176976015,-1.784096540262908,0.3799413018969062,-3.8848350211246725,0.7475708522806599,-14.52953133734718
1.828,-3.5329875669449393,-4.257791261052262,-5.340342889343447,-1.6073719192499993,0.5538581898636039,-3.1206906083516515,-0.06559686995024094,-12.337168717476743
1.832,-2.240557731674926,-4.060875842467794,-4.475436797962175,-0.32316474947947427,2.1875677263997204,-1.2718073551714042,0.8435312387664453,-9.094856725137106
1.836,-0.6911387128602655,-2.4597842510411283,-2.5163171528438397,1.4068924174625863,4.499963653153827,0.9735093785766367,3.1892176885367007,-5.598480786129585
1.84,0.3112956209515687,-0.6453447565436363,-0.31065663611661876,2.500438195816969,6.099076220689312,2.826239354626523,5.965766690791497,-2.9696294333652986
1.844,0.12846707275821245,0.019395420185901457,1.0418747218827775,2.001746157236994,5.689233680468533,3.756564944442289,7.936647201144297,-2.1220686668712005
1.848,-1.3735146195667767,-1.2857014812616399,0.7712527591374965,-0.37174081118791946,2.7773860292654717,3.6933269462624594,8.249532042998908,-3.2400691615266624
1.852,-3.7001374792816932,-4.408545990012499,-1.1530281697450846,-3.983752210122475,-2.0075705316230597,2.9899262163198728,6.8571160828741995,-5.588566754880958
1.856,-5.902220679210586,-8.298195287668932,-3.997314046084284,-7.491779245596263,-7.158728521922967,2.1991302946044016,4.5182424478962275,-7.80420078152747
1.86,-6.996522653307693,-11.54483105424697,-6.6506829845402535,-9.4548958848427,-11.008025852652281,1.7788800347134384,2.3748077967939025,-8.568616448998
1.864,-6.448437396542431,-13.100617504702313,-8.206723371189582,-9.051368967120652,-12.54720351668584,1.8731920979189454,1.3183479865147092,-7.3199772560446945
1.868,-4.458750075444186,-12.785300624136653,-8.406578572135913,-6.519092713071586,-11.910309640594278,2.2748065385567315,1.5065957684491877,-4.591188118303762
1.872,-1.8850219051855674,-11.311989781164812,-7.697656700518564,-3.0613475993741304,-10.250202857523618,2.5831645459093124,2.302589854929465,-1.758138891085764
1.8760000000000001,0.19003543624421582,-9.82097843194515,-6.879257051818058,-0.2380777962425782,-9.050535747202048,2.4679692675090337,2.6827074339062165,-0.298896593047175
1.8800000000000001,1.001474027223594,-9.208034999853226,-6.573419001138973,0.8244657188370184,-9.268539902939665,1.8921068967156316,1.8917921148968162,-0.9742740108540602
1.8840000000000001,0.46443928027110815,-9.63097015998028,-6.839474623962815,-0.01898487206926802,-10.78807834944746,1.1724101146573958,-0.012333274620687007,-3.383651690715851
1.8880000000000001,-0.8224759727308992,-10.44882553134812,-7.145254650158677,-1.911236307792933,-12.481388416228583,0.8465490174639854,-2.0619206906940235,-6.14832901988666
1.8920000000000001,-1.943169888048942,-10.633512036882166,-6.7224281852759304,-3.518407934654533,-12.867875652910698,1.4007843417093682,-2.8359775625176553,-7.648153074532274
1.8960000000000001,-2.2015652409718314,-9.419097754267568,-5.0989272596143564,-3.8165871291166695,-11.010669907263946,2.97697178494127,-1.2747304592430737,-6.924851160784783
1.9000000000000001,-1.5281775252333318,-6.822704165406321,-2.4948674965453392,-2.705574855728628,-7.15218501254185,5.202559526487676,2.5790784600285406,-4.253232859618038
1.9040000000000001,-0.5432545667335944,-3.754082614057552,0.1476525818088703,-1.1147380942566087,-2.7224004539148154,7.245587172761589,7.31933853213377,-1.071715959107678
1.9080000000000001,-0.2296714793119463,-1.6219904764393505,1.5531001310919237,-0.5218306127790129,0.3169470107077359,8.111999903554533,10.631884245548463,0.7086784725415782
1.9120000000000001,-1.3921231225813244,-1.6387304006411796,0.726342979225592,-2.1416431361030845,0.43753212056799384,7.077848170949437,10.325753689045087,-0.344857620172661
1.9160000000000001,-4.194572248470649,-4.180942739646525,-2.522546899408553,-6.212334275169269,-2.678866599790126,4.077691804117421,5.449185383369695,-4.46179969635341
1.92,-8.001950477733772,-8.527483827459946,-7.401765589180286,-11.738013964550191,-7.939051512366859,-0.13031113148190343,-3.063348227874485,-10.51556923066164
1.924,-11.617236486417823,-13.117915923294277,-12.40616174031311,-16.84262550982021,-13.310338565994243,-4.154105045183314,-12.601137977554572,-16.52007926213537
1.928,-13.782496984187674,-16.200503820442464,-15.903903837373946,-19.560523236474182,-16.710212129417414,-6.471547610671223,-19.88958291767449,-20.50685366882317
1.932,-13.699934903012036,-16.560481255968625,-16.774673332392922,-18.687524595849027,-16.869523622452107,-6.060090212061368,-22.35560185497343,-21.343597971108466
1.936,-11.330494103574893,-13.979080036257074,-14.8098547326681,-14.286746229088749,-13.757133341305234,-2.8742748848853807,-19.195438382549582,-19.11299477504781
1.94,-7.362222686157111,-9.228295462356982,-10.721388405117978,-7.63814959008414,-8.42576599019776,2.066869642864731,-11.638258572548693,-14.925710921942482
1.944,-2.9173314174495317,-3.6641657381233017,-5.800610681546459,-0.7008077939754003,-2.442816940013472,7.048169704105021,-2.3065297581256345,-10.323782169019978
1.948,0.8644857598246745,1.363641543211088,-1.395491957635386,4.6583555160868855,2.762745933282531,10.350831131761879,5.989875996379851,-6.594402046976938
1.952,3.1979127770136984,4.9992590075517,1.5648935981298564,7.32770609606996,6.324648448746302,10.972294112338204,11.398418832448897,-4.325742780998553
1.956,3.844693936265685,7.057721656130525,2.813926242037269,7.240626910526771,8.002568714495283,9.036750641856997,13.561554320196592,-3.3759387673535457
1.96,3.085731649345689,7.866987726192747,2.693393552341149,5.214985565155075,7.96546502291767,5.692517718183808,13.35636597485427,-3.194798184191768
1.964,1.5083400964413158,7.908194745579749,1.8571296571153653,2.4576337880225765,6.50888252441473,2.5351868339603243,12.081592826400538,-3.2629471097966416
1.968,-0.2683055538473127,7.497414476138147,0.9075654726548237,0.0014304173273558263,3.905221817642996,0.8487541114918713,10.610913361330859,-3.394367859403701
1.972,-1.812453060902044,6.68765302790689,0.14483765635486634,-1.661113299012868,0.45143459884911863,1.0387972913104022,8.998665096741206,-3.746902220965694
1.976,-2.984890022167747,5.399013562827349,-0.49544190728374815,-2.634010122223117,-3.4048734643101852,2.5188818793303653,6.703725892070452,-4.586828309858447
1.98,-3.8884090085703065,3.667534518390312,-1.2967787449579191,-3.3736931028997788,-7.014133612917249,4.096157953283182,3.2249828282933777,-5.975429040865947
1.984,-4.707459063747592,1.824480606560428,-2.5043379080234445,-4.308886812112178,-9.635774913523164,4.639533922420014,-1.3030932135261537,-7.582706512093409
1.988,-5.528805025767724,0.4545254948834554,-4.109551172896317,-5.542640112085792,-10.696649776299637,3.6687339320133106,-5.952873399082819,-8.761825922204935
1.992,-6.233047288240414,0.13929514047049452,-5.784187472068879,-6.773203382041174,-10.050595464645994,1.5691796508172047,-9.379032150873172,-8.84987005360972
1.996,-6.525999411682278,1.1240953617052583,-7.003739920333828,-7.461367595711636,-8.082354497048982,-0.6591265388969987,-10.516153407664206,-7.534101261834621
2.0,-6.109513975803566,3.099649205119931,-7.300790352801414,-7.14406138115919,-5.57444649162062,-1.9597986866383508,-9.170203473818674,-5.081383259526319
2.004,-4.902228479633777,5.2424185462159585,-6.514911708625732,-5.715551725696059,-3.392052353496183,-1.7776644803452655,-6.151650404614429,-2.304164709441011
2.008,-3.1703257407461933,6.534912934809654,-4.8985329868510235,-3.5176955497954623,-2.136954452342252,-0.3229857667201941,-2.891144673816598,-0.2684416248539492
2.012,-1.4543515125478734,6.249734183571491,-2.9917079169845238,-1.169847692062831,-1.9173189208358963,1.5824942734971046,-0.7464835930895788,0.13584351976760445
2.016,-0.28383345862675924,4.374187884915955,-1.3103883153180504,0.7830253673455445,-2.336895985979936,2.973548753971045,-0.3740344785601337,-1.4286689860036859
2.02,0.16842167803224584,1.7391891520619538,-0.02750236484735069,2.2004791812751137,-2.6995553424276295,3.249795770019773,-1.4851603322240408,-4.595085539778665
2.024,0.2659261788958247,-0.2571680422825011,1.1509406691675395,3.4465450794732533,-2.328361955535911,2.446238460493987,-3.0834968464941994,-8.434651469635355
2.028,0.7750915661717954,-0.24077659462636802,2.8150682717359814,5.178277659347259,-0.867559848304154,1.138986533375828,-4.02322762377662,-11.832668786920294
2.032,2.4328076553738356,2.475792889460081,5.4404274265571075,7.904374140278378,1.5324984587323343,0.0645767082560269,-3.5857778992744898,-13.935137829028463
2.036,5.428194327246274,7.472004290784753,8.960848460722445,11.554907948617256,4.21848646516537,-0.31427834473561234,-1.7906062884776475,-14.476078516398957
2.04,9.090216658440113,13.247896725801638,12.575231587744383,15.308225203179063,6.216920805196878,-0.06008956610185123,0.6640937984029733,-13.85514813072541
2.044,12.00583755738171,17.720077426852185,14.939994139791452,17.8044410123166,6.540542668694343,0.2889537241180733,2.7507961222745507,-12.939018046644833
2.048,12.601162105673211,19.02618709724129,14.731600802772846,17.706945235639978,4.554293891425459,0.03779495733760996,3.5747845464443344,-12.660576264435804
2.052,9.939599789795466,16.312023493394918,11.324645805070759,14.36670137017154,0.27988714303228335,-1.2581188125195695,2.744994995957768,-13.571119763746083
2.056,4.328710805511037,10.154061564606309,5.247107643230265,8.263288000915054,-5.482673195466305,-3.5143101787853084,0.5146238631896267,-15.525665778681287
2.06,-2.6256349696159305,2.4088920284366395,-1.8622332545010067,0.9653719295602059,-11.30902682916485,-6.1042903718253,-2.3295458652983143,-17.648600232359968
2.064,-8.623236065264791,-4.488561219631265,-7.854280902613937,-5.4343715529048495,-15.592490088090017,-8.122723625097933,-4.785318786436619,-18.631772499674298
2.068,-11.66142916465651,-8.485486938074246,-10.954714426705323,-9.160365675707908,-17.126662346779085,-8.77355116784247,-6.014785113522066,-17.25428939779431
2.072,-10.942839420477867,-8.73070486839606,-10.52819637072298,-9.49465701475765,-15.602415395344451,-7.703923114893314,-5.64465848886357,-12.938510110276184
2.076,-7.23962716863025,-5.895162529866866,-7.355189391728345,-7.067328347799048,-11.789281973648485,-5.1429056622801,-3.8948066487564574,-6.117890888099737
2.08,-2.503855689629745,-1.8341161610237577,-3.2549004722395694,-3.5329573785329558,-7.2555876217534205,-1.792084694348432,-1.4646341781558476,1.782452718588047
2.084,1.07952835994638,1.2563251438500629,-0.23512198544813145,-0.7883188154291929,-3.7076706999555427,1.4461627647510795,0.7701460846469672,8.778850007296114
2.088,2.1382757009114357,1.833158630789967,0.4428301964298953,-0.0777678939375619,-2.225274319014261,3.7856224334809667,2.142466284397642,13.03555630652545
2.092,0.7292866222123848,-0.3036899042294863,-1.175243296914232,-1.4130827795925143,-2.765475270627576,4.79084871345367,2.484624531953159,13.560266526133546
2.096,-1.7704766394526814,-3.938008826055011,-3.8163164563738974,-3.585924822121342,-4.193402327487092,4.451174583562533,2.1635996376319326,10.590291286061756
2.1,-3.4166546317410393,-7.011066871492403,-5.6383574850915466,-4.766347613256585,-4.845655605257434,3.0971611888844564,1.8572400143152663,5.492029879113716
2.104,-2.705444183649888,-7.5878609378214605,-5.145423021082024,-3.4116446564994476,-3.3742977853826233,1.2194657071026995,2.1794940451554794,0.20311782518524524
2.108,0.6789793549778551,-4.76597362946859,-1.9148199410328743,0.9496051916576107,0.5480606044384331,-0.7301269526360556,3.3409162402031143,-3.5457810710847752
2.112,5.742959545464146,0.8954563492666239,3.211258702813211,7.436777736095792,6.029439453462601,-2.474805687260414,5.019749720376922,-4.881503986602638
2.116,10.707175987392475,7.618553881493426,8.545803490210346,14.17184071619613,11.376143001103628,-3.9432606135314927,6.525934081575997,-4.024586596092604
2.12,13.86118171018461,13.183021910664138,12.342083746172648,19.08424918577839,14.903982084691961,-5.211321523509014,7.15512878535219,-2.03625554077189
2.124,14.300674972509114,15.8538005277519,13.538826760256597,20.77156055087562,15.718329939981686,-6.402591333822784,6.530199655844854,-0.2257367532738499
2.128,12.22312353277539,15.046336284108293,12.13291574188952,19.027232504526182,14.077400204781497,-7.589700659993014,4.761262448476373,0.487578501516964
2.132,8.682670797104038,11.438750438906027,9.032738979163696,14.797955053050828,11.161662679931396,-8.742295481079964,2.3477491995950004,-0.052210143526508546
2.136,5.005041250676186,6.532749029337083,5.515034797629141,9.63413522567862,8.389247161210278,-9.739096372524273,-0.09017993144334469,-1.2866123145802248
2.14,2.1969980212779774,1.926381094678618,2.601891457169586,4.94021493919081,6.670118356700641,-10.425855990931268,-2.083954892969132,-2.33771516431716
2.144,0.6091682832056904,-1.3480714566785537,0.6502250570233628,1.391275594200124,5.986661245840423,-10.692902197053172,-3.458150164200788,-2.511560140151687
2.148,-0.03289072025745554,-3.1118041277613884,-0.6676269733029585,-1.2114820692559078,5.510810813099852,-10.53123438745206,-4.301275460155466,-1.6290809821744006
2.152,-0.32777822293473946,-3.8710541743032536,-2.0310850511182252,-3.6177206342531463,4.16414551701655,-10.03702763905585,-4.807797915762421,-0.01944818114429836
2.156,-0.8442304197651538,-4.361845577105669,-4.014733945272383,-6.563012297947807,1.2807462165601464,-9.36708579216338,-5.121878767643466,1.7708788443130743
2.16,-1.8985181191255833,-5.095156961752309,-6.757571097070468,-10.291663512648938,-2.9998251153340334,-8.678996739508875,-5.278184554808377,3.3418709585910165
2.164,-3.519219496941787,-6.133078482564997,-9.89968729100201,-14.40557392175333,-7.792321255448542,-8.079603360074998,-5.234434038610516,4.663300387185245
2.168,-5.5394541629048035,-7.164225007841196,-12.77201459564003,-18.090943124708247,-11.909294017894808,-7.614728898563953,-4.932921413539134,6.029316357772586
2.172,-7.699083345578401,-7.7684137920814464,-14.694498825804203,-20.54774459222608,-14.42179960933413,-7.293061250664323,-4.313429706574425,7.789549252227744
2.176,-9.676665609923475,-7.664447496975754,-15.20411410852148,-21.353708416275367,-15.017831660931051,-7.114352418964927,-3.270640947591801,10.048685999065128
2.18,-11.059895053887885,-6.786117496326369,-14.118428710458375,-20.556592159922275,-13.983042937756636,-7.06550180183558,-1.6220752453180012,12.535321716005683
2.184,-11.368372606087178,-5.202824829176734,-11.493826380972678,-18.504471060567084,-11.899272030138945,-7.094710817835903,0.838449031543405,14.709200689357658
2.188,-10.183679193948592,-2.983120403900557,-7.5556730978305495,-15.562622499973259,-9.273001402994396,-7.085682635373587,4.173332875849383,16.041897531328004
2.192,-7.365899697068016,-0.14720151136862114,-2.6841137814158174,-11.92522529620237,-6.333326743315411,-6.869968728064123,8.09865631959201,16.292029260571894
2.196,-3.2423611832209644,3.2293061455684438,2.5451109383325274,-7.646560468791904,-3.1072021322270302,-6.2926189857030295,11.90432495865798,15.601243174255387
2.2,1.3856501351510815,6.855070738406084,7.364316127258462,-2.8370376042221324,0.3385368241965807,-5.301210744069522,14.609979248906257,14.372797598377247
2.204,5.478736237823341,10.148502550343437,10.94290235184235,2.1433406199430465,3.6865640315484143,-4.007513388069583,15.345777352209325,13.02343146030671
2.208,8.183301890771872,12.38004097170733,12.666315205216051,6.6827442301228075,6.376553153944997,-2.6658495173387564,13.800627361394163,11.78189018002081
2.212,9.222996371291174,12.997639589586925,12.436619245779639,10.137702708494544,7.83943521808078,-1.5597852365785911,10.483711941762635,10.644460806379016
2.216,9.036283956892476,11.96277279363676,10.814117351184905,12.151877813116698,7.816072724259811,-0.8432400865713134,6.633161701320432,9.503808753921476
2.22,8.561398275930515,9.875444301846983,8.860839177979415,12.85629544940366,6.541660317314836,-0.42501563768064443,3.7540614148044824,8.342338042030406
2.224,8.734616323419687,7.750866748670887,7.69511053563906,12.778276168582806,4.659794051531662,0.008722977566094414,2.9741303489472557,7.3296251388758265
2.228,9.953536665008869,6.519987023805243,7.955627091828774,12.486165998953311,2.900230125492726,0.8246250992428941,4.543921347688183,6.7540790648766915
2.232,11.786372558741505,6.497542127673455,9.44414049060265,12.166869547894066,1.6911874247869036,2.1915492351977264,7.725778212587102,6.833536037139993
2.236,13.120911461502374,7.140901254764117,11.175869352856125,11.42290639421185,0.942141920910899,3.894098250060779,11.138204957834432,7.534962832251267
2.24,12.706914598211824,7.278057060638503,11.853578770049808,9.461842332606238,0.13208956675634909,5.34524219408695,13.397234502425363,8.54463053577274
2.244,9.824246270408821,5.72999549887254,10.547700715238989,5.611546069544602,-1.3384584742277639,5.819270897974775,13.730638927293626,9.42840359225329
2.248,4.731855401418898,2.010818570780316,7.231310011550704,-0.12006352884372973,-3.7388694812404992,4.8132588896073685,12.275892265699895,9.886633704172027
2.2520000000000002,-1.3436050570830957,-3.2752576679620233,2.880851541341144,-6.785162029425692,-6.772523799769715,2.3608002479942343,9.938082694964123,9.941826965748987
2.2560000000000002,-6.683995810038596,-8.574246017927521,-0.9181939353952657,-12.722019180534971,-9.62869490596404,-0.8799831454805371,7.915864493359663,9.942133510224949
2.2600000000000002,-9.78846915326858,-12.027294305428086,-2.6651322008137868,-16.189602971552176,-11.291114854164448,-3.829978817669712,7.154648656478685,10.375772518863982
2.2640000000000002,-9.967264254750262,-12.308755745443364,-1.5852787014107435,-16.10069172871499,-10.934340172754219,-5.410527703430489,7.98392778635872,11.601170001680998
2.2680000000000002,-7.544919953711087,-9.243733656749896,2.0821246405305374,-12.48292425785985,-8.22395113348216,-4.9895393368591385,10.093346460265195,13.648004708580856
2.2720000000000002,-3.610765246052324,-3.900820311784173,7.266509923609647,-6.43358736625305,-3.4061089258073025,-2.64339698241065,12.786522553446616,16.192502934278764
2.2760000000000002,0.522657723467546,1.8737959138079532,12.578896596639197,0.390396951099774,2.796622471411638,0.8818024431852791,15.336618885095959,18.693240004758763
2.2800000000000002,3.864468310399843,6.245036555217666,16.866243056707162,6.4648316860216255,9.387977402354863,4.487712110422763,17.25129995819009,20.592529972960506
2.2840000000000003,6.038491953411949,8.11311751974722,19.538253959805047,10.928786531630067,15.313060270098504,7.168316505743519,18.334459038153113,21.474887824196912
2.2880000000000003,7.233465721394282,7.44489823056216,20.564653455570806,13.723995131451488,19.63978513433767,8.375784919124953,18.566451547745203,21.127612274020976
2.2920000000000003,7.909299578699688,5.100886918548895,20.23078812136191,15.339985358537547,21.702422997175802,8.156720420007332,17.934258931042166,19.530054638275715
2.2960000000000003,8.454707301156873,2.2934281941687686,18.842151317614253,16.355161837543847,21.20855652829232,7.0203964585296035,16.343627666835914,16.827829045318936
2.3000000000000003,8.994596808132087,-0.006936841656170145,16.575452993790236,17.06262788243032,18.317862476875348,5.643919475896723,13.6870692727436,13.350205962705218
2.3040000000000003,9.403106191521488,-1.441947809037515,13.513413769633075,17.347659379984748,13.62874827021733,4.561961175867452,10.018843284885008,9.633209885664883
2.308,9.454068545167615,-2.2791655785480884,9.77787372230398,16.822363363945556,8.024547684695733,3.9680447383117325,5.684431015322787,6.356047249694882
2.312,8.981476189760542,-3.1200701424287445,5.631702414800884,15.094284304094458,2.4030243684742345,3.7005092533166817,1.32237500978988,4.1578240089993415
2.316,7.962911367784841,-4.490558975290469,1.4681404134378226,12.009156136904835,-2.594784894303416,3.401519783679646,-2.2782200759133957,3.3891058352921277
2.32,6.501688440875796,-6.529699664892689,-2.2852079925531825,7.756694023184423,-6.713616286254933,2.7461984162536055,-4.421026164090051,3.921108373573759
2.324,4.750442578131356,-8.91572771879612,-5.279669615087073,2.8214732705290544,-10.012505292026958,1.6261183848558858,-4.73445029023469,5.148517313583852
2.328,2.8452921247810536,-11.040645447803058,-7.3000770298828,-2.163679057536001,-12.639535827539248,0.20518669430862246,-3.290125175480739,6.228874397221375
2.332,0.9005334187929748,-12.301469723990635,-8.223445841932403,-6.5666333832916735,-14.581019092152133,-1.1667116139209384,-0.5615600889479424,6.473373086902086
2.336,-0.9512513717781985,-12.35018971420891,-7.947621406298822,-9.860106371344273,-15.55153772448648,-2.1300177751706997,2.748494742394257,5.689590076546779
2.34,-2.5428270778397746,-11.211452989719874,-6.398573892664217,-11.69974530959962,-15.126790587020196,-2.503014360249267,5.914146906342751,4.258980879870137
2.344,-3.704737576776779,-9.23358771982521,-3.6321424004745495,-11.978427818569571,-13.040930952036206,-2.389944252317491,8.353351953908884,2.8978646686369416
2.348,-4.329219711207315,-6.921746257530458,0.03343228430435374,-10.849988432707278,-9.46352467128088,-2.154649331951191,9.714294195728314,2.2212966082422554
2.352,-4.406628687434022,-4.742174096361623,3.9784251111746016,-8.684032842481884,-5.065181820969997,-2.2548184310795705,9.888092369520962,2.359966474206203
2.356,-3.9914946574908754,-2.973759249770069,7.424726308081517,-5.9351070981897465,-0.8027372878938195,-3.0138990588841352,8.99023315636191,2.8609671160460834
2.36,-3.1227037378605473,-1.6596607832973405,9.719230426850572,-2.9703369301728344,2.4648899327395384,-4.437814974446837,7.326174866533677,2.931521996811341
2.364,-1.745914498766524,-0.6465687862338427,10.621119340725727,0.0754578945832236,4.324020310448532,-6.161620151485181,5.349044543239302,1.9054666988332656
2.368,0.29317015212086517,0.32540619544852234,10.433072675319181,3.3349112081396015,4.92518977054965,-7.566245469466253,3.5741997481527505,-0.3284417309725427
2.372,3.142152050603727,1.5100201554424757,9.85217284407986,7.0814462089881545,4.793450137440686,-8.023352267207315,2.4375349351852265,-3.2007534444372823
2.376,6.770246834916406,3.0528083432895983,9.583832054919867,11.482084601805127,4.4393683455513155,-7.15984777385529,2.1388602114419655,-5.71172459158106
2.38,10.845678550246475,4.930565521703556,9.935705527350137,16.368593919324667,4.023243982715599,-5.022052913980701,2.5390245610346938,-6.914543763745542
2.384,14.73254471116752,6.924243519306742,10.608107636280465,21.14191380587681,3.2607538354138796,-2.074612265562905,3.1603076482100505,-6.382311881532814
2.388,17.655840518245668,8.654943386427021,10.822933630779744,24.8959926170985,1.6356243647791189,0.9743724238022651,3.340385254134162,-4.3941729588507314
2.392,18.972036072089622,9.685656572283278,9.741594220639854,26.725005298993437,-1.209668603983232,3.443925673470517,2.510236531280384,-1.7453630112844394
2.396,18.425515924670663,9.66686465133148,6.9561772432707585,26.07954804933206,-5.1398289573219245,4.926098790755532,0.48761859916589856,0.6981776583565988
2.4,16.259787532991595,8.477359062729306,2.786146645284134,23.004918043839098,-9.45096759375815,5.402764698336227,-2.3635697253216676,2.448036158628952
2.404,13.108732306194497,6.294488120240658,-1.799143158865263,18.13338585411043,-13.121244443708065,5.183260266262096,-5.21317425954328,3.592763447766629
2.408,9.728636458094797,3.5544167173665073,-5.591645370274591,12.43770779422266,-15.249441503142975,4.7003170263956235,-7.066784851048624,4.658159506473453
2.412,6.698359852055319,0.8052599454845222,-7.67259826591453,6.87084009144769,-15.444961920452101,4.270617074009124,-7.183311733320238,6.215802150152058
2.416,4.242089140260077,-1.4775836742247748,-7.769412314960846,2.075181811727134,-13.94483896519148,3.9425982139721327,-5.414221941568599,8.478176291563045
2.42,2.2652733039599298,-3.0123513673682965,-6.252242204152708,-1.6925101592430565,-11.389021816895593,3.511466843879134,-2.272924132568278,11.12623900687504
2.424,0.548526339188129,-3.7289823206648407,-3.8176542729806897,-4.428637045449477,-8.411572782296616,2.6788257568207428,1.2930647669576274,13.451351203389095
2.428,-0.9966420703681251,-3.673252654644102,-1.0479939618217031,-6.134410987116098,-5.272221380442147,1.284586310879149,4.3202987147698195,14.73044006837165
2.432,-2.1584955496120983,-2.868721876644827,1.8843627820338043,-6.621581219232667,-1.7475326023460411,-0.5043510750481346,6.238713887003314,14.625589359799505
2.436,-2.4696412252453683,-1.2565745727570174,5.185072655902559,-5.527630132279228,2.630805422663798,-2.172793932858667,7.054763917835885,13.37035144802519
2.44,-1.4420858180885716,1.2395931440540835,9.123806939705673,-2.540465235124884,8.134355304530345,-3.032014335953363,7.2197313820784075,11.649110173548138
2.444,1.1226539787014644,4.551946022497077,13.642776692852067,2.2869596756656847,14.450169366126374,-2.5255433157574316,7.26317560699033,10.244244713583385
2.448,4.9179134228159,8.309176735029268,18.14270512367807,8.331841788402471,20.57649217887274,-0.5231181949470738,7.41381757059321,9.637506808741932
2.452,9.15292405044147,11.825850778895983,21.615964293284605,14.477629191840606,25.110667200061243,2.559419768439966,7.43499919530052,9.791904766301968
2.456,12.830021676775687,14.302165375522918,23.076265138431154,19.48813183355901,26.82485481560593,5.903133305509982,6.780717418233962,10.234954626073659
2.46,15.169753703647757,15.169239426472586,22.05927733487556,22.52221943456084,25.238639775877573,8.637878411212569,4.9979769565482,10.383814487517157
2.464,15.963976177579752,14.395479999524696,18.910653051499594,23.51558052791438,20.888867225829244,10.236932393666848,2.117597366881455,9.920808970996973
2.468,15.649563595068685,12.559939334788396,14.671986683110845,23.187839617730106,15.143037135991108,10.73768438025445,-1.234534543717018,8.99521899620811
2.472,15.044569186869921,10.610615018887756,10.61384956344773,22.632239692550684,9.630086701170057,10.662278075535824,-4.092914713584037,8.133451462282437
2.476,14.873478118275216,9.413081292232619,7.670972873142091,22.683634669394905,5.578742692524202,10.675592906135307,-5.642054143157452,7.929401597463652
2.48,15.314108382838185,9.313397999464541,6.066183402553179,23.391479758273817,3.386673543776851,11.154829017881411,-5.667182637429164,8.687100394224785
2.484,15.825578248220609,9.961269574394692,5.317500107176329,23.903139626686425,2.623535031588972,11.922467239157186,-4.679120759212196,10.224325246034482
2.488,15.379013094468519,10.495643028426457,4.608822051961852,22.853172373020243,2.434985418513179,12.315402860961967,-3.6171719229330392,11.94970466491327
2.492,12.991323924824883,10.00176640427594,3.2993990995146305,19.080187630851015,2.1051558150002165,11.566581655186837,-3.290048356857824,13.164059485896814
2.496,8.29993217104493,8.0040943807021,1.2845273149400782,12.2989539225091,1.4510984789969825,9.287180691398362,-3.890689991985255,13.394765216706446
2.5,1.8769710415890586,4.741001775248378,-0.9666379217683243,3.3814527278573223,0.8459356023283817,5.775482953244818,-4.879175827630661,12.587359705175231
2.504,-4.908579519564228,1.0800232914655226,-2.6907518964912924,-5.912572640596409,0.8875160895067893,1.950092691698046,-5.311109364699519,11.060447252192148
2.508,-10.414724747203309,-1.8566240095565263,-3.245940560408144,-13.616487171567314,1.9435847141469367,-1.0722432785446472,-4.4369335342095155,9.269416233323568
2.512,-13.390124507955534,-3.160212503930552,-2.4225139704381036,-18.30252659826101,3.8641771575355506,-2.5234440138974605,-2.209828284036689,7.540528272375809
2.516,-13.449142627066522,-2.465278019731386,-0.4889180916238729,-19.526188079402345,6.043529896688597,-2.350225750441041,0.6186219541096989,5.938919715627435
2.52,-11.13706758970011,-0.01636989814437584,2.003278825081452,-17.795216063060707,7.784083718925558,-1.185434919564841,2.8763195241798485,4.3322468823757845
2.524,-7.587121738179576,3.5049349010548667,4.508256647116923,-14.15321115087363,8.720308647129968,0.05178506164497776,3.5992221197732306,2.5855191944906437
2.528,-3.975217980115758,7.261484892619137,6.682928522277052,-9.660440816408482,9.012076949089305,0.68254194902579,2.5447407367082633,0.7322394693982233
2.532,-1.0546128458827297,10.515285122233081,8.40106746805941,-5.0490653468091296,9.180339624921771,0.6175604090381057,0.2958873799148023,-0.9891415435156432
2.536,1.0205339524482042,12.785116021893373,9.63062619545235,-0.6748979272688302,9.694063396075535,0.33334858895068464,-2.0925792469643056,-2.2500804162233408
2.54,2.5645983563167647,13.912119498798575,10.309474104664332,3.3169341936691126,10.589619961930566,0.5118320898702677,-3.6742808219497647,-2.8097722939747882
2.544,4.045093432678186,14.064994276898688,10.340769844841361,6.796306160998938,11.39154960087194,1.5733749079824975,-4.056457743975898,-2.6297117295960106
2.548,5.782098476900501,13.694254364279459,9.714171989497117,9.586852052614177,11.41337270563622,3.3998577456818566,-3.4612887459118156,-1.8514109767731952
2.552,7.797983383307383,13.397712538934002,8.632402546642425,11.546611356093308,10.248876953627587,5.400463157478953,-2.4248364550865062,-0.6784437050282577
2.556,9.839925752697582,13.688023387243675,7.506810446286181,12.671018114613162,8.119404910839876,6.855807652937756,-1.3840298425766377,0.7319385580683502
2.56,11.506448615699355,14.72523511819736,6.773733765790894,13.085999836950123,5.823180637838732,7.321547131070247,-0.44143840200513296,2.2817510855156797
2.564,12.368925210409998,16.129580737508377,6.601428825533731,12.887610491306987,4.267785135814847,6.839155520522809,0.540793724943569,3.839248984003234
2.568,12.059545780708959,17.036644932674108,6.696454077090948,11.960842274783317,3.8646406096297596,5.847689444346543,1.6213697188095466,5.144210572056409
2.572,10.345001251981103,16.446603656960406,6.383911261134017,9.95507935226442,4.192437974656286,4.887262669606116,2.5288835135456793,5.84135046914389
2.576,7.208613215867899,13.744383439423927,4.977855276535593,6.505240408167992,4.194788801286904,4.296563922837777,2.711532088538661,5.674664338272123
2.58,2.9606186921873814,9.143798685690854,2.2749160337589274,1.6294694316948153,2.857674673233987,4.104322270220564,1.7139296591783477,4.754781223522059
2.584,-1.7066991940714615,3.775835102081828,-1.1268448299811098,-3.9540830723135514,-0.028297060156774023,4.1512104838416235,-0.3576933695230764,3.689431673478339
2.588,-5.821679323027183,-0.7036590760039871,-3.935705957365826,-8.867100463560746,-3.519454228959148,4.316334726570858,-2.6521507845936867,3.405732190688923
2.592,-8.412264714449066,-2.8434840827171683,-4.722922536578153,-11.55391612851281,-5.879956136027886,4.6560145299686155,-3.901010152813569,4.666543996609789
2.596,-8.884154305247648,-2.104895108593837,-2.682709695709491,-11.02170362318384,-5.525090760728517,5.332630728722052,-3.150778233422443,7.498012074882126
2.6,-7.326155074736107,0.8221742961268319,1.802027780370281,-7.4515339239983405,-2.0553720920140677,6.3722336202758925,-0.4836276113294389,10.867670910840616
2.604,-4.552446305929607,4.298414644747481,7.137344247583769,-2.2994946407707175,3.2454499586456222,7.443939298956593,2.736699384467329,12.886034203801955
2.608,-1.7995576560274458,6.5124467428092885,11.136322682219998,2.257017335803539,7.834129607596424,7.867286941394013,4.35530156667437,11.555159110077284
2.612,-0.1864672199544657,6.362741915446577,12.016928361142163,4.306139664532111,9.120235717990909,6.906153139607341,2.4911070560890494,5.765586238918331
2.616,-0.1949435935780457,3.9892152266158973,9.292906275977202,3.1302604687048188,5.858638596482706,4.21926195963124,-3.357679424214666,-3.9497476627016113
2.62,-1.4312671734451214,0.6836964535420975,4.100578196359493,-0.41206024113762396,-1.033119377910225,0.21069417913395228,-11.778876686587637,-15.332397129317314
2.624,-2.8072073517764693,-1.7696129531580027,-1.2422137076628132,-4.2696815127610535,-8.722864939101783,-3.9565722868192097,-19.853567589383147,-25.11703815293845
2.628,-3.0764210212719263,-1.9931097202370438,-4.2802528292631905,-6.184501633437321,-13.737234334605546,-6.759692409699255,-24.36902798796973,-30.287827095179182
2.632,-1.4838785842152902,0.2887957425514287,-3.580696658836132,-4.806764385028146,-13.648378601395507,-6.97063509230702,-23.280911032265294,-29.318691818767093
2.636,1.7980767223366456,4.110329229039053,0.5707313194734525,-0.3762661013925026,-8.29242825242818,-4.247372234844079,-16.68846341514677,-22.799868654078637
2.64,5.675645050605453,7.731933444710194,6.287410852251014,5.373113030390414,0.11864864483368365,0.6575277142974301,-6.8193822328992155,-13.142006754462955
2.644,8.58737012176789,9.460273890219014,10.964648888246302,10.024049618508798,8.070294431503953,6.199802812464895,2.9782432456261176,-3.4975389004325734
2.648,9.21884536480593,8.436991282600957,12.518426237892982,11.613524438689637,12.47529549240926,10.726217882782748,9.753228045697597,3.5995321252194117
2.652,7.129659249102588,5.021074121868878,10.370966489246257,9.533999377648797,12.16108708052252,13.197329108172653,12.20782137881406,7.2249096463413025
2.656,2.9964649039684446,0.6006179956116284,5.704312212922105,4.775352488081808,8.351503400630008,13.59197909103068,11.104658680887042,8.231301291938053
2.66,-1.6527247036683548,-3.0552173324626892,0.8669822028568888,-0.5760306317702089,3.911012647347434,12.796229143394157,8.676777184253979,8.557444047797162
2.664,-5.104588101365152,-4.601220980241578,-1.7859856349596157,-4.326881039541149,1.7634634603678023,12.040874631140468,7.354237232352716,10.05219062470951
2.668,-6.212641617501504,-3.7054452210368254,-1.0374588040840536,-5.163408326687204,3.335332917537926,12.191516383082671,8.484035285414166,13.425019476938814
2.672,-4.903643181396546,-1.185155421413583,2.6143313192742426,-3.186564163019284,7.833574367620713,13.257791586800977,11.688810587883154,17.84189478375538
2.676,-2.182561606759009,1.3741804892711116,7.2322492198700274,0.23937807875881845,12.726954921955894,14.391048722845426,15.157372067555798,21.35803567742346
2.68,0.3736686708361958,2.3521359959167967,10.422822767956859,3.2175734010188535,15.150649586781583,14.37572887538181,16.66927159343254,21.944837805469888
2.684,1.3982402835472385,0.8579919970979972,10.530316923453029,4.258069284755948,13.468837893533873,12.355602303685828,14.81072035254806,18.57586653422004
2.688,0.428586676031955,-2.8079432120425736,7.455721889313281,2.983005879516895,8.172871357583972,8.407442585787976,9.751247834732567,11.822061713620087
2.692,-1.8495080539978517,-7.225610664270789,2.691326720278994,0.25786972885452997,1.6430088394940867,3.6358260176780277,3.184131297919066,3.654094514875169
2.696,-3.946365928904015,-10.445501912728105,-1.4269422968509389,-2.2958379163201244,-3.0782817360513945,-0.281363196935672,-2.4975134054395767,-3.432878213983031
2.7,-4.335209266028869,-10.841342441493452,-2.868396936188219,-3.145725560770188,-3.8337943888991504,-1.8734543113178006,-5.355358528738634,-7.535055722162269
2.704,-2.2689974589393387,-7.853319567180733,-0.8839630812708492,-1.631166474845486,-0.41286009104305776,-0.5925961809571163,-4.794729443308142,-8.143000153576622
2.708,1.774904990318646,-2.272829784573787,3.6633300195417178,1.7032365188060794,5.40099890808051,2.9100464494931657,-1.7552338343346037,-6.253384492983287
2.712,6.267044377463208,4.085093294151648,8.76207020182028,5.384357709315736,10.79093565808671,7.0936636593860385,1.854168208733654,-3.7643533337143253
2.716,9.353276458774417,9.177998528215085,12.253050951586374,7.750966373229858,13.338010695620596,10.267146506677818,4.1685369166527835,-2.4794873950474994
2.72,9.760354307295529,11.61670336641464,12.841021361009552,7.770497351795711,12.157780186917535,11.370675378834676,4.278475064963914,-3.2393562137331173
2.724,7.39485641306328,11.202371836678594,10.614306998293614,5.501237790270352,8.181798152168994,10.395481606896283,2.584007960195322,-5.606784938175451
2.728,3.336994090243934,8.873505256962744,6.84538088098634,1.9784348155808402,3.500558776469461,8.249742691010397,0.44376108720598495,-8.224308450784292
2.732,-0.7737647339326941,6.101301290316769,3.2194227147283527,-1.401734794026197,0.16899613828945803,6.165978158509461,-0.652370211691732,-9.625212187645275
2.736,-3.626819547341711,4.068491450907004,0.9260559985791588,-3.656786108750566,-0.8627769937716039,4.9926963188027,0.06918837304260705,-9.048717829893576
2.74,-4.904802879430463,3.072435467783862,0.09473017765049008,-4.713268655606498,-0.13608296510483342,4.7658769418681,2.245677768717087,-6.838491110732548
2.744,-5.356420151070779,2.472394721971341,-0.14360338367578152,-5.345031922765429,0.7822207725862427,4.789694911369224,4.604140082422191,-4.220458161939632
2.748,-6.241479950262601,1.1994013477603858,-1.0322614661686202,-6.5942717744223955,0.3121504595510487,4.156740438540055,5.702009674949295,-2.5956176990025597
2.7520000000000002,-8.481158851703185,-1.481021252787059,-3.3843614474185415,-9.024207835898778,-2.1740983354739,2.374568539453321,4.741847117167026,-2.765739627848916
2.7560000000000002,-12.009319317302925,-5.397447179928349,-7.04906409898058,-12.246081225689522,-5.960929340115399,-0.272096439345205,2.0277955231424585,-4.513510453681192
2.7600000000000002,-15.707274380255967,-9.428480204861899,-10.94688977829992,-15.013813853050124,-9.373920560781698,-2.8338471173051403,-1.1713794532547581,-6.759284251349072
2.7640000000000002,-17.97269702424819,-12.022474278530808,-13.636571139368698,-15.86086157246882,-10.701420422637057,-4.221953852849765,-3.28228936215919,-8.203079529509068
2.7680000000000002,-17.607711405497867,-12.005893355521494,-14.098912190485862,-13.9351027507646,-9.14889747726238,-3.841791411512986,-3.2566539092651965,-8.088231500648817
2.7720000000000002,-14.51761433887441,-9.234357554583767,-12.30136817320681,-9.554560322317684,-5.298265281345266,-1.9667126620365707,-1.1349151624885963,-6.64977817806016
2.7760000000000002,-9.816326351562566,-4.7149979309888295,-9.214437472345253,-4.147400572981951,-0.814781726253841,0.3659603495366355,1.960270958545152,-4.981269710168135
2.7800000000000002,-5.27183995314499,-0.12669339808326185,-6.277140871449774,0.41242794586287346,2.4252267640076752,1.875312216774546,4.383016549203376,-4.394412742508621
2.7840000000000003,-2.4005768650677055,3.0040917549258666,-4.6163706946899765,2.7257019325452347,3.31057226008852,1.686285536770356,4.796582516921717,-5.624479360069472
2.7880000000000003,-1.733311035006409,4.015755329638068,-4.463646419955694,2.5255144704833583,2.0406499245200393,-0.24604037538074408,2.8282754178733285,-8.347493474000885
2.7920000000000003,-2.650673082393041,3.337789379314927,-5.09625433552128,0.7146946127936644,-0.05573013559660467,-3.159263041516624,-0.7736525341247216,-11.298714203708187
2.7960000000000003,-3.8609098142642324,2.1226305757732007,-5.331825824954194,-1.2275320010930955,-1.3197074585364135,-5.914928804260853,-4.553338674302722,-12.94011280573477
2.8000000000000003,-4.228287534651827,1.5045161450661908,-4.303283138617644,-2.133813466160518,-0.7473688033314829,-7.595909368315915,-7.114065737419878,-12.326103758355885
2.8040000000000003,-3.463861631002146,1.9109315752707516,-2.0696702194195495,-1.8166853107095449,1.394517836720297,-7.937646390155805,-7.817856358626386,-9.673627654997972
2.8080000000000003,-2.2743723964026685,2.821449154988386,0.30620864179400087,-1.1343140334947748,3.6741681120292924,-7.3746694161513915,-7.050229213916509,-6.301227038485422
2.8120000000000003,-1.8927073576987823,3.1078554210066613,1.2859971665793637,-1.4202031781915139,4.2869702398115805,-6.70789890319611,-5.916204112639207,-3.945947137764506
2.816,-3.271143108641354,1.7581211911951868,-0.2872364127883884,-3.6128556454254976,2.116249188914935,-6.605335771321734,-5.555776727321927,-3.8236629994376017
2.82,-6.422555499406371,-1.4384205954404479,-4.478604873846962,-7.604050111184733,-2.52952738693466,-7.224414840757618,-6.457330395679492,-5.959393506296465
2.824,-10.31374603314407,-5.651429581343791,-10.107322971040503,-12.19903021829441,-7.938743547633976,-8.163882484166152,-8.161415213653754,-9.167726904386427
2.828,-13.376983338889659,-9.368129373865031,-15.25489262815745,-15.718332245362944,-11.804041832246185,-8.751847725787684,-9.533795214138308,-11.700869969155292
2.832,-14.360217457904582,-11.167250227023487,-18.182385481296933,-16.908063741674596,-12.409729676907318,-8.48789266974154,-9.45418463870169,-12.209807987606837
2.836,-13.026334086789575,-10.478410066981724,-18.1733524480469,-15.633004590172732,-9.56212268956142,-7.377480934288542,-7.530554790687347,-10.477711398284328
2.84,-10.293784268693344,-7.911411598283394,-15.846742431389885,-12.945002548054163,-4.753318947958633,-5.961706968396811,-4.415405860809187,-7.520415105705524
2.844,-7.732317009523285,-4.957623061267213,-12.768704078755263,-10.480452690562515,-0.4314426735284087,-5.027706969039059,-1.5225450600989348,-4.998722511501683
2.848,-6.69885341148165,-3.2160357547762715,-10.582165729844519,-9.531213654776138,1.2530115617960291,-5.169457056446504,-0.27696693742041134,-4.283079844123108
2.852,-7.592176442337859,-3.559469253885254,-10.131448214127431,-10.314219661305742,-0.43100268061425595,-6.444277973491353,-1.3018486529601887,-5.695770620767917
2.856,-9.651267388531778,-5.697638429452809,-11.063711350071571,-11.864917565606902,-4.414883670470317,-8.328068624073921,-4.027373266801078,-8.35949038084118
2.86,-11.402219209222949,-8.356498476422985,-12.112752415669092,-12.610123693970763,-8.397289412556802,-9.990357525701711,-6.966861559470999,-10.718352004271765
2.864,-11.495616347108353,-9.971193856961236,-11.886417484747199,-11.293759481349753,-10.06270401911138,-10.739669060538972,-8.509651746007194,-11.419716845678067
2.868,-9.461032764700121,-9.508157074129485,-9.704666767171602,-7.7293708033148505,-8.299473476093908,-10.389804877872848,-7.808518379062093,-10.052179315582634
2.872,-5.970920299007503,-6.992998975570117,-6.033850035065825,-2.9724630285736566,-3.778807877190502,-9.349935415147684,-5.279227044110485,-7.342814501270823
2.876,-2.472743031805294,-3.47066503432211,-2.277794307971817,1.181456422469637,1.404095597601554,-8.380360766119793,-2.4067733549226205,-4.7212706758050444
2.88,-0.4088539777890219,-0.44254754313851663,-0.051891143895772984,3.095152609577781,4.817043435959931,-8.143143217454053,-0.9442762786588901,-3.5136824100162585
2.884,-0.47283770988906326,0.8851833151384199,-0.361274597278225,2.081307261506936,4.907784087427899,-8.79941846149677,-1.9525987967288074,-4.232410494516216
2.888,-2.3040562478495303,0.14548060095171422,-3.1230633722598213,-1.3212742193331906,1.7145663663075084,-9.886393269033078,-5.202191817322159,-6.333739809900862
2.892,-4.770042528774866,-2.123088944771098,-7.278165037427243,-5.705122566263526,-3.27567813230462,-10.551581974368219,-9.273701582221406,-8.55090178998114
2.896,-6.641477593806485,-4.869239368246099,-11.387083379984233,-9.54250793637857,-7.989065925576369,-10.015747142008877,-12.284474215645787,-9.585186625089023
2.9,-7.256419942134471,-7.110145309101199,-14.33466599841222,-11.887914503316551,-10.817362549865265,-8.010493689131863,-12.839251045301353,-8.751628432388316
2.904,-6.804533767342946,-8.375801870161922,-15.763913269345721,-12.67676116831717,-11.29484871146019,-4.951978859111705,-10.683866054415262,-6.252404476246966
2.908,-6.082103203804763,-8.780905329622328,-16.019027965318855,-12.500628620788575,-10.073817728898803,-1.7471524552036044,-6.720191198588054,-2.96914742250965
2.912,-5.907826173274316,-8.75308247736416,-15.70802279596046,-12.064013652752692,-8.299497737874844,0.6530524159857123,-2.4449717691333035,0.050982082103246285
2.916,-6.578950172548048,-8.65045446008935,-15.217502827998032,-11.694969233976963,-6.824892810394658,1.6987530951491863,0.821274200368407,2.095640301870503
2.92,-7.6755955380008345,-8.512111663838368,-14.468572206865701,-11.181520701996533,-5.729025532253445,1.4585056671519396,2.49480718028542,3.038307794700927
2.924,-8.33649910599479,-8.093652018425473,-13.066240407430087,-10.012426971255536,-4.40173096745707,0.49563022780762367,2.7852214453731676,3.2440192795054372
2.928,-7.824822740811669,-7.12831568513684,-10.71531841814226,-7.832830237887038,-2.0967149305272414,-0.5073919607821153,2.3049076761492415,3.2405056530469665
2.932,-6.019994796135052,-5.601534507199403,-7.586387286064564,-4.795213016771868,1.4486004997172586,-1.1311386098334424,1.5551834245418377,3.391238647511841
2.936,-3.552469950856903,-3.8506809091659306,-4.380807294164697,-1.5928873244270108,5.718426066896882,-1.4000153279357619,0.6323264982560204,3.7429531063610284
2.94,-1.4810729923765393,-2.3996431715968356,-2.014151150867292,0.8636987901020348,9.642647025895712,-1.6598649807174297,-0.6721011427076746,4.100191975410439
2.944,-0.6993012188340799,-1.6337981490223683,-1.0994284470516504,1.9335841268812146,12.192710517737623,-2.244955584450281,-2.4834139012614287,4.243323188584441
2.948,-1.4092754353455348,-1.5261240978027217,-1.5418310301622569,1.6087390997240618,12.977265779886238,-3.1547690367069663,-4.478457267886483,4.142350987726445
2.952,-2.975119689880785,-1.6114267554435173,-2.513587098912012,0.5364349071985544,12.463196808000248,-3.9625347822047843,-5.8412356255898885,4.026349784829222
2.956,-4.243076996193395,-1.2440704658458799,-2.8608678018690625,-0.31970636014398224,11.680325385866809,-4.022150574309308,-5.628761244403563,4.2723572404722745
2.96,-4.1552809549637,-0.004722331319499062,-1.733783390131066,-0.19301513438449547,11.577103896687618,-2.860387080722603,-3.356085804433974,5.180387934815258
2.964,-2.320935280135245,1.9876931140356646,0.9177478795845673,1.0794071388434077,12.420460157984849,-0.5166129436478286,0.5765249215691028,6.773533850777085
2.968,0.7581839287715866,4.049771849518834,4.2602801019825165,2.9598011015386874,13.585556106775812,2.3782417176385025,4.899914728542967,8.72850566833904
2.972,3.92213857627371,5.224755456620301,6.957746535924116,4.463911261054363,13.866053599865381,4.847616823009389,7.9842583597985595,10.477888259902443
2.976,5.909209297060215,4.744639437431488,7.820309206015963,4.6233151384465145,12.133986991610982,6.006766002091695,8.594543382076552,11.434928890299943
2.98,5.94162001339987,2.4196015023533164,6.37962041681817,2.9256594885023333,7.988665471209288,5.456839503632182,6.489418796166603,11.245909493899774
2.984,4.054609354341437,-1.2470009038922854,3.090797221119601,-0.4624861516872443,2.037030933660617,3.4388555756895585,2.5327234169456005,9.94823092110829
2.988,1.0299140890856506,-5.266446185952532,-0.926449658294132,-4.766166214002851,-4.34221570498039,0.6845773563206876,-1.7350726734962905,7.958209760992929
2.992,-2.006339267251633,-8.586610881721526,-4.446754108116465,-8.902200094606997,-9.609720049222801,-1.9391392826898937,-4.843385834723108,5.892953170000396
2.996,-4.092529723154485,-10.511300120151759,-6.684906046228434,-11.85669029268638,-12.718802795085821,-3.7839003514727665,-6.067775840572324,4.303915960718484
3.0,-4.776239019290642,-10.906746061242984,-7.537789231098714,-12.972512174742633,-13.468993600318981,-4.593337738992091,-5.68169139642265,3.452986114492546
3.004,-4.181084486370537,-10.135454719114932,-7.434086966404266,-12.078009239004814,-12.411170408445287,-4.458417848575891,-4.677261231878617,3.233204346247817
3.008,-2.822436673013044,-8.799811210961025,-6.930446325178309,-9.465925829994262,-10.411356295245469,-3.6430779592594718,-4.15290923699331,3.2673470931505335
3.012,-1.294920287533614,-7.4396742105941485,-6.3126565030680695,-5.757852211227373,-8.149792755585395,-2.414192887735794,-4.701912166230386,3.1352796167476527
3.016,-0.01171055014981448,-6.341740164824955,-5.4553334058293785,-1.7285779313992862,-5.848632155197151,-0.9812067708102177,-6.137707084711735,2.6033144843273703
