Timestamp,O1,Oz,O2,PO3,PO4,TP7,TP8,Fz
0.0,0.0,6.821210263296962e-13,1.7053025658242404e-12,-1.2505552149377763e-12,-5.115907697472721e-13,-4.206412995699793e-12,5.9685589803848416e-12,-5.002220859751105e-12
0.004,30.22987587079436,27.770192064340563,78.55126811333042,45.35466386404295,39.45749337357171,50.95759425279107,32.9203265584095,8.850710774909885
0.008,51.6572009297023,47.3075816506157,135.3401373754166,78.57493043736696,67.15404170340378,88.57636890630806,57.024005025022745,15.064831844680612
0.012,59.55001838710575,54.17834093925296,158.33863726136104,92.98722707987167,76.77509133681315,105.39751125069358,67.38001994631179,17.33567675467691
0.016,55.167005545970994,49.553054549275544,149.97642717160392,90.00531315466174,70.05977651304426,102.67577837710223,64.8444333114752,16.263260063833172
0.02,44.625973690681235,39.16728859390628,124.66916238305924,77.7033858274159,55.32972511903154,88.8675677773889,55.11413727897161,13.864843362785223
0.024,35.39738949246998,30.061132275823184,100.66154850359243,66.2003181086983,42.8355593685979,74.72046062619188,45.50023906780092,12.339104425455048
0.028,32.50126679138057,27.019918357411484,90.92373656627973,62.55172575432732,39.61345517040684,67.8560882174512,41.28565388767453,12.823107698483454
0.032,36.47491757375522,30.64443498805207,97.95742640351648,67.89254174116405,46.614452686239304,69.7634477025889,43.593541410620446,14.880253535370343
0.036000000000000004,44.01280266382034,37.90622678397375,114.79524388001403,78.08296463096269,59.38469882354053,76.50610951019098,49.70580334202566,16.977244412490904
0.04,50.612851005378985,44.59020605081554,130.87328129764603,87.06453296529935,71.50406730856201,82.25195695844593,55.34868721731465,17.57831931496355
0.044,53.36899788624592,47.917030888995725,138.66076923787352,90.58216689150419,78.4299956096819,83.10097708701005,57.3450444485149,16.15592450336146
0.048,52.30930458047007,47.83851083280058,137.263842529194,88.16770487913561,79.55101312620684,79.01039699251044,55.145048134019305,13.48942376529908
0.052000000000000005,49.73481446544861,46.45261974993085,131.45563674219875,82.57487451851341,77.57015439044119,73.03693986983319,50.59078533207736,11.128017376069579
0.056,48.28710031197707,46.18620882818345,127.47353554563102,77.47361283585059,76.02225535282281,68.8368555274937,46.375442288772945,10.41844316756351
0.06,49.15074086305546,48.06602986708734,128.69057203324456,75.11673951960563,76.73856373510301,68.29451827405921,44.335246554398,11.703258085517518
0.064,51.43674011380202,51.098570565856875,133.69991790441668,75.31263374454733,78.78150886458803,70.64750704667046,44.53731853695115,14.186928373769888
0.068,53.030084189061114,53.07032247303795,137.75905020843481,76.14427613451221,79.37826911498837,73.46022953571128,45.59769372445271,16.500461548530495
0.07200000000000001,52.18195514557823,52.12685483528719,136.29926050803056,75.68251974185196,76.05162529227948,74.53953179461234,45.836192910649174,17.569485115565953
0.076,48.73715835875521,48.057264526472125,128.0614141861671,73.41793075584701,68.4732757812572,73.391374306388,44.42448695033539,17.247599744221702
0.08,44.245766651403954,42.50210011683248,115.94182616209724,70.5168103573375,58.87014188056608,71.32131795199501,41.848382777465304,16.320623055984584
0.084,40.87816484446921,37.94356183105478,105.0387018855721,68.77446632519607,50.72512255757562,70.17595955525496,39.432207224407534,15.930892104556165
0.088,39.98215456442654,36.21340312999496,99.43513552733685,69.1705624569226,46.71544782285332,70.80270359573296,38.38212083096778,16.808420866569918
0.092,41.26785861729246,37.47919063424439,99.86665577484564,71.104681710204,47.233005569229704,72.38998844307031,39.03969569501999,18.809869349755616
0.096,43.10185117061559,40.291851911770436,103.64608524565847,72.81845541409746,50.36494931087583,73.12486150335019,40.79076396552966,21.038019950468595
0.1,43.66019621657989,42.58531640063532,106.70614523696355,72.66072158778968,53.23751666450565,71.65060666249309,42.58988139183879,22.39840217334074
0.10400000000000001,42.054758870907506,42.867102881319994,106.11246615461974,70.18802121100657,53.716337384235885,68.1319228539943,43.5965913891859,22.219438935725066
0.108,38.762052509204864,40.92688156131928,101.56175545921263,66.41073363468507,51.47206749267096,64.20698614304212,43.53585242477965,20.554202783079745
0.112,35.18310847272596,37.751712976771785,95.16360001254176,63.10109741580817,47.89892029316158,61.895543835719764,42.63573371311523,18.028990994510764
0.116,32.7102546966436,34.82829912628972,89.91355333553872,61.690881786400865,45.10402995268632,62.23825030665523,41.30080039236594,15.396935698345999
0.12,31.974661319870137,33.36128790807237,88.01750417999787,62.52609827658085,44.71789163011559,64.63348069768921,39.84163127493903,13.119178005066487
0.124,32.641487560610244,33.78846456638482,89.89062232093517,64.80941914117278,47.14873707339464,67.19532633568912,38.38095099772755,11.245349843384247
0.128,33.82242932051571,35.80118620062794,94.3200290269441,67.2140590872489,51.62815047371066,67.91512637464103,36.99110265334434,9.610277613042683
0.132,34.76517464096034,38.73340673180323,99.48524342932848,68.71977503363317,56.87624806144575,65.88542106472443,35.90258761380568,8.175570513163564
0.136,35.33148655531343,41.9842104057696,104.05306364657866,69.11615440688414,61.85938111333962,61.81382598216237,35.571112247953295,7.237008615443926
0.14,35.98404116038708,45.223006671806274,107.71011317333529,68.92906730489449,66.16931093667853,57.56414307683929,36.52488658603977,7.3111614459411385
0.14400000000000002,37.25666465408344,48.241659372705584,110.76204923077239,68.80696121164817,69.79580832824882,54.95386835272086,38.97341835008581,8.7663028144201
0.148,39.171453247375695,50.698520682514214,113.3371409249201,68.90365816352983,72.62734288660761,54.65152829876433,42.47638901249894,11.447272848492787
0.152,41.047887830812215,52.03080829497145,114.89367878903516,68.7232432858699,74.1484380174362,55.893252389933934,45.93787797439006,14.575334500411941
0.156,41.847862205007374,51.64550927289349,114.3992391060961,67.50584851988492,73.60013878496716,57.13391319043609,47.98963445677123,17.042336227227793
0.16,40.843286185074135,49.28512670918178,111.06402457668867,64.86183032433246,70.50382603996388,57.147009235603036,47.60740778656799,17.93170544277166
0.164,38.077441750432996,45.237106153729144,104.92208760846131,61.09347540583536,65.08794068261733,55.73172261640411,44.577488993348595,16.967050045327483
0.168,34.37366147341683,40.27645962270259,96.95053371942379,57.04372331100535,58.3416905828106,53.66731267152329,39.618062825517995,14.631737352899904
0.17200000000000001,30.893629709823756,35.36332698754023,88.68652984728169,53.61619387129065,51.640388405904275,52.04712706328826,34.10805624742625,11.901173519709118
0.176,28.514391571528506,31.258065397412963,81.57755786457261,51.302261445691954,46.15241859869161,51.50021380807527,29.545631210530303,9.752627334536555
0.18,27.418362126109344,28.26947230569192,76.46433177206757,50.0377918087562,42.37860532970228,51.844702227484504,26.991993097830573,8.722264286580753
0.184,27.032236564212553,26.177458080951283,73.2708036888755,49.34579846505545,40.008522552858096,52.25144207139499,26.64422134709008,8.75840936777081
0.188,26.38376464666993,24.40005793755006,71.1328359020145,48.681961011510964,38.20419040317876,51.822474509580616,27.779779836600824,9.413524142555502
0.192,24.6980255639225,22.340891041482564,68.94259558995566,47.782957668765334,36.17506714070686,50.21545134463565,29.143612893217664,10.239922422393647
0.196,21.898303238187054,19.75411262290453,66.03710288512957,46.8133912995433,33.729178431305854,47.91750545898856,29.614174524008945,11.130443168563374
0.2,18.761481605421636,16.97692048358539,62.71138794975843,46.272929167958296,31.50159664429458,46.02563639605921,28.834572685491253,12.369017925438243
0.20400000000000001,16.536002998096876,14.827539253874306,60.0855922119481,46.63750751279866,30.63332044756072,45.56615561517742,27.3869848888113,14.370580645476934
0.20800000000000002,16.268348510654448,14.239564436293676,59.480746122465234,48.008266772815205,32.10590092558323,46.83122482026158,26.435915999024587,17.261049545908804
0.212,18.224510955804362,15.815494486193984,61.68412875383342,50.00794348896454,36.13499437436474,49.17180738984689,27.0454856424019,20.58544628142363
0.216,21.721107520107523,19.49807178703867,66.49101013979032,51.97584384633569,41.96368067865069,51.36362797892866,29.53440295327175,23.370697626439437
0.22,25.480763980571624,24.5315969958628,72.79111640670988,53.34363119719899,48.17602191491676,52.338029692901955,33.23718256558209,24.535730466684072
0.224,28.227341711294514,29.66237056050096,78.96920463148547,53.85410578470169,53.27286153885518,51.734033767620076,36.75028962267345,23.444144918319807
0.228,29.277079468814463,33.572595875284435,83.55417616804027,53.593725868412776,56.26394317004633,50.04179504620629,38.62127989511441,20.286573855207166
0.232,28.842806912096876,35.39129348084043,85.83735444683714,52.874514587849376,57.00049098617376,48.30761587434165,38.1208710799292,16.068996530794493
0.23600000000000002,27.820942685835973,34.98327527353888,86.00191650676209,51.97209836960428,56.037381025688774,47.50149862000626,35.601035094854524,12.18529339066913
0.24,27.228179601870124,32.9251631132409,84.82518116185213,50.94239921563792,54.18955117598409,47.96760012896402,32.2718831004662,9.770855943562538
0.244,27.628454359839395,30.202229865854747,83.18238639073843,49.652402927670664,52.085461253250514,49.28750010992894,29.54727388474339,9.185868982148577
0.248,28.857481102627276,27.766232669166243,81.61332555776619,47.976337626895884,49.9608839769312,50.58451840264115,28.331727401590683,9.895537777443678
0.252,30.15209974467149,26.145104641627768,80.11136671672978,45.98041678429024,47.74920601859071,51.02399354491695,28.622041643277953,10.81261277627732
0.256,30.618441995721923,25.30487648950657,78.24773114566563,43.990132341995604,45.373581133092216,50.23373361216204,29.630949799074756,10.929058167520452
0.26,29.812666813225576,24.858569955213852,75.63435156692674,42.54899187864271,43.05998331471142,48.49631130855005,30.389291727255,9.897304718477471
0.264,28.060456528235193,24.43940077195316,72.35756486502908,42.23477228920535,41.396935747072234,46.59373526592776,30.398133522609783,8.226248797516973
0.268,26.2667981024818,23.944530134504134,69.0093399660152,43.34638469824927,41.00559532898387,45.3472169761817,29.852959915119754,6.937629175067741
0.272,25.269361759998844,23.453626114888152,66.19000565531849,45.5576515710834,41.95533514479348,45.048432324126,29.259749770115604,6.852455084419262
0.276,25.13961776342967,22.897876753170863,63.83894733225884,47.76880023729518,43.32884993034838,45.120947201907256,28.737055443774807,7.918197393405308
0.28,24.957790433660875,21.806746870206894,61.020755182180665,48.39069029246639,43.374974443409656,44.3108142793219,27.579195531512596,8.99400729763056
0.28400000000000003,23.25918432306264,19.38677235696207,56.40471763233495,46.0087315704144,40.29291545909189,41.341726128607206,24.486473173979448,8.295994225215964
0.28800000000000003,18.939198368287634,14.976039498515433,49.20245413042812,40.125782462796906,33.283948157762666,35.690764757105626,18.406321455694183,4.321835049853917
0.292,12.08333521845202,8.637469860538772,39.95948614347526,31.57516796538482,23.27201701710328,28.01773529833872,9.494345224147537,-3.2001885678039343
0.296,4.210807851022196,1.5132963661669692,30.68847010957279,22.36116248719452,12.838542839787351,20.002702593290678,-0.4222319681771296,-12.864306251885864
0.3,-2.2300234871238445,-4.324081127841282,24.262283084141927,14.998562851554198,5.336740159828764,13.716767212021978,-8.231198886473067,-21.944043794185518
0.304,-4.9272977971240834,-6.5893198157158395,23.25789921092951,11.577570833602408,3.5298021483644106,10.796549116255846,-10.736070956270169,-27.437641810668083
0.308,-2.8129244309276373,-3.805022207345246,28.76133087992571,12.929900523971696,8.369416129594129,11.77791583674616,-6.141633236964026,-27.34291642484959
0.312,3.327402985325648,3.8414957262967846,39.66357750401653,18.225816204884495,18.466815411185053,15.83938717575279,4.908246486845883,-21.55420588531365
0.316,11.102090996383595,14.313831165473744,52.869472905443104,25.228138195780616,30.556969550036456,21.097300507732825,19.34538572491556,-11.923622712911538
0.32,17.591309765041046,24.46154890230048,64.51306021684002,31.215503889818933,40.84352211938301,25.42540971832568,32.86606614036691,-1.4313275965173489
0.324,20.699539988327615,31.36406909176253,71.59027235242615,34.163674997125895,46.58757566053578,27.39647122626502,41.73353532892611,7.1333023948923255
0.328,20.07796608139529,33.612096729933114,73.16839867655312,33.607684129291215,47.16074349010205,26.8665092457004,44.304598257194584,12.309605349643562
0.332,17.110408082489585,31.841127281296167,70.51170273564503,30.734488037419624,44.04333257126768,24.881410331910047,41.49249528335304,14.371603769487137
0.336,14.014515977689484,28.246496085072295,66.1242113554897,27.680731506703978,39.837296581126,23.00093247349014,35.998466753308776,14.855311911613853
0.34,12.637639563049106,25.390176423266553,62.383027069103036,26.470250559710053,36.89956446247743,22.48861588158661,30.820599586368644,15.522258513471115
0.34400000000000003,13.587227170455662,24.922659385143106,60.4694351293233,28.111217501804845,36.292172995130386,23.76718901055324,27.832645777106563,17.361093854619867
0.34800000000000003,16.106174928421183,26.86062016419271,60.06411761935192,32.24662441567796,37.50292943037175,26.36090623395671,27.131519060110463,20.135261327277476
0.352,18.656919417320978,29.740941864998263,59.79848556867398,37.4379682883075,38.960655096369806,29.249402261805017,27.358876920616126,22.672039620614214
0.356,19.821016131796796,31.50626306927404,58.13558581411621,41.88589771931538,38.989633135964255,31.389159075472207,26.718361993601548,23.6578821086307
0.36,19.05049247112902,30.65521696396479,54.29330872679816,44.26701511607325,36.7275883455801,32.186772189455496,24.120803269196358,22.448159644766747
0.364,16.875845460596793,27.03821608896874,48.723638657031415,44.265721043742474,32.55779994094996,31.698838857983674,19.824912454670994,19.44058226627203
0.368,14.501749584814547,21.886865250607343,42.91254634351185,42.554967430581655,27.872434955726703,30.477185907692956,15.265133040896671,15.821385368177289
0.372,13.040149562809688,17.08947720730464,38.59217591108768,40.25043934698317,24.31837425602521,29.14850079799521,12.200193131657898,12.878479194023384
0.376,12.858330528254214,14.171088376580883,36.82907411587712,38.18964548853671,22.971396569116905,28.00538466263106,11.716953362966478,11.317623785558453
0.38,13.44981612280867,13.59344808141418,37.581456596305316,36.51086322966364,23.916754446368714,26.90948414034483,13.699273914010064,10.975999651243455
0.384,13.833982844489128,14.700476080775616,39.887220116738945,34.71743025430101,26.379609139996546,25.50086672157613,16.976337005236473,11.061945746943593
0.388,13.204590279711056,16.259061075678005,42.4905147958259,32.13278081680926,29.2436947444246,23.534895991371513,20.017044553264213,10.724583867974616
0.392,11.385339546327032,17.1891809608386,44.444907949712615,28.39948998444902,31.58513386836603,21.06766824700071,21.699572693271648,9.564990739145742
0.396,8.846047492390653,17.056077027644392,45.37473195089524,23.72979268889503,32.947395854828756,18.386776519131217,21.714366032566886,7.794496767142846
0.4,6.379373665366074,16.144995079223577,45.43939027216061,18.858511691518288,33.33685311325871,15.835258294764344,20.505334521005807,6.005893925068449
0.404,4.668258306794542,15.15234274952877,45.082585707665885,14.751417732399887,33.02504228278576,13.658451121850476,18.859766280340864,4.764040657191572
0.40800000000000003,4.002234475003206,14.731923402316852,44.728012763790275,12.235275259446553,32.31021253443487,11.964797098756435,17.43456262991708,4.291545192940703
0.41200000000000003,4.245060235405845,15.153393853753414,44.52680330711382,11.695686197195528,31.351960699292476,10.760011595204105,16.46534092442471,4.4214873339396945
0.41600000000000004,5.011323343082722,16.23815750822189,44.26778659721231,12.967658752494799,30.141100471531217,9.999089734995323,15.773233758821561,4.797495061266545
0.42,5.9486775541676025,17.5803772454625,43.56181388732898,15.49312323663844,28.619171760866266,9.658630714372066,15.033476758768757,5.129274051217635
0.424,6.916132696419936,18.84119904939689,42.14280792011414,18.61268555319066,26.8254973758053,9.758426219397734,14.060776304743285,5.308626682113754
0.428,7.949695611735137,19.898766380218717,40.07208628659532,21.810297325283727,24.950642647969744,10.31555384813737,12.90684128929297,5.308836197346864
0.432,9.066658560001429,20.762324856089663,37.675406242761255,24.779204326595618,23.240379170861388,11.248338680568395,11.705857848771757,4.976578538081867
0.436,10.084299573837825,21.359004318562597,35.270983552000644,27.33773471779773,21.828236625406362,12.324876960231904,10.423599448540926,3.940248468727077
0.44,10.657604672720254,21.43155134707149,32.98248234609946,29.362500110097017,20.673521186127573,13.270010323468341,8.783917054005087,1.7757199411657894
0.444,10.517409033370654,20.65307473521375,30.748557476426413,30.794908738848562,19.650949544154855,13.954160084404066,6.469000994538192,-1.6309505288445507
0.448,9.722451458064938,18.87864018770597,28.49040687395336,31.669660871368933,18.702922570124656,14.501019420644752,3.463386762482287,-5.786990824906297
0.452,8.69362895102472,16.31902979227266,26.252314194767678,32.061638112574656,17.90963962050023,15.17674832206285,0.277517695790948,-9.622656562253724
0.456,7.966890726937322,13.492231053403884,24.210345467351544,31.948053953924955,17.424851714334636,16.11477796402005,-2.1571789303545756,-11.911381819470535
0.46,7.841887676396368,10.990398125454021,22.634544459148856,31.116147566488507,17.35774689449454,17.111899670202547,-2.878720297168229,-11.898032971895645
0.464,8.152649962063151,9.191741901930072,21.80510249881877,29.203267262688996,17.683912455550626,17.644729355121854,-1.3883557384149299,-9.764050310805942
0.468,8.329350448105174,8.098205336036472,21.917661843059022,25.895816738427357,18.24666244640207,17.131223007016615,2.032402691818561,-6.634118167477936
0.47200000000000003,7.721755426104664,7.3814634203627065,22.965244428941105,21.173860309176916,18.82933357400634,15.264173808205214,6.359195702743591,-4.086592993511658
0.47600000000000003,6.017537478433269,6.609945674573737,24.65663920808629,15.469722575092192,19.250999226794193,12.223713837915966,10.216155913005423,-3.4071454042491496
0.48,3.542092173711694,5.54846369717211,26.519196504013053,9.681320841532852,19.460615844654285,8.685847988714158,12.474941226129886,-4.984196989574684
0.484,1.2083264658233475,4.310151412353434,28.096020733761407,4.946653388214372,19.537604594672075,5.570803151950258,12.724858901633752,-8.180471112466876
0.488,0.09351623841382661,3.249803986213351,29.112632478741034,2.230736405704647,19.57349311092412,3.6375451556396,11.35600762640047,-11.740866950005966
0.492,0.8460313741945811,2.6607624549475304,29.47693229040692,1.8919801724341596,19.48578126756115,3.104891774540647,9.213877620301218,-14.486863017424639
0.496,3.2556083724394966,2.4828023090130955,29.12715800113483,3.4549690524177095,18.89323465705138,3.5071290931875865,7.0525532569299685,-15.89102068895636
0.5,6.300781560719315,2.2818885754710436,27.94812495533779,5.800473461768206,17.220800872389873,3.9346301109667365,5.166419718152611,-16.20768357137058
0.504,8.667928695697356,1.537963100287925,25.812699262300384,7.69884057546119,14.008765657631784,3.5334132605805735,3.3923565806114766,-16.122776795655682
0.508,9.452597107816928,0.04947353978559477,22.718234286307734,8.397253534692936,9.252443512043783,1.983357199565262,1.4274461153095217,-16.19603236077228
0.512,8.636700263868079,-1.8349877301462811,18.880411149839574,7.927986117462751,3.555246296467203,-0.3420900654268735,-0.8193183457294708,-16.465124617967376
0.516,7.043184919169562,-3.358297765614793,14.68718230354898,6.959303752516007,-2.0404078888352615,-2.6284072823152655,-3.098911253782717,-16.46083025817211
0.52,5.83071011956099,-3.7883294594545305,10.606295045048455,6.336053757285299,-6.445640360434709,-4.078420172302913,-4.964000935948434,-15.598774148297025
0.524,5.825471977866641,-2.888311087551756,7.075517450895404,6.583403731362978,-8.942994478198898,-4.324165490824498,-6.077563960993757,-13.655776816511434
0.528,7.069063012482161,-1.1205544771526093,4.422925784679137,7.648612548838855,-9.421805988470624,-3.5693642474539047,-6.441009554711854,-11.006231181291014
0.532,8.810376844067264,0.5558033139415102,2.7996976594442913,8.975099834649882,-8.341605848481777,-2.432849048722801,-6.388547063002989,-8.464228390481821
0.536,9.947084091410716,1.205013830193252,2.149119296893332,9.846138164879221,-6.450406867392076,-1.5947307088513298,-6.326961561432199,-6.822498734104784
0.54,9.689533300676885,0.4862933291012723,2.3112780231381294,9.822329842852696,-4.3808592159584805,-1.4006459399538471,-6.367456755089279,-6.385282414182029
0.544,8.050297164304425,-1.0839603836510605,3.168344613432282,8.998814442085063,-2.356721580741578,-1.6566886313307805,-6.13963440961038,-6.7881202372898315
0.548,5.868774580319268,-2.375057045462654,4.7168061991146715,7.922361476169954,-0.18914047625912644,-1.735185589746834,-4.95107480133629,-7.2365340503972675
0.552,4.335689345583205,-2.291358232630273,6.975568611242807,7.209914870523107,2.4405481286206623,-0.9667875026766524,-2.2487135696349014,-7.006556322007555
0.556,4.295431878460022,-0.45962766065736105,9.782068979414362,7.111894864756209,5.593613787283402,0.8994827397043537,1.8957711685252434,-5.889129249037751
0.56,5.773108185670253,2.495109141513126,12.710872566910211,7.343894582454709,8.869846984928358,3.490412002914809,6.650342026624912,-4.307813471171357
0.5640000000000001,7.976321697902563,5.25574904575933,15.179781346426353,7.277168475827011,11.524117692275127,5.963368917392927,10.756928618583288,-3.033789463025414
0.5680000000000001,9.775360819379785,6.544551076300536,16.71516434362752,6.370588708919968,12.84659509089181,7.441208978940722,13.161838389735522,-2.6850153976454294
0.5720000000000001,10.349116761829237,5.8458459741756315,17.18500246077474,4.547103102477308,12.557041027617174,7.455877339172503,13.5634326115171,-3.3319237123992025
0.5760000000000001,9.618221532516145,3.69469653483236,16.840983158343988,2.281655825971029,10.972755843883874,6.153242945239754,12.533909392392161,-4.447120567554748
0.58,8.275066199993603,1.3952600112480695,16.20694783058343,0.39131414183168545,8.875903502954088,4.204472194484197,11.170641492067716,-5.229109045579435
0.584,7.399937393949472,0.3229019436503222,15.833698522805207,-0.35771615801570533,7.140314506715072,2.4654794155169384,10.476788509003882,-5.094714885068925
0.588,7.8865079554159365,1.202181824645777,16.035682340335256,0.3926515758931828,6.313803764153931,1.5678474126771107,10.825205842639207,-4.05123133420102
0.592,9.978446832038799,3.7468326854551606,16.69971109710127,2.427784615814062,6.363711715065847,1.627930091879307,11.79423445670318,-2.7272804940735114
0.596,13.141963237273217,6.838677694341413,17.266348834684322,5.052634079523841,6.711527707965274,2.2256836057558758,12.453309157990361,-2.037188393852375
0.6,16.342762766530086,9.147397747456239,16.992637141442515,7.407356534184714,6.563095103510818,2.703479515474328,11.927373809965047,-2.6761535252539943
0.604,18.545186412321982,9.821851800074114,15.356164995893323,8.826420708432693,5.351005482060373,2.594509759325092,9.900043674999552,-4.712130406273673
0.608,19.160660997624632,8.876383943386486,12.401073592211219,9.073625163640372,3.0549096903821464,1.9430445089208206,6.776963838139977,-7.501100255689607
0.612,18.199880625489527,7.05956241695776,8.784916608266599,8.329450708036234,0.21106532044518644,1.2888758834444616,3.425043289264295,-9.975412218834435
0.616,16.104190661495977,5.3253530659980015,5.482414719450389,6.991504429016686,-2.3765621869256393,1.3095650194927657,0.6817323665081858,-11.13549750801235
0.62,13.438991397022164,4.277760634401943,3.3782562343982363,5.467607079981235,-4.013200821182068,2.382267217985145,-1.02730237182584,-10.500772300115159
0.624,10.643169118074184,3.906569678675737,2.928399171656679,4.053641570516561,-4.3796901586205195,4.314742501360342,-1.773023579410733,-8.299948100409893
0.628,7.960049144314041,3.7395401932093364,4.052161475135449,2.929324422403738,-3.572864641675096,6.419615932790066,-1.91402741261129,-5.33209137212225
0.632,5.517394807227504,3.2666832125536303,6.242270818331917,2.188751149724908,-1.9545207652654426,7.869678338380936,-1.790001335165698,-2.591135554934681
0.636,3.439858133437099,2.33830836260438,8.792140851143017,1.8338855279712334,0.05649406029021975,8.12284330012335,-1.5423882398657724,-0.8428868558819431
0.64,1.919385516039938,1.313957505901044,11.098449294086777,1.7712081614911312,2.1610818452431886,7.227372057606772,-1.1145482166438114,-0.3440329562008628
0.644,1.1738245210443665,0.8734050592103131,12.874064699091264,1.8329089924606023,4.239025908996041,5.814740998127036,-0.38744368156301334,-0.8038012074757717
0.648,1.3331665010925917,1.612919695665937,14.192030746525461,1.8535978413119665,6.285062358199525,4.772710755711614,0.6856403579399739,-1.5775492873553958
0.652,2.3021444617374414,3.645442980027383,15.316640503989333,1.7533097062241723,8.26138053485613,4.743556123959252,2.0322483541458496,-1.9895524924031633
0.656,3.6873933297766257,6.429885127064267,16.416051736944723,1.5716812241390699,9.96145533900301,5.723523854840778,3.5072865740168027,-1.6422387964644258
0.66,4.8950587115538156,8.967227137826512,17.398990286528146,1.4739506144774168,11.015381606549226,7.043066985699852,4.993268535875131,-0.5690317887990659
0.664,5.348205974340999,10.246930500801,17.93779664118449,1.6949948153554715,11.034015635209244,7.739061829307502,6.442419390378632,0.8402831043101742
0.668,4.72193114176639,9.715593523692746,17.661883802623265,2.4348689537750943,9.81656931767725,7.117534200335399,7.828956752812132,2.0848314657516767
0.672,3.0756050955950514,7.523831673330278,16.36663227299516,3.7450552708746727,7.492216612502375,5.1678646416017955,9.057150748044478,2.8404490076061393
0.676,0.8278482072726661,4.440383683215543,14.108519971924352,5.463769233050698,4.514228424023713,2.576910379730066,9.91546628594699,3.1473180136142673
0.68,-1.3690189928729524,1.5285003266976105,11.220048897064544,7.288958609794577,1.5446358782309062,0.38624083887214056,10.162094167989721,3.4065796960489934
0.684,-2.824165331717893,-0.2630282514533633,8.219226855226907,8.936455733832645,-0.7381748599041202,-0.5322320946253285,9.698552520483418,4.1786064541317955
0.6880000000000001,-3.0016625217728574,-0.41540916894962265,5.666456159313384,10.287606368964134,-1.8418713432591858,0.11212112836869892,8.695259028673945,5.86408689254813
0.6920000000000001,-1.6694182336771064,1.0410936340106787,3.995172723021142,11.421478557299565,-1.6037864711805696,1.933135887904882,7.550123002722671,8.443402138126316
0.6960000000000001,1.00731047528393,3.5997624283417053,3.350244058482076,12.491731163413533,-0.23654691360979996,4.096223646652902,6.659834466294228,11.420322383481107
0.7000000000000001,4.489839181604339,6.504809260920126,3.5615574247316317,13.56758873231928,1.7672308844887539,5.77187051196222,6.166219019765322,14.00947569511186
0.704,8.014348908432908,9.028696224143403,4.238435324906277,14.54352924953173,3.8343768184164446,6.550833664519587,5.8553289402668725,15.505232847357888
0.708,10.838561333258326,10.704823128423754,4.957441394915463,15.191397909406192,5.53493716076639,6.605307273287281,5.314484655043202,15.64313527677325
0.712,12.471207320204655,11.420294635674622,5.4247556031991735,15.293064612335513,6.706447396965814,6.497466087859948,4.23615949734392,14.737241426353648
0.716,12.79024724557695,11.358918296767058,5.53004553593496,14.753342141751489,7.419442742186391,6.763026619112338,2.6734840668428888,13.511987569892995
0.72,12.047401581696704,10.874507674733024,5.364533923690942,13.666934505843358,7.85672056332271,7.576667141774578,1.099200894687101,12.720381606020283
0.724,10.73032412217816,10.329708360152779,5.172828471708726,12.270328234642932,8.166629086422688,8.660630898869272,0.18974709824294678,12.7511900398855
0.728,9.344050387313132,9.968315512331628,5.266709596837245,10.820201885271047,8.38226294536247,9.476953067412637,0.45178161248043125,13.437176899576116
0.732,8.198527762803849,9.848853714824031,5.891798057019514,9.464031663901437,8.436011091570151,9.551790443585674,1.913646828211995,14.177216707198568
0.736,7.283172782061115,9.835797748725724,7.070772839886899,8.170957332086175,8.23775593954798,8.715397947141128,4.059071537585282,14.304668112295076
0.74,6.320904483370384,9.67529543113892,8.570477125678508,6.808392196970601,7.791847304008229,7.1612311483530675,6.079973371258006,13.483101740046095
0.744,4.9610321227984855,9.112005749425464,9.987564894982825,5.290395623933421,7.2459715737214765,5.307190092199903,7.3005784420309965,11.892754091216943
0.748,3.0169946743461082,8.001860809849916,10.925154177451077,3.6951556143083053,6.817226885122807,3.578724565240009,7.523321736759385,10.085333209120677
0.752,0.6107794584585235,6.3662941702235685,11.150714614571655,2.2472360220987184,6.6174726139216205,2.2283158260798928,7.060875708355866,8.597304102709472
0.756,-1.8590232179694794,4.36759787901542,10.634609551068252,1.1631628321437688,6.476046809443574,1.2755515425672002,6.451387184326336,7.577388584770688
0.76,-3.8742888958909134,2.2558155634445143,9.520182925322672,0.49936646528539086,5.919451898711543,0.6182228511526091,6.073799252266781,6.666608668869003
0.764,-5.01332788401254,0.30451991862702243,8.02412392369098,0.10264902888405913,4.356663694185329,0.19927927017738511,5.908576102653001,5.234580459347399
0.768,-5.117961786659123,-1.23278620931643,6.3488291524519695,-0.27482494796970514,1.4179894354664384,0.10838199302452267,5.5977720780921345,2.8468181912417094
0.772,-4.355782038246673,-2.164232470268189,4.617704090095799,-0.7883188377419401,-2.7531051453937607,0.5286494739995078,4.7452501007328465,-0.33755110526499266
0.776,-3.1736828624960367,-2.417808910529459,2.8333420008412418,-1.3874908796353793,-7.448936643191814,1.547092127232304,3.2362797471242857,-3.513943464504109
0.78,-2.1430117286394648,-2.072016466746277,0.9359329778118308,-1.8327229560944147,-11.61518689938299,3.0037779842441523,1.3738142190020426,-5.592490118055025
0.784,-1.7686455998120891,-1.355446265406954,-1.106400303533178,-1.8644710564300908,-14.270277655719497,4.484783521673421,-0.2747725426140164,-5.787977249447749
0.788,-2.3111881750945713,-0.582591891577863,-3.2045734002965673,-1.4085220659061406,-14.911075684121386,5.494134470612266,-1.2121308070273926,-4.09690841602503
0.792,-3.6961080457950573,-0.040873045967430244,-5.130177394348323,-0.691855508318099,-13.704458833474632,5.704274517139652,-1.3164592970572926,-1.3663069922185969
0.796,-5.555872786091243,0.12616518418644773,-6.604535740895528,-0.1856135163218937,-11.368362764000267,5.120896663800977,-0.9314146615510595,1.1156322400427143
0.8,-7.350442975069257,0.013382350702727308,-7.381303102255799,-0.3499363852716897,-8.78197313616488,4.095125851519924,-0.6426886846446109,2.293886924288813
0.804,-8.552348529206796,-0.0521656354502511,-7.309035957937226,-1.3411794114047666,-6.551648640602252,3.1486756718915103,-0.8845302403246933,1.906120524305038
0.808,-8.831519491911166,0.36553709024229875,-6.341243739130277,-2.8549318730101163,-4.759437293595283,2.71776822738957,-1.6214338574349085,0.595861242728688
0.812,-8.183720276472059,1.59364931965996,-4.544852094236887,-4.235592372647432,-3.042912332135643,2.9406263040284557,-2.3229550383705373,-0.4974737597507328
0.8160000000000001,-6.967448396555795,3.62173384740197,-2.145590639488489,-4.827064162997715,-0.9633176421909297,3.587099457935892,-2.2732076932443306,-0.433930142909162
0.8200000000000001,-5.783042421397369,6.016729187593796,0.4696032478877328,-4.331809886431472,1.5907030612407311,4.21099362760026,-1.0118446747115968,0.9524401450353253
0.8240000000000001,-5.240725300675535,8.036472268561795,2.782845117496038,-2.9883320924006966,4.202297625408903,4.420318988374788,1.3304953538885798,2.938964762480964
0.8280000000000001,-5.706578801949348,8.916956666899864,4.253328194334642,-1.4499316694474942,6.061738210429951,4.11763387058636,4.009807412313421,4.318911548686856
0.8320000000000001,-7.146536043447696,8.20110319256969,4.457940729306301,-0.43697640919953074,6.361484421001933,3.5618997781317603,5.98610515988338,4.097337156052845
0.836,-9.151828713861505,5.943114315165076,3.1972924463697723,-0.3813272717675886,4.71734908277449,3.201855672604779,6.4051661894365,2.075914165531117
0.84,-11.099888076352613,2.715075445993591,0.5882108503839731,-1.2237065673893994,1.4056338590920063,3.4200788188841216,5.015142024178942,-1.015204386514597
0.844,-12.391377347398503,-0.6072399570288667,-2.933220234589328,-2.4862031178308825,-2.7197128905035584,4.31394414611384,2.303390904146511,-3.8894079738705614
0.848,-12.647866327007364,-3.176981706902268,-6.693594090576596,-3.563116864430242,-6.586337803948368,5.642825389598215,-0.7035552670655534,-5.368406596609248
0.852,-11.805476685785408,-4.497046425471922,-9.964190961771465,-4.071750182686856,-9.365908273745049,6.947581598493457,-2.8839153038298946,-4.9726360900293685
0.856,-10.113899299522132,-4.616601822633186,-12.224010617184831,-4.1002230243522035,-10.824622799936208,7.738129750510609,-3.51816916146214,-3.1352433762245937
0.86,-8.045011485861664,-4.100129000939006,-13.339636187341341,-4.190821778118789,-11.363228780302563,7.6763500768811355,-2.5955592808405754,-0.9488622174894772
0.864,-6.173639835494782,-3.7935031533066024,-13.604351053551682,-5.0781446924941065,-11.74969020960998,6.65616820049911,-0.7953704301222615,0.40028455323840717
0.868,-5.04755035064494,-4.479331754133,-13.587010646083286,-7.307383392330394,-12.682355266836169,4.780306883935623,0.8264035072706974,0.19332792572197377
0.872,-5.067487858163929,-6.5563811479426874,-13.86476042948874,-10.921045686968029,-14.402819793276194,2.28059216570108,1.3008069405187257,-1.5235927389094286
0.876,-6.3843647361744615,-9.866553656950742,-14.768667058271205,-15.371895673410847,-16.55542696289757,-0.5583963544164021,0.15911384173773513,-4.007326793456684
0.88,-8.800069243837697,-13.711920631504398,-16.198569306863817,-19.669180091338518,-18.33319966536402,-3.40082217287528,-2.359157916576578,-6.175068873674888
0.884,-11.758532239282914,-17.07725857991099,-17.634752236124427,-22.721168701679233,-18.844659097728396,-5.841857642567334,-5.396542096828625,-7.04533416567557
0.888,-14.459705419793949,-18.972511338584184,-18.328768610523014,-23.727846510896228,-17.51827552838057,-7.43172515127236,-7.82003423619517,-6.084032387446598
0.892,-16.11613435347897,-18.794818024544355,-17.638749985294112,-22.498249318130405,-14.390065276699772,-7.8102956591210955,-8.695501260141441,-3.3634225501845094
0.896,-16.283842335353597,-16.584659313766593,-15.390680566034575,-19.57627201557716,-10.152201919946037,-6.932739728040474,-7.700116497952138,0.4910053313261642
0.9,-15.076790849797845,-13.038471805339753,-12.032119284581768,-16.06929906771734,-5.913044809500775,-5.213205869372416,-5.2708980867681134,4.51666721152958
0.904,-13.136575633468311,-9.260812468405732,-8.503935122643497,-13.232606509962352,-2.773114412642144,-3.4729789159334814,-2.4286621657427077,7.7207761781810404
0.908,-11.314094511677155,-6.324472932304332,-5.8308500223206465,-11.942137821140022,-1.3857495589753626,-2.6325129359850052,-0.32755703414068194,9.394512704012072
0.912,-10.210005717427862,-4.828907687120363,-4.643760264712341,-12.286397297013991,-1.7046815526551882,-3.270859925079776,0.2614781165577824,9.346525650382546
0.916,-9.843383291115629,-4.677933960150085,-4.906275157058644,-13.507333690952976,-3.052437251025708,-5.2983648225974775,-0.7225471706626649,7.964314980012773
0.92,-9.616178961913363,-5.17107576390697,-5.947984729965299,-14.324975277309647,-4.463318049276438,-7.9091112748195656,-2.632396877658948,6.053105457031279
0.924,-8.634065015391968,-5.383805372065922,-6.826366714408891,-13.531463693276521,-5.1454382562695855,-9.902071607362814,-4.442051003109782,4.502702710634935
0.928,-6.20076739083197,-4.6366431513301904,-6.8006791449274715,-10.560141295152789,-4.816794119661154,-10.211030816281777,-5.235143646859342,3.9161179890381845
0.932,-2.218930308786298,-2.822794270686927,-5.684998053110121,-5.760132142447333,-3.757531702655683,-8.392768470127976,-4.6036762386181636,4.375804293277611
0.936,2.727600267974708,-0.43839025020133704,-3.921051137984705,-0.2324414650028075,-2.5682425363570474,-4.840247927467544,-2.7918519050706436,5.4679160788022045
0.9400000000000001,7.677865403590204,1.7074920289709326,-2.2919195303402375,4.708828539086994,-1.765614991026041,-0.5779966578318181,-0.5111405333977928,6.540463618109584
0.9440000000000001,11.777030806576988,2.920104108178066,-1.4822710207619139,8.136018010145222,-1.4754357152762623,3.2225987542849452,1.44451459465472,7.052695605995723
0.9480000000000001,14.659165551680871,2.960475400297355,-1.7066911582555804,9.861400773047308,-1.3896334522819416,5.763151461737721,2.5916342189575516,6.819479623146663
0.9520000000000001,16.50072432113268,2.1157241445477553,-2.623362907311048,10.354930184697196,-1.0155401930933294,6.899858645811037,2.956668993202584,6.022702984798798
0.9560000000000001,17.73221435934653,0.9741737936102481,-3.587727449440763,10.29451542640345,-0.062457019623934684,7.046333103347479,2.9838451942543998,5.019369460591179
0.96,18.622814942364528,0.06955846791129261,-4.031955305587417,10.061843208270375,1.310314243454286,6.8252397342814675,3.2551897590053613,4.098718863081558
0.964,19.02257198905386,-0.3907575664966316,-3.756773616276405,9.498469088954835,2.5571652215356835,6.686977650758536,4.187986577366928,3.3752504065714675
0.968,18.464360588931072,-0.5443607418463898,-2.9383011704454702,8.102880793571103,3.120077205899861,6.733043016635747,5.859132782676966,2.8780302945913263
0.972,16.545893965245796,-0.6715290491681571,-1.9056914834467307,5.506812161178686,2.858788970313981,6.793152322528385,7.99051831880297,2.722282333957992
0.976,13.285438581194626,-0.9677388229277994,-0.93371248915264,1.8601891218925175,2.195849328012173,6.611455732602053,10.026664591807048,3.159985418938277
0.98,9.201168979395788,-1.4515118554779747,-0.17633861571221132,-2.1394892025141417,1.8417656445302555,5.996130090544284,11.25531391470895,4.390093517505193
0.984,5.02604065709113,-2.0889483734122223,0.18808351932307232,-5.648561399739492,2.2210583646883606,4.811482400618161,10.903671226748429,6.205970697860721
0.988,1.252144504463331,-3.0144975261217724,-0.22399337966544408,-8.242711428003759,2.9722933352418295,2.8772630475411916,8.261746837293003,7.735387971084492
0.992,-2.178888990658834,-4.639537814270625,-2.015904394925201,-10.25264681228532,2.8935273687399103,-0.08805037923775672,2.870785563491154,7.545456060187917
0.996,-5.800812813949278,-7.507728011903282,-5.766072644005817,-12.611782858806578,0.46396553739100455,-4.3774061984318,-5.237631738359369,4.202376107864211
1.0,-10.127287716890578,-11.891316166143952,-11.548555010755535,-16.209508206493183,-5.238286112289188,-10.009417811015055,-15.313908845251035,-2.9212765507386393
1.004,-15.044031227176902,-17.361774865308462,-18.541490126958024,-21.13057622512349,-13.733289411073429,-16.42232318943047,-25.835439672548546,-13.018491279390219
1.008,-19.49542655550215,-22.62847875157229,-25.00480372238485,-26.257881495348784,-22.952878979844627,-22.370373792483406,-34.73536462636707,-23.8200552858425
1.012,-21.75397865441903,-25.856080338340234,-28.79196645361708,-29.571855804731058,-29.90008642747216,-26.200228916645756,-39.9454761187385,-32.31076505863689
1.016,-20.226740277096383,-25.40734358977022,-28.265904819513935,-29.07835169571854,-31.920656089244403,-26.474936545293986,-40.10118958127032,-35.908592725592825
1.02,-14.36864744711545,-20.656044705497834,-23.130358335224628,-23.867275209525815,-27.95290935166895,-22.641954823318656,-35.086402823930484,-33.54602735883691
1.024,-5.197981147099313,-12.450253555564018,-14.746131601863908,-14.72895025477942,-19.11468421801328,-15.415265469597898,-26.173460339190115,-26.094274635817783
1.028,4.94299746184106,-2.9184718240709344,-5.669387840058789,-3.9392901126916513,-8.282360149490614,-6.606463106094452,-15.626848765751902,-15.915205707558016
1.032,13.305315036385537,5.345095101331708,1.4046141724641075,5.7045275746058905,1.1521126221896338,1.5483265046805172,-5.912345129331925,-5.778225394346464
1.036,17.86719182679633,10.33162427475213,4.751569876666736,12.073305985962861,6.718083372670208,7.237141814745428,1.1518576303324153,2.287175109776399
1.04,18.12024874920735,11.402991890679232,4.2680842288259555,14.510481690462484,7.797250330791485,9.72099796252769,4.95564572505009,7.624405722929623
1.044,15.103550118641692,9.416219203314313,1.3260523655144425,13.83304300213058,5.617069168526541,9.457613249920087,6.097958144552194,10.804587194547821
1.048,10.7373475716156,6.170845729839357,-2.0072584096967603,11.62037079063748,2.408079950733736,7.707357560163018,5.918930987864314,12.893793523024215
1.052,6.845589123342279,3.4847553790873462,-3.966006939152294,9.242173275408732,0.22135769503688607,5.8565764350478275,5.794884359294201,14.620210165914614
1.056,4.380635162249746,2.3772175945157414,-3.8191194251362504,7.168142438079485,0.017275738320222445,4.784788335877238,6.531693212237087,15.935417328782933
1.06,3.252691393470286,2.778484588241099,-1.9716876231536844,4.955982022039507,1.4650192041262926,4.5982186728406305,8.160711222041755,16.185902821987384
1.064,2.7375871971391916,3.838063783925918,0.4793169772631245,1.8323146730062945,3.421896897308443,4.78254574007542,10.114949939278631,14.716902508573185
1.068,2.1503254439101056,4.600305082779414,2.444973093384533,-2.535045446894628,4.745096773522391,4.648838427068313,11.658972309402088,11.483214021485765
1.072,1.338037383407027,4.614120055022795,3.3755643723588946,-7.586624005194835,4.929941375774888,3.7895704300344732,12.311242605462212,7.263479446498877
1.076,0.6909038488797705,4.118428288568566,3.335355783736304,-12.046506207725088,4.233803777781304,2.2806923433354314,12.022117574545064,3.350225922455593
1.08,0.75213154932203,3.765393491581108,2.7153700994526844,-14.586595383689428,3.3290148120559024,0.5846840378212619,11.071608653154726,0.9074183243883454
1.084,1.713759807645829,4.0878640125354195,1.8104907157180605,-14.582665126387155,2.761264461258861,-0.7539493315512118,9.789057649102688,0.3917572256705171
1.088,3.178849331190122,5.092981954770721,0.6001195894205011,-12.46978227714817,2.5942487387662823,-1.388656001155141,8.318610025277849,1.3703945304573608
1.092,4.364280632975351,6.23888283475867,-1.1535369778080167,-9.486126216648927,2.432909520161047,-1.2775406945866052,6.566731431593325,2.8110578285431984
1.096,4.591074609588304,6.777782349025301,-3.6331675425180947,-6.984239218205175,1.743743289292297,-0.6169283994836405,4.324121855150224,3.650889224351431
1.1,3.7496010088937055,6.244216311997661,-6.700664111369406,-5.706798731594745,0.2399066831667369,0.3409086488932189,1.4862776938507523,3.2896313690566785
1.104,2.4241298952133548,4.765252378720788,-9.863892317362115,-5.459986880272709,-1.929195514669118,1.431314905434192,-1.7935498699171148,1.7694365671140986
1.108,1.6002989770126987,3.0131989936394348,-12.461768052000934,-5.3313280580887294,-4.257574029644275,2.617720177080173,-5.09299095970573,-0.3952887044229101
1.112,2.112513248288451,1.8345645016106573,-13.948818611592287,-4.304329489137444,-6.1462239675947785,3.9229592523956853,-7.852911813285573,-2.57575400776841
1.116,4.149241866001148,1.7827960750755665,-14.128367744369825,-1.9035813051718833,-7.1725348390950785,5.294182496534631,-9.578033208854777,-4.324899185553022
1.12,7.129130583901542,2.846502133769036,-13.16561458874503,1.524700494818262,-7.19238945732468,6.5253997541549325,-9.986683620121312,-5.464952345036181
1.124,9.994498130651209,4.503076051020344,-11.42986053228924,5.015615329945376,-6.269239907283463,7.274966535835574,-9.073092916878068,-5.9678299698416595
1.1280000000000001,11.75514731133785,6.044641852989571,-9.259090093672057,7.535347434603409,-4.526612745214152,7.203124615840352,-7.0687122095355335,-5.789348807049464
1.1320000000000001,11.956332168920653,6.941536705397084,-6.819213966595271,8.5167838590869,-2.083071541529989,6.138963826098006,-4.3574483310903815,-4.8236982336184155
1.1360000000000001,10.801029807631721,7.016206323106417,-4.1618621529923985,8.057973199059234,0.872985807313853,4.165682845200536,-1.4063371057550285,-3.01317985220885
1.1400000000000001,8.92033264158772,6.384893631311115,-1.3679564700064475,6.731901794114947,3.974086365790754,1.613310380718758,1.3111235484125245,-0.5230787893997331
1.1440000000000001,6.945140285512025,5.248366033402817,1.3137697573038167,5.151344191373028,6.6427850623940685,-1.0665278344913531,3.384472860738697,2.168532099859476
1.1480000000000001,5.176160478721613,3.7375999282139674,3.487791644750814,3.615540654619508,8.251220925563757,-3.445888307702262,4.564742210991881,4.383729962637517
1.1520000000000001,3.5494343195941838,1.9374800826776664,4.794850719871192,2.0662474106716218,8.429930670750764,-5.221170585306027,4.85388158268097,5.533738622074452
1.156,1.8612958276105473,0.03297133776686678,5.098731756822872,0.32697116665758585,7.316705782372537,-6.264399338300791,4.504522906061538,5.420247077053318
1.16,0.07940202624331505,-1.5736305798091053,4.568140246868097,-1.563240059844702,5.563298035535809,-6.60000676454456,3.915638515316914,4.344737648302726
1.164,-1.5086315299040507,-2.34581662220171,3.5574161787271805,-3.196030539469575,4.031680498754213,-6.3558618469669454,3.446619725320488,2.9575414222226755
1.168,-2.402465965984902,-1.8881734946776305,2.392795624768951,-3.935032650719222,3.332903978245213,-5.697098695792192,3.2474303125595725,1.9193188251292668
1.172,-2.189578237254409,-0.26124579040561,1.1972502448447813,-3.281089687331132,3.4634485720666817,-4.773902314586849,3.2043014242417485,1.565966399080935
1.176,-0.862864066269367,1.8741871112633817,-0.1746510255220528,-1.2524792338913358,3.748504046744074,-3.720394924822358,3.0207692977674014,1.7674159051694005
1.18,1.072437879471181,3.4447681877281866,-2.017102472394072,1.4925113268909627,3.166098593568222,-2.6703623894645716,2.3873634426377066,2.0417135854249864
1.184,2.7732038079152517,3.4249936147461995,-4.573172657217583,3.883194477752113,0.882706191574016,-1.7867977987643826,1.1187089109416775,1.8555846013996415
1.188,3.448831842701111,1.3556256494207446,-7.840787343651755,4.922400211952663,-3.2701448198108665,-1.2472723662731369,-0.7859199798431291,0.9233911708861342
1.192,2.74797296989982,-2.3851526558387377,-11.500852113722885,4.161238691721337,-8.644925216916363,-1.1854865021996375,-3.1769534615186785,-0.679028780697081
1.196,0.9031412656368047,-6.750208215737075,-15.043232740857093,1.8729156592935396,-14.059245546663988,-1.6468656822171397,-5.845861605965183,-2.6373163024209134
1.2,-1.4079598864291256,-10.521226683758869,-17.964988317852658,-1.1333343280971349,-18.322758130449984,-2.5539688558092166,-8.567822085154148,-4.649748327968155
1.204,-3.400702181394081,-12.866817889490903,-19.94926350990272,-3.9466248296457707,-20.731300079576158,-3.7106246215480496,-11.068212218577173,-6.618514971329205
1.208,-4.5125913190736355,-13.63727533175188,-20.895246725541256,-5.958850560899464,-21.25236052857599,-4.838038685054926,-12.960650953473305,-8.660659261662659
1.212,-4.560906271204658,-13.25129880478562,-20.8149438764558,-7.020414028687355,-20.33324208586373,-5.633077268341367,-13.76231556061066,-10.927539198716659
1.216,-3.6989737643093576,-12.304539742405268,-19.733399586213636,-7.328793990716804,-18.513716163192385,-5.855474126470654,-13.06146634201923,-13.367850308671223
1.22,-2.242412432818128,-11.166993754706255,-17.652638057550575,-7.165376183182616,-16.096082721416224,-5.403340223050691,-10.761516638390276,-15.620853641532449
1.224,-0.5264644730132204,-9.84623172993588,-14.651020775018878,-6.706539774848807,-13.086109008614585,-4.37933555908603,-7.270942613918123,-17.131109768314673
1.228,1.137188510001124,-8.167381613120142,-11.006744227464878,-6.012440279164821,-9.40110677071334,-3.088542468113701,-3.4527087425913123,-17.42987137563523
1.232,2.4189143574258196,-6.113790333167344,-7.243656184607971,-5.1715806052038715,-5.181227985060104,-1.952570930676302,-0.2900571534792107,-16.409829949468985
1.236,2.936564020312744,-4.057809233853277,-4.048777272708321,-4.4558867548976195,-0.9659897047722552,-1.3767324502969132,1.5774466784032484,-14.404795772728903
1.24,2.3286586018839444,-2.673117971668489,-2.040197098790486,-4.303253899880929,2.4255403450715676,-1.5956812150952828,2.184762559833871,-12.015329070613006
1.244,0.4278622170559174,-2.5694699681498605,-1.5301971466979012,-5.109279647971107,4.240419187984116,-2.577139369926954,2.196866814197165,-9.775769180315365
1.248,-2.5360269753077773,-3.8675607344798664,-2.3704076652866206,-6.917896752994238,4.173483631489944,-3.9998986023183534,2.4920955028328535,-7.879391694450533
1.252,-5.872540041257253,-6.014549713418091,-3.9860563248939798,-9.238235417604756,2.5397056517076635,-5.3434186886106545,3.57698801488732,-6.1474138934027
1.256,-8.625109502199848,-8.016433343360859,-5.644473204384667,-11.18205371924887,0.09510496030998183,-6.09283371356014,5.161063253774955,-4.270271214376407
1.26,-9.957597387610349,-8.962469732010959,-6.7874883568510995,-11.878624439031228,-2.3861859953804014,-5.955911551378449,6.191928140955497,-2.1751805642215913
1.264,-9.568483021097109,-8.554178966496238,-7.289467687386605,-10.967408690198681,-4.532742703344411,-5.009769070265065,5.366851477764612,-0.2589919873616964
1.268,-7.879944648688706,-7.303101052621969,-7.468440886385906,-8.853124163650136,-6.522730627508281,-3.668056229733338,1.8808952265890184,0.696289732657533
1.272,-5.869487197777289,-6.264892255013365,-7.849268516765733,-6.550025356633341,-8.863820300533916,-2.477715804208856,-4.016126342233292,-0.07493977578087652
1.276,-4.625863009684963,-6.4739629052342025,-8.85168494195932,-5.189491268304664,-11.956019426786042,-1.8673068227690237,-10.988326413876166,-2.8086393747926195
1.28,-4.829964537309479,-8.384853989329713,-10.540256354676785,-5.433488678115282,-15.697051113286761,-1.9532369487733376,-17.135169429207963,-6.899018708978474
1.284,-6.449971186833864,-11.643100455764852,-12.600766408838354,-7.145266507302949,-19.405086666312855,-2.5298565958828476,-20.810065859157476,-11.011966579761065
1.288,-8.784889810611276,-15.277633405341021,-14.500937201758461,-9.47146376231558,-22.095645199839055,-3.2195679858577932,-21.293538356710087,-13.610729135414658
1.292,-10.834902912288271,-18.187398555492564,-15.740843126554864,-11.294849259584225,-22.964284109280925,-3.701923491481466,-18.993662560288612,-13.650884283613777
1.296,-11.808525984919925,-19.650134579970654,-16.088013154929286,-11.816307872264588,-21.81540252544164,-3.9043460296143166,-15.119908327064877,-11.086797421256051
1.3,-11.47701686491473,-19.579793921062446,-15.64694749969749,-10.924532719788658,-19.16286353191299,-4.02101460457925,-11.053047807044095,-6.923869551652388
1.304,-10.226305877290997,-18.45473198179343,-14.774535948503399,-9.184378029180152,-15.956197745192185,-4.365937786427821,-7.778030708730512,-2.769202851493901
1.308,-8.785243238045496,-16.986809016845655,-13.85864277699875,-7.448316935621733,-13.072771364621985,-5.126443142318749,-5.611558763355788,-0.10169609177137318
1.312,-7.80246294164408,-15.747945830435128,-13.087087206880824,-6.343638853160883,-10.869638675034366,-6.183977739256079,-4.294958752500861,0.36534066334752424
1.316,-7.539112957778343,-14.95824134031136,-12.368425785855834,-5.957905237387422,-9.06312553664975,-7.148263177647095,-3.3241064192898193,-1.0792853469374677
1.32,-7.8030088244263425,-14.474808925500838,-11.4020278413891,-5.862385755573996,-6.979679164435765,-7.578415025367576,-2.261744857109079,-3.4021904653964157
1.324,-8.146603418178529,-13.944378163571855,-9.887874626276243,-5.453295676399648,-4.046401003512074,-7.285505154026396,-0.8978428904138127,-5.419435226736823
1.328,-8.168091454059322,-12.988804570824868,-7.727209941096589,-4.35788745948139,-0.20552515926647175,-6.4982246205509,0.7679609521965176,-6.397477098909803
1.332,-7.730119158229627,-11.342694173072232,-5.111330036975232,-2.6600624006769067,3.9802299109060186,-5.775714355380842,2.62319124673013,-6.358201185383223
1.336,-6.988801942353803,-8.938332916235595,-2.4939178169152,-0.845384905109313,7.567891572532972,-5.7220776027861575,4.4845156542387485,-5.9560599948017625
1.34,-6.238956686856909,-5.94147182899178,-0.43012153170911915,0.4921696098681423,9.690934473957896,-6.636768784514061,6.074608905064451,-6.032381230021201
1.344,-5.711441303846186,-2.761381623457055,0.608719714752624,0.9764137333986582,9.957499121087494,-8.326195072480914,6.997495750380949,-7.102232376002576
1.348,-5.440001828490949,0.005660351242113393,0.4127016527054366,0.6332819922999988,8.593921362593392,-10.173144014979698,6.8136675870864565,-9.055083993513108
1.352,-5.276610784728291,1.7304968910066236,-0.8693831708624202,-0.15897592316287046,6.268905869711489,-11.43950840306934,5.236973182136353,-11.219901696440502
1.356,-5.047854252512025,1.9630468013856444,-2.804448286488878,-0.9263536630605813,3.6957929180571227,-11.656651156288717,2.339419434501906,-12.739615439650152
1.36,-4.722069677365653,0.6384956833144315,-4.853247397856649,-1.3804832134755998,1.2682065466160566,-10.855518101372581,-1.3649698780709514,-13.039963798635654
1.364,-4.504638575743229,-1.8562675079247128,-6.6151953386188325,-1.5923935026285108,-1.0904554441549408,-9.540625150852065,-5.0637719169162665,-12.13003901169941
1.368,-4.766763760252616,-4.805216398423909,-7.988023569146208,-1.945228999428764,-3.7772538981180332,-8.39936273150306,-7.947464693103939,-10.587463544467028
1.372,-5.843997743005275,-7.4367227631419155,-9.157143904375516,-2.9118153104973317,-7.155037665469536,-7.915294207288753,-9.522144611490148,-9.240123004927227
1.3760000000000001,-7.824297026790191,-9.230624984119459,-10.4528594444173,-4.806570264546281,-11.213941568816153,-8.125355973637852,-9.765671637795094,-8.710233183928722
1.3800000000000001,-10.428982146919225,-10.088678378536315,-12.116051492202132,-7.617034211792088,-15.432696721145476,-8.63910916479108,-9.03952543000014,-9.078824001268003
1.3840000000000001,-13.066633291518883,-10.295867383330005,-14.122125035950376,-10.994783877046757,-18.933319328545622,-8.912029962393717,-7.829315297407447,-9.8386181038004
1.3880000000000001,-15.023267826596566,-10.288215236199903,-16.116983494396663,-14.36084986739752,-20.8283438566923,-8.566613361868804,-6.4693097833096544,-10.16377560050023
1.3920000000000001,-15.700441676728587,-10.365413301616172,-17.505300639570123,-17.05410004283476,-20.575302569305677,-7.568846850850605,-5.011584012405365,-9.345088591810054
1.3960000000000001,-14.828317858013179,-10.527730229930057,-17.690903478295695,-18.488136681910873,-18.174857816219628,-6.191686791531538,-3.317286230481841,-7.160354744781216
1.4000000000000001,-12.552635688190094,-10.50730731605654,-16.330113698546484,-18.263008082301894,-14.121478774246498,-4.797595342191926,-1.2893423180139507,-4.00979210497826
1.4040000000000001,-9.400942176372155,-9.97995149119015,-13.515536745611826,-16.264326413358503,-9.176656469744557,-3.6222479362622835,0.9047578116733348,-0.7525533347616147
1.408,-6.111751667544013,-8.788154868635502,-9.752512715809644,-12.710110008159972,-4.070569331001025,-2.668302099344146,2.803428700650329,1.6730328463872866
1.412,-3.3807780078868745,-7.035777513292487,-5.74747177768586,-8.12631153908842,0.7137725068969303,-1.7688504422567348,3.849642168652281,2.6455210649019136
1.416,-1.6469100467529643,-5.039090669106372,-2.1681874583609897,-3.274122251033077,4.956933971328908,-0.7902277603916446,3.6688057158044103,2.0736093219202303
1.42,-0.9750659769342747,-3.1678830298569665,0.5414743622186506,1.0111989005254145,8.56946291348504,0.19728435806246125,2.2830316036197473,0.345375456581678
1.424,-1.098302999608677,-1.7068531787263055,2.18533224273051,4.022026062345503,11.399581247392234,0.8755188334489503,0.12036117005663982,-1.9264173858937284
1.428,-1.5700201008148724,-0.7969683360015551,2.7570007071280997,5.384193915642754,13.14894289232052,0.8289646731955145,-2.171547274969271,-4.201399689853133
1.432,-1.9536116066683462,-0.45193465555621515,2.3756912987410033,5.188313459049823,13.46824557740456,-0.1930909438924573,-4.001386368225212,-6.194049685049322
1.436,-1.9977058954773383,-0.6163173169079528,1.2312048134517681,3.945676736830137,12.156870661778157,-2.0941272774725803,-5.0654862291903555,-7.8694518288848485
1.44,-1.7094945165572426,-1.1858490570630238,-0.40800235586175404,2.386431423386057,9.35219832383882,-4.42617084995436,-5.401697238865381,-9.299492264000946
1.444,-1.3214861954675143,-1.9951697401520505,-2.205628629284547,1.1506938061493202,5.5688449191193286,-6.592574147038249,-5.2797019050995,-10.497772770950178
1.448,-1.1530419086193433,-2.7909555582791654,-3.7891442745367385,0.5380221035384238,1.5679975959674266,-8.111340209994523,-4.9891193842668144,-11.339578681036073
1.452,-1.4364601010047409,-3.2497811344092042,-4.82758772431589,0.4326667611076118,-1.8895248251155863,-8.79057127669148,-4.651269884881913,-11.609672542106637
1.456,-2.2153567145333,-3.093648589712757,-5.172978732034608,0.40744865701890376,-4.308928212538376,-8.757763617239107,-4.177865883866616,-11.1350251708609
1.46,-3.335845190510554,-2.2367764250047912,-4.946391737852537,-0.02127759990253253,-5.599040612289173,-8.313700303115183,-3.3760485630518815,-9.90473863554871
1.464,-4.54108402059228,-0.8879170676482318,-4.528997877059737,-1.135735298757936,-6.032396916221842,-7.741047350498775,-2.1365297343963903,-8.092618527218292
1.468,-5.584262096584098,0.48737358875314385,-4.388402787790255,-2.8623144207631412,-6.044697808625642,-7.1566017052155075,-0.5781464180945477,-5.981976644776296
1.472,-6.294200506821653,1.349161336389443,-4.820821124067152,-4.793377247128774,-5.9954798171766015,-6.483041249928647,0.9424424982626078,-3.849895834166091
1.476,-6.5904179079516325,1.3102642834764993,-5.7828359973063925,-6.385544133538133,-6.026109598098628,-5.559896415945332,1.9577080813687644,-1.8835647313899244
1.48,-6.445911416793024,0.30241947919057566,-6.873356352765768,-7.208310327845538,-6.040503411708414,-4.292211224736093,2.106292660251711,-0.18107829391192354
1.484,-5.853266454335426,-1.4118537825443127,-7.524925322933996,-7.130164310634427,-5.805007397410009,-2.7571163400207297,1.3132242206738738,1.1951769411025452
1.488,-4.813763438969545,-3.356857853297697,-7.261803105509898,-6.331993899473673,-5.06716821201735,-1.1852528867129877,-0.14962342338731105,2.167463957639484
1.492,-3.3615883904003567,-5.013525324412512,-5.8824507193639874,-5.153666087067904,-3.62326777076305,0.1592605541627563,-1.7468785339424358,2.64475771292382
1.496,-1.608730690860284,-5.964801038595397,-3.521466814858286,-3.891227219493885,-1.3512644256807107,1.101370919835972,-2.887866478660726,2.5934394149408035
1.5,0.23945028272373747,-5.964645057068083,-0.5574972604536015,-2.6626269148073334,1.7615444373714126,1.6155076038394327,-3.152493357196363,2.099377324888337
1.504,1.9170601556379552,-4.955768775527758,2.5361190699786675,-1.432089529813311,5.549638360555036,1.7778009615012706,-2.4279969384733704,1.367323871836561
1.508,3.185466036124126,-3.062657051997121,5.334154201365891,-0.14243932455246977,9.58803776059358,1.6798983904773195,-0.9172762702637556,0.6342655932057824
1.512,3.922652362402914,-0.5871274146147698,7.533144437235023,1.1424640287241346,13.17303485672528,1.3715246371502872,0.9689754617356812,0.0452877673706098
1.516,4.149638537880492,1.998319098990578,8.925312022458456,2.1780710733291926,15.431780596503813,0.8559090577673487,2.784615884458617,-0.4104028658839525
1.52,3.9918066171812825,4.1184998367880326,9.366474155678588,2.629662837305659,15.586614096526318,0.15342236940159637,4.193006345371032,-0.8507085619603458
1.524,3.5895840087760007,5.23639444879791,8.761622550759057,2.2527477588446345,13.283370447101333,-0.640989344126865,5.027618063319096,-1.3482117153180297
1.528,3.036185195877806,5.052779721929255,7.138864103222659,1.0729106212820625,8.843365473625454,-1.3355088507451,5.29401716312168,-1.7746615621363162
1.532,2.3836357505560954,3.6656843169112108,4.754415169612912,-0.5591738194380014,3.273274424373085,-1.6865425731921277,5.140034566575196,-1.7605721019972407
1.536,1.6874484551808564,1.561782713913999,2.0886505733433296,-2.1148983617222257,-2.0437502576660336,-1.5200669647892937,4.799583029243877,-0.8344768119459332
1.54,1.0604873315223813,-0.5739266670443612,-0.27720831019541947,-3.1500759247192036,-5.85478583342956,-0.8370904833864188,4.539326491287284,1.3057764725963352
1.544,0.6680164267208966,-2.1579716483702214,-1.891290755045702,-3.5406057691980095,-7.513079751388432,0.14584779502183665,4.585080070522963,4.545166142943344
1.548,0.6626177233138151,-2.9447709404557827,-2.6078294346716575,-3.515492103095312,-7.165237905321192,1.0845341291933437,5.057920583194573,8.28845121608174
1.552,1.1024560655259847,-3.057088948753517,-2.5928105242419406,-3.4480003858079726,-5.541942667154217,1.691195549632539,5.934533350853599,11.663203859287023
1.556,1.8849090072480976,-2.8190379899242544,-2.1902103475913464,-3.5522929457674763,-3.495532170047227,1.8896668948545994,7.045369532901532,13.89793502923203
1.56,2.7702995026365898,-2.4838020610150124,-1.6840649236582976,-3.651910439999483,-1.5300082380199456,1.8715519659090205,8.14606398183787,14.673538932656811
1.564,3.4896601101463602,-2.047826902063207,-1.136121099078082,-3.2041805190438026,0.3953435983585223,1.988922913566057,9.030888449493432,14.249353996205173
1.568,3.9026351731463365,-1.2588089885202862,-0.3527231150001171,-1.572382420366921,2.7114996706259262,2.5685740270873794,9.655002850367964,13.287239247889374
1.572,4.1046073628258455,0.18499485477877897,0.987662791441835,1.5859401117450034,5.830040448285217,3.742005094049091,10.179131712362505,12.458443774623447
1.576,4.38274662223921,2.355030367949439,3.0790228517980722,6.008204465761082,9.714595794663182,5.345961633283878,10.869891939706577,12.059018718293373
1.58,5.040704252947762,4.937568135703259,5.7914131229536,10.805071951082937,13.714178591008022,6.9652567119992455,11.902917231804167,11.853423562315584
1.584,6.175334939249296,7.314099203889782,8.631547045239131,14.763746931843343,16.775098914136834,8.08646132519425,13.171545647623134,11.245224840466108
1.588,7.5571820672685135,8.861208138878283,10.933469927129408,16.857445296222068,17.94421412916745,8.304853699635714,14.243585467283992,9.677157141042699
1.592,8.686777643811183,9.284177721799097,12.167743169644382,16.69475922521451,16.87457129914037,7.476049871678697,14.52405776944397,7.0123335256776045
1.596,9.011201993932673,8.77359863535412,12.16708799867456,14.664865400000508,14.03920109128785,5.733099028280776,13.557442235206508,3.6746334007748374
1.6,8.213263601885728,7.90014592926218,11.186043069301377,11.72706043537437,10.544267969383782,3.4005048403578257,11.32088043460999,0.4607152893640887
1.604,6.397933235673008,7.290015916582888,9.73198595867325,8.950661085874344,7.627497351302736,0.846178946118016,8.327647008503845,-1.8652110152834211
1.608,4.0892488840790975,7.284011345565887,8.30636454692285,7.069011354578834,6.1162930270347715,-1.617165674091666,5.47514628270801,-2.9513264151173644
1.612,2.0279649040476215,7.783988055278314,7.202358453321722,6.272382900207958,6.127665744463229,-3.745960964151891,3.6812928116123658,-2.983748092865426
1.616,0.8425748703830322,8.346912899145536,6.413120869614431,6.283712569093041,7.118567852325214,-5.343401105015801,3.4740915912589116,-2.4931359481088293
1.62,0.7785725868779991,8.471021793608088,5.710623288183342,6.644747775426367,8.230885222590587,-6.222741157471319,4.759527908901873,-1.9801636690390296
1.624,1.5972546906014031,7.875548360875655,4.792425414516401,6.994211930559686,8.703403063425867,-6.233250813296763,6.864834721549414,-1.6042391346491058
1.6280000000000001,2.7161252820496884,6.63150126666369,3.4533070361576392,7.210387081991939,8.158196748565388,-5.319684834663349,8.8551400539327,-1.1236321457690792
1.6320000000000001,3.5138237605897302,5.092588410675489,1.699715139464388,7.368919116233883,6.653395344015735,-3.5761942336794164,9.9539834026873,-0.1180836297244241
1.6360000000000001,3.619691840888663,3.6728932779042225,-0.27539036825328367,7.565313203922415,4.517092913556553,-1.2757208865732537,9.832435347403589,1.649102693572786
1.6400000000000001,3.061453500490643,2.639041874826944,-2.17857793703115,7.775325779355626,2.1266904707117646,1.1884719210793264,8.661415645750822,3.9705430918183993
1.6440000000000001,2.194845160677687,2.0334839412826113,-3.7318104558235063,7.8363216159687,-0.23073599228519015,3.413264651422651,6.9314672091513785,6.224808468559786
1.6480000000000001,1.4963040651609845,1.7655144491764077,-4.721557017690429,7.578800039806083,-2.3450245521926263,5.121225951206725,5.1841379918732855,7.6879492911320995
1.6520000000000001,1.3337444854996647,1.7761585414682486,-4.979856486343124,7.001843212212407,-3.9768381446447165,6.251135945745773,3.8009907304694934,7.930954865674721
1.6560000000000001,1.8055187911659232,2.1174624985615083,-4.4021631275063555,6.324866522940283,-4.811802191539755,6.9194920734826155,2.915794202219331,7.052628198434832
1.6600000000000001,2.7413980186811386,2.9024654795930473,-2.9687704305779334,5.891366360665415,-4.530794335532846,7.312350299307582,2.476586751943614,5.601809276922722
1.6640000000000001,3.831241979036349,4.154351428497648,-0.7880336001016985,5.966993158932382,-2.9858942527134786,7.559374798445788,2.359488401272756,4.238415982828883
1.668,4.788389875278881,5.670299875228011,1.853067064359493,6.556048359887427,-0.3739958121077507,7.65438300383903,2.4453045875488897,3.3523146924126195
1.672,5.4653790878546715,7.0312851879307345,4.525898155543473,7.3815677058191795,2.7440184840925212,7.495875270669785,2.6467766093792306,2.8905160020185576
1.676,5.872988784676636,7.781106395099414,6.79391530677276,8.048602347156702,5.622515836310413,7.014068942653466,2.90753273183509,2.506145262341306
1.68,6.1158386481674825,7.685314868648675,8.39264971580269,8.295348695883149,7.641822074308948,6.300991083273402,3.219672243745663,1.922892562695779
1.684,6.298369806118899,6.901811142834049,9.343060036482711,8.165454238031089,8.578449497981637,5.636922748344659,3.651053469027829,1.2470089296984952
1.688,6.445207309732723,5.922467755760408,9.909459641494323,7.970023454941838,8.656922934280374,5.367856128679705,4.325614331039105,0.9847626026366925
1.692,6.484332074312988,5.297535139257889,10.425891187192974,8.063788416555326,8.34683016012059,5.700237071310767,5.332478976200946,1.6937144562198228
1.696,6.276887204159721,5.274902771046982,11.048529312220126,8.556047438471069,7.99964550439654,6.5095637302147225,6.556400911213132,3.457212085428182
1.7,5.651644926318113,5.554975167112389,11.541440757591772,9.123090128457989,7.519175285935489,7.270914028693369,7.500648323819405,5.524420168083452
1.704,4.432422408171988,5.327491008612014,11.230162701649533,9.051984164301757,6.26280648345346,7.168583981692791,7.246776557889461,6.39572739839241
1.708,2.4597650066070855,3.6091707213154223,9.197837513673221,7.525912497074387,3.280822658116449,5.376903484067952,4.660249512846349,4.41242309055815
1.712,-0.3313782147142774,-0.22802325936572743,4.730578806544145,4.060239795388043,-2.155166417653163,1.4498209848097758,-1.1219605384576425,-1.3824812902548729
1.716,-3.786705224209072,-5.998072603650144,-2.1769336609686434,-1.1294952409925827,-9.985293629682928,-4.3516889506554435,-10.099838486958106,-10.542765172252984
1.72,-7.424750903370295,-12.560796793619375,-10.520575885675498,-7.031462592838579,-19.055889967494295,-10.96721870363217,-21.033650090066658,-21.076411754011133
1.724,-10.437278087873892,-18.104941491010322,-18.396447334704135,-12.091855930003476,-27.284721837400866,-16.764783707136303,-31.54106476223751,-30.00466930683615
1.728,-11.875534167404112,-20.772866658853673,-23.56423009439459,-14.740867401167634,-32.30236432482525,-20.050343076836725,-38.74699379312551,-34.415521723931306
1.732,-10.98254793668275,-19.368980097802705,-24.24538640467472,-13.963049804963703,-32.323824965016684,-19.662112210367923,-40.27851321003436,-32.5606757566984
1.736,-7.549427653232669,-13.847016569859989,-19.832965795183554,-9.679491113116455,-26.88225587537454,-15.417552235798212,-35.20183360957344,-24.509542072788463
1.74,-2.122173333889805,-5.371200720808702,-11.202001112513244,-2.7949834862711214,-17.10305073380914,-8.227429279961143,-24.473683688040182,-12.087095915374448
1.744,4.07785531907939,4.073348551140953,-0.46359546471285284,5.10002325982623,-5.376650419104408,0.17491212055028882,-10.6779122663429,1.8378965641259128
1.748,9.532878435442399,12.357332047726231,9.759699235248263,12.242769694797062,5.463103267871702,7.8037709113741585,2.8820850203410373,14.37761781204972
1.752,12.988064134535307,17.913746114974856,17.27794075201382,17.249450352324857,13.14309858553861,13.09246447501755,13.366787607104925,23.52457198687989
1.756,13.937168113640837,20.19077852144619,21.080272702845832,19.486758033194747,16.713695212547464,15.378356995246577,19.347828368509,28.585683737876025
1.76,12.79075733551963,19.687071513337287,21.559214828943368,19.14040241382827,16.753187923402947,15.007584947590658,21.111364763517486,30.06014754588432
1.764,10.633365463673726,17.5899930703672,20.12746682931902,16.986130776463142,14.93936286722419,13.024329782594577,20.21534077101387,29.115492676464783
1.768,8.685234440958993,15.197927147610244,18.4273767501345,13.987522003177219,13.191491677669546,10.606265399970653,18.560889044625583,26.959269880349893
1.772,7.7493446395601495,13.402542118855308,17.557904932793463,10.930525276048684,12.804580959417763,8.550934797294758,17.457391887284757,24.38779190832429
1.776,7.914613217160877,12.434503084221433,17.66883633165162,8.24194010251449,13.963205861784445,7.042454226953851,17.121254592846526,21.654358175979723
1.78,8.651885140456216,11.948626520255857,18.079626223117884,6.0320131931575816,15.830509534796875,5.779816651307556,16.80794747775144,18.635823270049514
1.784,9.21228665727358,11.355506732390495,17.797428038107682,4.271365997472458,17.114839373700306,4.345188645254893,15.427712816639541,15.138803612861011
1.788,9.081169725946893,10.197219261641294,16.114736958032154,2.9665216892190074,16.79450801297662,2.573091873071462,12.274003783904845,11.165845099214494
1.792,8.25663452425215,8.397875416985698,13.005756356431448,2.2370587488185265,14.64975886033244,0.7223911026831047,7.4848319202283164,7.023998287237191
1.796,7.207270964243435,6.276872346830714,9.128917462066966,2.242080686281952,11.337349597915818,-0.6508143962673785,2.012792047111361,3.247025803275392
1.8,6.553838655618165,4.348321908004436,5.457909530493453,3.0099224098312334,7.994478553886438,-1.0353669985597662,-2.842945317448539,0.3896236556756776
1.804,6.68729293936758,3.0424657038165606,2.7696059065228837,4.296223488741816,5.617119609171823,-0.3162634209547832,-6.060196923761396,-1.197670638197451
1.808,7.548027998734142,2.5034178575178885,1.2702440910697987,5.581976646122712,4.560010989790499,1.0900833651248831,-7.329178050880728,-1.5006941192714294
1.812,8.682205099024031,2.5612443540967433,0.5757149181754357,6.252742262017819,4.427642240536443,2.422227736089553,-7.085282778774854,-0.8357674998806033
1.816,9.519829945706988,2.8684015810240453,0.023220094359203358,5.8689940818749164,4.390438538463968,2.9744870869144506,-6.173851649558856,0.2865407783865521
1.82,9.683627277142477,3.097708192339269,-0.8880032141378251,4.377908246518928,3.7245630343932135,2.4809951845345495,-5.376876893438748,1.3669846282245999
1.824,9.131667079715953,3.076040874921091,-2.193579585619773,2.136711837641087,2.248493557951406,1.2488625309015333,-5.06740452766644,2.097612491257678
1.828,8.067748310822026,2.7941868556335976,-3.4595095246713754,-0.27554279440846585,0.41076285292365355,-0.05130223550986557,-5.15217830331494,2.4459671240329044
1.832,6.725168894256967,2.3324967558428398,-4.029293450885234,-2.333607184037646,-0.981123818445667,-0.803782469511134,-5.266494898019118,2.611535155810998
1.836,5.193345929907082,1.7735849683394918,-3.378524883600221,-3.777035223502935,-1.2212921783084312,-0.8321386487714335,-5.056803574379046,2.8862970251266233
1.84,3.4219662206342036,1.1735602395001479,-1.3843536505701195,-4.6445258927451505,-0.07510274298510922,-0.5204112443461781,-4.374970244178257,3.4921986898662
1.844,1.3817698743350775,0.592416628736828,1.608953928001938,-5.141286850009237,2.137711822428173,-0.6036509336572635,-3.3041762653392652,4.459797641133264
1.848,-0.7492149393410727,0.12780742127415579,4.928679373168961,-5.447898377289675,4.760510665680158,-1.741126537668606,-2.062366351359742,5.6006105534906965
1.852,-2.5119228336534434,-0.08784938367989525,7.858570089112618,-5.580192509856715,7.179034322550251,-4.091461781719772,-0.8725667112430529,6.583038164983009
1.856,-3.3120247970591663,0.04163615915240371,9.906394194929817,-5.397362084700944,9.109301832552774,-7.135798686837006,0.10340147151691781,7.064808035687747
1.86,-2.742535003267676,0.4641259881300357,10.918873131295186,-4.757178474387729,10.612950508474569,-9.872059194105532,0.7405161304577632,6.813790358743063
1.864,-0.8845518629768776,0.9215283577696027,11.017245205381187,-3.6947340853439528,11.86397326988208,-11.276312066387618,0.9039113900871598,5.773975072477697
1.868,1.6024561655544858,1.006835073363618,10.412667430291549,-2.498312432291641,12.838433167903531,-10.799698925298799,0.4436792811502528,4.062259845677545
1.872,3.6991705472173635,0.341085066938831,9.250470423432489,-1.6045536985493527,13.166765128757106,-8.631633055832935,-0.7304449851562822,1.9106901955547073
1.8760000000000001,4.474749869409607,-1.2103638758535453,7.562628165290334,-1.3642999579597017,12.272303748036393,-5.597338508230678,-2.545176377435382,-0.40221837767785473
1.8800000000000001,3.5301199672476287,-3.4232204643030855,5.3283298899241345,-1.8349620484168554,9.72299014026521,-2.7655574940345105,-4.735793129456397,-2.6076635649333184
1.8840000000000001,1.2013179735281483,-5.787561087196991,2.585656065668445,-2.7360497550362197,5.5765796637579115,-0.9794843468480394,-6.925809098485843,-4.476247090338802
1.8880000000000001,-1.5992935047229366,-7.741097162545884,-0.4905655582069812,-3.614322937218276,0.49203725598454184,-0.5481942983369663,-8.782610896201732,-5.830273848721845
1.8920000000000001,-3.807476002456042,-8.924124253546324,-3.56740244543289,-4.108415100706225,-4.466571251896312,-1.212909050644157,-10.137220274254105,-6.555143942681752
1.8960000000000001,-4.682722753921553,-9.315728888027934,-6.218361164905218,-4.154864816548979,-8.251039016095092,-2.3683445035421755,-10.992196901681382,-6.62194726368034
1.9000000000000001,-4.113143018123992,-9.185036573918751,-8.05233768584003,-4.021066524464004,-10.259562903398546,-3.4002641623792442,-11.418188368184019,-6.1157777424414235
1.9040000000000001,-2.619251501105282,-8.901764283565171,-8.86544428932757,-4.157567150393334,-10.560772669626203,-3.9677829174024737,-11.435421753761148,-5.253796787208557
1.9080000000000001,-1.0894723641299606,-8.733684575211555,-8.7541174836133,-4.958981782014234,-9.803516498322097,-4.105183834960371,-10.99304229309655,-4.363621832957506
1.9120000000000001,-0.38523517328758317,-8.74507798579998,-8.097253465286485,-6.562055656362645,-8.863692846059166,-4.116647424602888,-10.063666632409877,-3.822497291796026
1.9160000000000001,-1.0014308203071778,-8.84128670096652,-7.405606081096266,-8.78495276049307,-8.422783194328076,-4.354851781994512,-8.79075560977617,-3.951418421242124
1.92,-2.917166459440068,-8.89872106951043,-7.092649892561894,-11.21594402761184,-8.686023133837807,-5.010651954287823,-7.545709967831499,-4.886560890283363
1.924,-5.660245666733772,-8.872735760267915,-7.273332460286838,-13.388640502010276,-9.357773671390532,-6.0218743741879734,-6.810883860895046,-6.494587393832262
1.928,-8.529375742773937,-8.811411802953444,-7.707300772391136,-14.948606648117675,-9.8578392305144,-7.129704846966888,-6.9238942577821945,-8.372437652756162
1.932,-10.842304892065386,-8.757454798799245,-7.900134008487839,-15.71598068921594,-9.627925814791524,-8.00881654596742,-7.8194685973585365,-9.95359526532593
1.936,-12.139650847391295,-8.637719943794764,-7.343225851589523,-15.666729622539151,-8.3926054454314,-8.412988647722159,-8.97199760274816,-10.705477647542466
1.94,-12.302959509726861,-8.252480439319697,-5.795936281327158,-14.894990882924503,-6.2767115678143455,-8.2758537212585,-9.633280273925266,-10.34046686475267
1.944,-11.567960656044761,-7.399833374569425,-3.468267730410844,-13.602366210534456,-3.7597397039871794,-7.737397540189704,-9.274074845681753,-8.95355205159376
1.948,-10.445683074901808,-6.060997022565971,-0.9985669852394494,-12.109212929713522,-1.5158823790807219,-7.098171594929227,-7.9627480062745235,-7.00656339883335
1.952,-9.539503929615876,-4.492463396917174,0.8162792874627485,-10.815698905996669,-0.18722370309114922,-6.695813102715874,-6.417198460065265,-5.144936196477829
1.956,-9.300830327370932,-3.1315533422448425,1.4041397704932024,-10.075023069134204,-0.1672296815459049,-6.746378749972791,-5.654952489754578,-3.91559150878129
1.96,-9.825825704855106,-2.3533552390954355,0.708276598894372,-10.01881267241015,-1.4661914903390425,-7.2140968562325725,-6.418212932122515,-3.5172321682139227
1.964,-10.786925845407495,-2.231959654126058,-0.7939702035446317,-10.441256297490327,-3.7125420339752964,-7.778719617822389,-8.713465063035983,-3.715365077870956
1.968,-11.562542064643822,-2.486461919260819,-2.3847744694439825,-10.849812081614346,-6.304127836352109,-7.938655794742772,-11.757270967348632,-3.973183691009581
1.972,-11.516892802739676,-2.6561097556614186,-3.5201408402763263,-10.680237718789158,-8.643086097250944,-7.207160100902911,-14.373313090681222,-3.736832549776409
1.976,-10.313369101043008,-2.413753697982429,-4.1308851454086835,-9.595237398154495,-10.365998802379636,-5.33859606113856,-15.623890652856971,-2.7282179740432184
1.98,-8.095058279560817,-1.8179668285774824,-4.623124567548075,-7.700226915786061,-11.454358326454894,-2.4779167414471885,-15.291703928967763,-1.0827339700490484
1.984,-5.423613953237691,-1.3140843935152589,-5.560694368385157,-5.532575512258063,-12.157264130162275,0.8546766152039709,-13.924330423363244,0.7430843409601948
1.988,-2.9972542233686,-1.4532337814607672,-7.218172917247102,-3.805576442865913,-12.760860394702377,3.948950952912128,-12.427495783030281,2.240678995705821
1.992,-1.2820471821141837,-2.4734636093494373,-9.253220426370717,-3.016113919342388,-13.308991141816023,6.20110926842699,-11.448169403341126,3.1389287017855168
1.996,-0.2659819871255422,-4.017544267125686,-10.738560491935004,-3.1451715584803424,-13.454217869486456,7.371013473638413,-10.946419777566007,3.5511291751372482
2.0,0.5001395871936438,-5.206855335074124,-10.58831975056819,-3.6509685349678875,-12.569732346500132,7.657876796189157,-10.233592415308522,3.8902129294165206
2.004,1.5834228617295594,-5.072786267660831,-8.162942049862068,-3.7714043183868853,-10.093162352636682,7.546806489675873,-8.446741348994692,4.603601570136561
2.008,3.249820809477569,-3.1236477783431837,-3.720920085315811,-2.9815225036945776,-5.936082683384029,7.498640867170252,-5.165500982746835,5.883445582011518
2.012,5.2140058483905705,0.2949413343735614,1.5888830157455232,-1.3243580117650708,-0.7045326650613788,7.675994790164623,-0.7711211544578873,7.523328113512434
2.016,6.726563755210009,4.078068882965454,6.221478106780523,0.589861319127067,4.4314043406593555,7.858418477956548,3.685561193579815,9.005133798975294
2.02,6.9744016071585975,6.858057768346498,8.960018372838931,1.9157805981481033,8.19046885598027,7.596153004674306,7.020631013367165,9.760092306452862
2.024,5.577139624522033,7.665017596312282,9.4741860846475,2.0427231440994547,9.735336881288276,6.507987563581992,8.536004921326366,9.447494386066865
2.028,2.887752203369473,6.392196606874677,8.404151543488297,0.9303112999905352,9.042631675691155,4.5479035155367455,8.343388435729594,8.100497634098247
2.032,-0.07633586760084654,3.828761788327938,6.958495833533561,-0.8661947006007722,6.89931760677473,2.1027202857030716,7.2316790319864594,6.084431122479145
2.036,-2.069855672392123,1.2491929127172625,6.2444339697012765,-2.499381036093837,4.5034426452562,-0.1532472496464834,6.176462449773226,3.908592064777622
2.04,-2.2123085693883695,-0.21121912527905806,6.696857667005133,-3.283262959430431,2.8666974980255873,-1.566913354378812,5.7957060638777875,2.0068356566289367
2.044,-0.4228157180177732,-0.056170045721046336,7.910206439971262,-3.038315606328524,2.333112096187051,-1.8111760829206105,6.070880999479414,0.6140999096269297
2.048,2.5207795886740314,1.4263543354009016,8.929715597523227,-2.147768973545226,2.457293392309566,-1.0254908544766295,6.472899097921072,-0.21886723525039997
2.052,5.347541296941017,3.415805102068134,8.830627279303371,-1.2966001420886641,2.3059594725987154,0.29516681314999005,6.383425038680343,-0.5325330377663704
2.056,6.888342837149594,5.02076343567046,7.234988516692738,-1.0639066919061406,0.9988512849117797,1.5777799954903458,5.518812158520177,-0.3790427076501146
2.06,6.593985025307347,5.685915983368432,4.4909365192411315,-1.6034846388779442,-1.7887317382383117,2.456420417755453,4.105025204295089,0.196468458221716
2.064,4.7359514138247505,5.35636338574318,1.4461367151998274,-2.5808307455840804,-5.627137730877621,2.9100949634866993,2.7254315876052715,1.1157416872192698
2.068,2.217367542560396,4.365742529916361,-1.0279435462612128,-3.381172791789595,-9.528717066360514,3.1905826886777504,1.9662320680999983,2.231480615801047
2.072,0.12562963666982796,3.1750028495018796,-2.44858295771337,-3.442163109536523,-12.408955355793296,3.6184546617128035,2.109289688808076,3.35837945016101
2.076,-0.7509461566871778,2.126021932037929,-2.868291952112486,-2.5375141729728057,-13.57536518298457,4.365778413045518,3.0345833099308948,4.364703831804945
2.08,-0.2298116310075784,1.3229059238451555,-2.7221535753105854,-0.8861624401133668,-13.008056549817866,5.342046999341164,4.347472990619735,5.257271249942278
2.084,1.246030680842523,0.6614372289766379,-2.5126779147526577,0.9433295484066093,-11.312141661534042,6.230816101948676,5.616381009726865,6.184007879095134
2.088,2.8352071971298756,-0.051213838006106016,-2.541215171742806,2.257293420010683,-9.394800443086751,6.634408497441655,6.562910385302075,7.3241474843325705
2.092,3.6594234803351355,-0.9581488167054886,-2.7936266770007023,2.500932213570877,-8.022931642064577,6.250005391953437,7.106830706868095,8.720859378760451
2.096,3.148261542022965,-2.057524456851297,-3.004442784175353,1.4654941146109195,-7.474271990889065,4.990219607355357,7.281543640350719,10.168880007066946
2.1,1.2476285685042967,-3.170036871144248,-2.8212025340953915,-0.618811392557518,-7.43877442543112,3.017435490720345,7.126187312414459,11.25002150063301
2.104,-1.5655896712441972,-3.9675168735248008,-1.9651124591700864,-3.1267429237454962,-7.20632584355053,0.685382478610336,6.653928666432421,11.51874857433586
2.108,-4.457420921361972,-4.069797140718492,-0.33409159435313995,-5.2248601369074095,-6.049491282339432,-1.5787696891547967,5.8891170098058865,10.746723113356438
2.112,-6.5206599834452845,-3.17607454506242,1.9850364037338295,-6.133034181475978,-3.606902418016716,-3.377872467043744,4.938926086200354,9.083884981154824
2.116,-7.088225423764243,-1.2022145234461732,4.743253220420684,-5.393376586191607,-0.09718537155549711,-4.421576004558119,4.014217963231658,7.032088365000163
2.12,-5.974134047149164,1.6288861737996285,7.568991688666301,-3.059055018624349,3.7305085395321385,-4.57373478886484,3.3590264929302975,5.2270594805236215
2.124,-3.5463888067188236,4.812078843993731,10.027260746946922,0.2931335522825975,6.887177809840523,-3.8805025531091815,3.123739151553764,4.136688539917941
2.128,-0.592293723347666,7.71834451703171,11.700899385852836,3.7648965508642505,8.542609472438244,-2.568668543233798,3.270173856504698,3.8522167566629832
2.132,2.002389406711245,9.845725922654537,12.329832181985921,6.508385001169927,8.36203415850514,-0.9856468160878649,3.5848061491783483,4.082524813175496
2.136,3.6327023654830555,11.0432064260292,11.945206655243283,8.109544516375081,6.628705885092586,0.5159506378786318,3.810404624151033,4.361057698234163
2.14,4.237430522260411,11.576414044479634,10.90696186432865,8.78610458106732,4.100493478860699,1.7090455809693594,3.8204674027929286,4.342395548902459
2.144,4.301228727961757,11.971238846752385,9.776811406744173,9.259793853455903,1.6663782045006883,2.5707530293425407,3.718778337499316,4.00608613852819
2.148,4.567461080184785,12.694159690883225,9.043139733307953,10.33450210979936,-0.04088756864553034,3.257915226548903,3.788393523396053,3.656233020731179
2.152,5.600609636834179,13.842221664494446,8.857456690103845,12.398063802287652,-0.8840703105474859,3.9932281642404632,4.323663087782734,3.7208361016978415
2.156,7.412917187837593,15.019651528048144,8.922818335494412,15.106730364413124,-1.2172392607926668,4.907385471592534,5.437109746517763,4.474519485115707
2.16,9.357615924119955,15.490627674683992,8.622217654397446,17.45486064144893,-1.652253051018306,5.9205099151204195,6.962563794000516,5.859083889113208
2.164,10.375339886612892,14.54660846848833,7.3432019680349185,18.22443332158673,-2.72196471150437,6.733556006899562,8.507055473365654,7.4998901037211
2.168,9.49066756215052,11.903558299072756,4.834133647070985,16.59936131693121,-4.606017410572349,6.950200837274679,9.622573890964077,8.911092581434332
2.172,6.326335730404139,7.920605986548708,1.4201551742457923,12.638495565229277,-7.032077661197718,6.286311232982371,10.00754956497758,9.758958849169176
2.176,1.37123189412614,3.5088771546495536,-2.06404261454486,7.340968570945051,-9.390548662740912,4.753704827653337,9.63487718656188,10.022747292841359
2.18,-4.147129327200673,-0.2272668569405596,-4.604871459235483,2.251462713784804,-10.986870148646176,2.721872447989199,8.742520290232278,9.950820594853667
2.184,-8.73567163768962,-2.4352831056583,-5.442528504187749,-1.2022541951128005,-11.30600453652005,0.8064711334263848,7.701567681802999,9.848159935206468
2.188,-11.24098688104084,-2.835798559113641,-4.4086910177388745,-2.30961653235795,-10.187902665438514,-0.38489454558430225,6.830611107869345,9.835255683165997
2.192,-11.29091036554314,-1.7641605167481202,-1.9863802635832144,-1.3077663637254773,-7.856445651292688,-0.5108600763210234,6.272593390435986,9.72651609722243
2.196,-9.372835849517969,0.06481659124665384,0.9223689126661156,0.8483598691341285,-4.817599399903884,0.35628365605634826,5.98314757190451,9.126717848874023
2.2,-6.531897118369443,1.9284483241428916,3.394591135116343,3.0260472200102413,-1.680989208553342,1.770837548410782,5.817882994263073,7.70453728475286
2.204,-3.8571056798602967,3.4047714083744722,4.8540619451973726,4.46083928038388,1.019062541157382,3.124996974660462,5.657369608369663,5.475793397362395
2.208,-2.022841389136147,4.474899819872235,5.237087219098612,5.0261569291362775,2.9508466739411006,3.9163614551239334,5.477770810882248,2.919186573118168
2.212,-1.0847857568866175,5.4012747758871456,4.92505704911764,5.134445020050407,4.041508729739917,3.9582624796344135,5.338929987534357,0.8266206765151765
2.216,-0.59891660242954,6.471964845226694,4.50026101051526,5.377640795848038,4.4529702173026635,3.42587722021608,5.311432789091896,-0.05720971478285719
2.22,0.03428005397006473,7.771383713862406,4.458713497844656,6.14830653394813,4.496019635480707,2.727450273690465,5.395381719484021,0.5817238998847643
2.224,1.2058132355480211,9.103028195929255,5.0050596711589606,7.453199573970437,4.5005818503095725,2.267884224597765,5.49200454855395,2.4297584190333055
2.228,2.8931239089712903,10.089182130763902,5.98726204638092,8.979616837946423,4.677014509847254,2.2311044084904097,5.460013918550658,4.669525810596042
2.232,4.707197285224311,10.383485900131632,6.988804679273471,10.33160346660054,5.031168890993854,2.5032091726266117,5.233803931936336,6.373069903190753
2.236,6.1251643898168595,9.86329512223324,7.504408124371707,11.24749444330564,5.365877255580926,2.7626531866731057,4.912717439457992,6.96653023893623
2.24,6.759997503945442,8.692338933622864,7.123932460220203,11.66071764206663,5.376268135467626,2.691326453236343,4.759388384246449,6.524749131801855
2.244,6.517225750490411,7.214454681228972,5.662291385304911,11.592476579719914,4.801219809442728,2.1837826828004836,5.074247716713671,5.734328876120799
2.248,5.572125246345422,5.747193914068362,3.209670122514126,10.993928063422345,3.5660217627329303,1.428320551670481,6.005434178387418,5.537761827158192
2.2520000000000002,4.234577605233085,4.416381778321579,0.13157067416773316,9.70962137656511,1.8647013348160044,0.832766334700068,7.413848118743999,6.642344723540191
2.2560000000000002,2.786965746864553,3.1232631999510545,-2.9945016858736153,7.602858676810683,0.13330811758441996,0.8252938685672007,8.871384987543706,9.150550687748705
2.2600000000000002,1.3958538131007572,1.6641477899628399,-5.50786458207358,4.759086370231216,-1.0858622648956953,1.6269643988305234,9.814063039501434,12.489542606683358
2.2640000000000002,0.1349545230482363,-0.06425870857901828,-6.8401707944033205,1.6130411124720467,-1.335914000062644,3.120511021514858,9.795761432459926,15.667995957163612
2.2680000000000002,-0.9332635823039936,-1.9099881176948088,-6.702679144262561,-1.1351217599838037,-0.41961919565665085,4.887414994646406,8.703446924334685,17.72419268992985
2.2720000000000002,-1.6817066768641098,-3.456055399307843,-5.189430831572508,-2.791005741498225,1.5288785499697042,6.408535910307137,6.831769984585662,18.136135793230096
2.2760000000000002,-1.9187440611565307,-4.183108156767503,-2.752448903731363,-2.98328558883577,4.100278044370555,7.3186735499240285,4.769735741446539,17.001197982481926
2.2800000000000002,-1.4659483089260448,-3.726271246601584,-0.031554319920019225,-1.830207111662844,6.77511087357891,7.588206927045007,3.1479260317839817,14.921419736031453
2.2840000000000003,-0.27226842124764516,-2.088619087777033,2.3927436439818166,0.15733148091834437,9.119587647836283,7.528928412729101,2.375033187171539,12.677928155424866
2.2880000000000003,1.4980103184934705,0.304102462521314,4.190666666151174,2.364283540426527,10.914962232372659,7.6069477858357,2.472980104687167,10.869922302721989
2.2920000000000003,3.466621289044099,2.7522683969947366,5.346982326363218,4.376670543723151,12.17274303596406,8.171599823841689,3.092999314144947,9.689093115712467
2.2960000000000003,5.142301601365489,4.5602055550079115,6.0521978825854035,6.098367796704906,13.033554674332038,9.233021147238048,3.6776235468470304,8.910783115020422
2.3000000000000003,6.075150189275973,5.305710681413814,6.486391101358777,7.611912685425807,13.608914651309874,10.415250051280111,3.678412784954901,8.079403548842208
2.3040000000000003,5.999189319913086,4.971135669745195,6.638417132966595,8.894613023276122,13.856053606094008,11.119285802931529,2.7537437221956793,6.78174702087972
2.308,4.914857224515572,3.8847454372159973,6.279235048450573,9.613596677915837,13.571537121046504,10.817229888994234,0.8685592081893674,4.8741514494673766
2.312,3.0890742799230395,2.526595895341245,5.133145359969774,9.18892835972332,12.518353032189964,9.33789907224309,-1.7059194637933501,2.562976768059684
2.316,0.9623407911810489,1.3008810153578452,3.1338699770694802,7.119594141607081,10.60603037142414,6.97497178369872,-4.477492762198892,0.3154758804416815
2.32,-1.0040469524566618,0.3860399633392717,0.5884192009328899,3.3791543004188043,8.012626170756562,4.35407457457984,-6.867953634080379,-1.3507566930273924
2.324,-2.488028839971122,-0.28318969834941754,-1.8915877342022327,-1.3944478889430911,5.158956668500025,2.1246440933698523,-8.37556099935955,-2.1082979661152876
2.328,-3.424032821747062,-0.930709072515242,-3.695897534543633,-6.086137155069935,2.5296788923576514,0.6351684672395095,-8.72702366355253,-1.975035997000532
2.332,-4.016483555895718,-1.7997764452044862,-4.5721018601969945,-9.59275862768078,0.45087289374919237,-0.2169156131570844,-7.967253064232295,-1.3080524636873179
2.336,-4.629942765424062,-3.0259366202763545,-4.805288773807092,-11.351714209802822,-1.0331202597158153,-0.8818838326667446,-6.4375784199717145,-0.6311512884492458
2.34,-5.584513155547199,-4.56469731328076,-5.071609128647083,-11.584635609447673,-2.092193001765736,-1.8446410993522022,-4.6408174225268795,-0.3767341104166917
2.344,-6.953530447423077,-6.188769443986189,-6.010329825552844,-11.098690441700285,-2.8912817683947196,-3.290920850678617,-3.031374984401623,-0.6782618158862306
2.348,-8.478324284894654,-7.5591781304658525,-7.77349844391415,-10.765922313127817,-3.3710492462863044,-4.961663831049464,-1.8407349857105828,-1.3224910729800285
2.352,-9.649951495383732,-8.33539225236234,-9.824520445793382,-10.980197085561258,-3.1912024354118103,-6.271219404001954,-1.0176833863569072,-1.898856835304855
2.356,-9.947327387188977,-8.296277703589396,-11.15535460025194,-11.424898913625668,-1.915954157347926,-6.637664892429257,-0.32850302773852036,-2.065607886968678
2.36,-9.11489389507318,-7.429058822878687,-10.830633134278628,-11.286904940682234,0.6488164261791667,-5.827919458054339,0.44234211149012026,-1.7734257244056835
2.364,-7.323350605904636,-5.936635703583704,-8.546277669342317,-9.77633164568772,4.187503457920684,-4.102983634610609,1.3283175392542717,-1.292566752967332
2.368,-5.112915548585306,-4.148827769435798,-4.866976783718997,-6.637505698094174,7.876247650805681,-2.0815775547040403,2.1626644827354085,-1.0131423395852153
2.372,-3.131687065696269,-2.370815006407838,-0.9658443231780893,-2.341551082206138,10.705490098503901,-0.3902683164336622,2.7384823060438066,-1.1433679442443463
2.376,-1.8086763934189776,-0.749363853503155,1.986958420605788,2.1320257159964626,11.962575254446278,0.6761839918021906,3.0232463945939116,-1.5106706780891273
2.38,-1.1563503576924745,0.7554716191446005,3.4264416394099726,5.771317828253245,11.5836564224835,1.2724770083290196,3.266956701952722,-1.6311113348143635
2.384,-0.8121750152759546,2.266632937205827,3.6241976245900105,7.969493998157361,10.151178188553217,1.8341267934324605,3.8948479654661696,-1.0423356960540104
2.388,-0.30584718484294626,3.8046010239020234,3.405124056678005,8.679563026247706,8.523148830523724,2.7313243870016777,5.208248333274355,0.3031010326207024
2.392,0.628206280710458,5.165191518544759,3.5720122928321416,8.27223487835056,7.334872803517783,3.9945089044186943,7.120063601142988,1.874073846742931
2.396,1.8830830718893026,5.965896794130572,4.401207987841872,7.238304261772669,6.6889664148316115,5.2927348965894225,9.118640637433941,2.7930600372764047
2.4,3.060217150462279,5.869071941539971,5.534692710932632,5.9558047554554605,6.236651474239807,6.1878621885323355,10.528676520013391,2.3840019825281615
2.404,3.7402468379693232,4.853756555534119,6.31849978199557,4.638196385950778,5.573460658296767,6.480460312599689,10.934513942123203,0.702548974026513
2.408,3.7345107637252113,3.323463629664218,6.30664500153614,3.4018420341143383,4.637501467023867,6.376386421507391,10.466096130751794,-1.3328429347895963
2.412,3.146092942790915,1.9306365393622968,5.56683242445763,2.324518227663816,3.7994588859075975,6.337646439698688,9.716392366321884,-2.396306755727437
2.416,2.1897803116661976,1.1590069871342052,4.536573563734578,1.3742805156800841,3.521424540058547,6.670915280458871,9.262517545790729,-1.610456320655885
2.42,0.9049744402145166,0.8942800910968458,3.523570787915901,0.25282888738649945,3.793471751677316,7.130755711501706,9.068763908541655,0.6882333612427374
2.424,-0.9999866907957653,0.28844092499889484,2.2306882829535652,-1.6716385853576412,3.777157541924794,6.847982031271613,8.206971133392472,2.793977167531466
2.428,-4.004690632416725,-1.902703961182283,-0.28913089074239906,-5.16988894699648,2.0142723666170923,4.713350515695765,5.186658537225981,2.325206053337297
2.432,-8.36343427920292,-6.602875685219487,-5.084334934923277,-10.684430853079562,-2.7789840707481517,0.07439375212629784,-1.1699346451179053,-2.5131825507630765
2.436,-13.669133074922456,-13.684172998225563,-12.434562314967707,-17.81218132626998,-10.728109856569176,-6.652565285731271,-10.752843751736236,-11.747543646699114
2.44,-18.699845176908298,-21.661784052217968,-21.199858439105924,-25.07347919263566,-20.239748031855015,-13.851358203753534,-21.68883668916976,-23.22507275665589
2.444,-21.73549659394928,-28.080411948399387,-28.882964810608655,-30.21545094223768,-28.3153819818707,-19.22442964870197,-30.768877533041405,-33.30348554917646
2.448,-21.258357421000767,-30.48285289068542,-32.51995666347966,-31.016735033379064,-31.713544089980815,-20.7583711784589,-34.68350543700433,-38.361057564937255
2.452,-16.687612319840127,-27.50378566404936,-29.997142244941642,-26.243018724349326,-28.423308772088035,-17.650781968751062,-31.496089769186142,-36.39484014643472
2.456,-8.762776669497441,-19.53877384133932,-21.136696631413542,-16.300453994430654,-18.697421005719207,-10.72062200967548,-21.608138224203003,-27.900497452054424
2.46,0.6556353366595431,-8.629073076782902,-7.944704413819522,-3.2221109728108104,-5.069175115134385,-2.0705633731574835,-7.6768173879481765,-15.592626042358233
2.464,9.287974387990573,2.3892000383242475,6.140828848238584,10.027889309009083,8.686507743518291,5.82181179494296,6.487267823180787,-3.1509235272114893
2.468,15.289204268564959,11.034596829468114,17.61662442078068,20.59716194328007,19.117759251643974,11.113778471036312,17.48805335886368,6.33829627166574
2.472,17.855941761310078,16.067988487282378,24.23409393690963,26.67020528853584,24.41007562695927,13.221968202328071,23.59901651350947,11.463259920286873
2.476,17.32303678729511,17.711679733600363,25.640976406366008,27.87864037682948,24.819012556055895,12.784029112445978,25.118564670609658,12.630471884406461
2.48,14.790742509627648,17.177275185459848,23.125494666698046,25.105008981730748,22.106878034555166,11.072261815806314,23.759623474547197,11.357616334302293
2.484,11.541994632509386,15.851543224485681,18.72683635992405,19.89156277614461,18.401841048863616,9.242044026850635,21.504985148096466,9.223035161209282
2.488,8.557069229811418,14.609208295528902,14.235680807541826,13.790276701135781,15.142576423413288,7.824974707242745,19.597160831895962,7.103045463946501
2.492,6.323849009581181,13.58918647235896,10.597841674982988,7.948281529073938,12.641778168579322,6.699783918449157,18.17315004119928,5.048663579803588
2.496,4.9167916251150245,12.447589442625713,7.896500109669773,3.004616922577611,10.373634798534681,5.448428884813438,16.616321976673134,2.7106861811753333
2.5,4.189883344246823,10.83625733482711,5.751343502970485,-0.7996753462861079,7.671876559543762,3.806583668637586,14.275969072679118,-0.07892623475686378
2.504,3.9139839338860156,8.761029321175442,3.7876797933604394,-3.467923071548512,4.338356756176836,1.9071587666180676,11.051784195828986,-2.9892049944878636
2.508,3.805178384409146,6.6046566224507615,1.8721734348844166,-5.1568153758314565,0.804055132583926,0.18483645234505275,7.509556605449461,-5.312476706885718
2.512,3.5333671752523514,4.866520227162937,0.07484025004873729,-6.122008999208333,-2.173257271288776,-0.9302480541434761,4.5382581923286125,-6.391087539486534
2.516,2.794806251350792,3.83132030514264,-1.5140113641887183,-6.642260871695953,-4.005228700700513,-1.2964039226958448,2.8272392985327315,-6.021035173310111
2.52,1.4602572865413777,3.3957549007554917,-2.9047691120106265,-6.894809494588344,-4.61285032711578,-1.122810390193763,2.5142685203136352,-4.5632837330101665
2.524,-0.2901839173039207,3.1500801335670303,-4.1654910174718225,-6.844701766891831,-4.410539008011938,-0.7890125729904867,3.191694288880626,-2.7195240073240257
2.528,-1.9892952093728127,2.622188632946859,-5.299825698078848,-6.258488079511835,-4.000059192771914,-0.5738664397699722,4.201261254302835,-1.1469263311946634
2.532,-3.1014243909531842,1.5203139307038782,-6.168354341922395,-4.879779644900623,-3.807181005115808,-0.48443283431106465,4.992366181062607,-0.17952332480967925
2.536,-3.3407119152374207,-0.1633184066489548,-6.55760181518076,-2.689032189588829,-3.8931145345377445,-0.3086991920206401,5.313589757561431,0.19812969606550723
2.54,-2.887278635502639,-2.213358011484843,-6.358374752115651,-0.07349628371207473,-4.024337636903965,0.15960400066728653,5.166838458112352,0.16361421887677352
2.544,-2.328034887886133,-4.318831431139188,-5.70314152377955,2.2512748438946346,-3.9029301805398973,0.9015619237386545,4.64363616152832,-0.1689832004051368
2.548,-2.3220897787317654,-6.167886529184216,-4.946798438393216,3.5752289999147706,-3.3750174422241344,1.617323361252602,3.805218986695081,-0.8383973174441053
2.552,-3.176810561397133,-7.474893377277681,-4.466068251107117,3.6047489062987097,-2.480715574140504,1.880525320776087,2.697213607523736,-1.9484854788679513
2.556,-4.602338514383291,-7.979838474466192,-4.40809110444502,2.694953789685542,-1.3524539671748244,1.4055421706775633,1.4497141498040946,-3.4918205075537116
2.56,-5.82096168749797,-7.486286182007234,-4.563802738307459,1.7265407633722134,-0.07734929245407329,0.2600307829002304,0.3455227872186697,-5.233301681464127
2.564,-5.99476490985046,-5.969389341928377,-4.469802661042877,1.642474765912084,1.347678308472041,-1.1285298094364862,-0.2507780409512179,-6.767158862232009
2.568,-4.729600064623696,-3.6962158712926794,-3.70468934285509,2.8884298579969254,2.9316258623196063,-2.1868911142803427,-0.09945924213047874,-7.7085968322448934
2.572,-2.344567367206878,-1.24158951726929,-2.1835570952187027,5.093833490950146,4.555103673008944,-2.504308739432645,0.7044802019743202,-7.903549068515986
2.576,0.2594376321776508,0.6582629423380695,-0.27372817580021547,7.191213205172062,5.897457314215217,-2.059441911564818,1.6710312102516127,-7.522972060326083
2.58,2.0588175599363012,1.3773820619309163,1.3502957564985536,7.931030686604345,6.50475792714451,-1.229449182076678,2.083375993125628,-6.984809225022673
2.584,2.430429695341786,0.668215707983677,2.0334726103849334,6.521016938325829,5.978040499405324,-0.5822563289839309,1.3345711999986634,-6.759602304168311
2.588,1.4154889552091845,-1.2375112116782248,1.436603362473761,3.015062724299014,4.161193448667973,-0.5904984809480993,-0.7628887064945502,-7.170690993340031
2.592,-0.39795931846197163,-3.7431121575953057,-0.3369120222832862,-1.7352843244975702,1.2339061717100321,-1.4056795889941895,-3.8472483922873835,-8.278449405872834
2.596,-2.2676398194900003,-6.161462401196786,-2.842508806269734,-6.515179046604089,-2.3399682190838575,-2.803034169131479,-7.129957846375419,-9.87257945419151
2.6,-3.70788674947039,-8.004925335267671,-5.536898366872492,-10.305151053862346,-5.978717150440389,-4.305118625802606,-9.710614105006698,-11.54973233710507
2.604,-4.672724002037398,-9.135955117265667,-8.001182896453429,-12.645039905380145,-9.159877531749771,-5.404351920480622,-10.923370169904047,-12.832781636666823
2.608,-5.435457896963271,-9.725480878037615,-10.049111124895035,-13.647251154688092,-11.53806171644078,-5.775896515502609,-10.572047132887747,-13.301830768199125
2.612,-6.280326035930784,-10.072580047491556,-11.680271480663123,-13.70925700759517,-12.9740704825183,-5.379714525937743,-8.972197225916716,-12.734021534751264
2.616,-7.248285017094531,-10.41840186200352,-12.964623876074029,-13.164838073404553,-13.507826408034589,-4.441558789148985,-6.808878171484139,-11.224087970960227
2.62,-8.096290434815387,-10.848849496283037,-13.940777619678556,-12.095748493203473,-13.305983763288395,-3.332575149699551,-4.880687421878065,-9.223739657535589
2.624,-8.47186120298079,-11.3061476797659,-14.574312598126653,-10.396665789843155,-12.605668460126708,-2.4119895115213694,-3.8226612643445605,-7.449048336432043
2.628,-8.171241800682196,-11.664925404653786,-14.785074487405154,-8.012438872421399,-11.661500239115867,-1.913441282545591,-3.8992649212771084,-6.641813706203266
2.632,-7.283869079393298,-11.79965162441863,-14.491356750444083,-5.147085193768817,-10.682570777260707,-1.9040679618433387,-4.936673236257548,-7.2655368336404536
2.636,-6.1384317050838035,-11.620863168692267,-13.658349336497167,-2.298315499039518,-9.787012842131617,-2.323593053251898,-6.42609984066371,-9.287569020064439
2.64,-5.105541657592994,-11.091130537543222,-12.338511477068323,-0.09105777038621454,-9.004485629173587,-3.0734147646180645,-7.7586224406284146,-12.180153061721285
2.644,-4.4001264468495265,-10.24865963154707,-10.700215683169063,0.9854096647375172,-8.32877548154056,-4.102678922501127,-8.51384710447337,-15.161833701633896
2.648,-4.025362886423409,-9.256441993113413,-9.0526415651168,0.7622245082127392,-7.810962240082517,-5.437591614169833,-8.667837414721134,-17.561540760657863
2.652,-3.876874006213029,-8.426349109782223,-7.817840467057067,-0.5944202384712298,-7.630292249995364,-7.128286789363301,-8.599664356606127,-19.10807292949403
2.656,-3.9034979662822025,-8.154264650453115,-7.423489079385035,-2.7201675703540786,-8.073468490282721,-9.145243840624516,-8.87541847544162,-19.97512187539769
2.66,-4.193050290715064,-8.763390614422406,-8.128023243657935,-5.2321900945360085,-9.405370539501291,-11.283509270025661,-9.902826541586819,-20.56249678048289
2.664,-4.905936772858695,-10.313793758444717,-9.847622553407518,-7.832174702515658,-11.68194778418433,-13.14947240782476,-11.640714865727205,-21.160297206474297
2.668,-6.116791034791959,-12.502746995186726,-12.117232972133024,-10.311198416084835,-14.625768729454649,-14.283493449718208,-13.559305321258762,-21.71600513994008
2.672,-7.680297899580637,-14.736793370207806,-14.229447815848744,-12.492496343737002,-17.651391251512678,-14.371770195926274,-14.897269745496942,-21.860383067460134
2.676,-9.2358214651872,-16.372524967480786,-15.525116156840113,-14.203000342334008,-20.0577359061881,-13.445750789976955,-15.082104157052527,-21.17754047219114
2.68,-10.367732391242498,-17.01024294763397,-15.692619289964796,-15.31456542693877,-21.30541299139395,-11.94171987663458,-14.07297908973851,-19.545460374878985
2.684,-10.816635120934961,-16.67323050341338,-14.909648544646643,-15.821250586038786,-21.238284091446985,-10.555602424805784,-12.413594528457907,-17.319888356455976
2.688,-10.618495253582523,-15.774481290962285,-13.755451602076391,-15.88996366977176,-20.13844979191299,-9.942094022410856,-10.948995909267978,-15.22543902268444
2.692,-10.067407215977937,-14.877822063040867,-12.910980607799502,-15.80284560222708,-18.582667848244455,-10.389621424106736,-10.347020816349868,-14.004949807166668
2.696,-9.526974194695867,-14.38759832112828,-12.818661954677737,-15.795091441075328,-17.17722447228857,-11.65137986122636,-10.713813426883917,-14.030603641799644
2.7,-9.201498607420945,-14.336167633181049,-13.468491320713838,-15.8693675586685,-16.29007318127651,-13.023116478592328,-11.543550581052386,-15.092543390190713
2.704,-9.0104699351225,-14.393084324842448,-14.42039925888821,-15.714214116129597,-15.912883883196855,-13.650769654273518,-12.039964208685888,-16.49243297984185
2.708,-8.64840633321569,-14.083545499671345,-15.047052319809154,-14.812188939478574,-15.705360795409888,-12.922940624872808,-11.61709753255991,-17.378479219860765
2.712,-7.786018839616645,-13.067074296338433,-14.827394973850915,-12.704210100358523,-15.174439016902625,-10.744771207508165,-10.268898082304531,-17.13211836440496
2.716,-6.289999393776043,-11.313720903556714,-13.54572237536513,-9.284563482774047,-13.89661526847749,-7.567711739010974,-8.580195845964226,-15.601004035288042
2.72,-4.3332241689902276,-9.08901662047333,-11.312980041560422,-4.960884332885371,-11.688537077216097,-4.168151202744866,-7.37359988417802,-13.08706490179884
2.724,-2.3259858976894066,-6.769246371208283,-8.435829718011519,-0.5675136986337748,-8.670355145673739,-1.3021388258143816,-7.203729256135375,-10.142142447427887
2.728,-0.7106736758091756,-4.619896797660431,-5.2597525565061005,2.9496541935736786,-5.223164291703824,0.5778101921823691,-8.021289264451752,-7.304572682287926
2.732,0.27670884898066106,-2.6680263281930365,-2.0720010664508663,4.942492997450245,-1.8636833579055292,1.425845734403083,-9.210546316522596,-4.91736662629728
2.736,0.7467465809451141,-0.7350754701019468,0.8981446978000349,5.356828378400223,0.9090709940244324,1.5089524860518395,-9.967630883576248,-3.079532311411185
2.74,1.129710623000733,1.4060306761375614,3.4370237763539535,4.768016068641828,2.76000491565992,1.2051635195693962,-9.781227047084258,-1.6989619113387562
2.744,1.9854902932104324,3.8487151174149403,5.332259610980827,4.11448821482054,3.6051391808211974,0.8204934991267692,-8.710995494456938,-0.5896836840524884
2.748,3.7210099346060588,6.443730155698859,6.404644393448507,4.240448114015862,3.6001619737858164,0.5064193528505712,-7.300738037010433,0.4580472371153519
2.7520000000000002,6.356041840191324,8.820266404526137,6.586626423299322,5.481166264095236,3.0481475854246582,0.2969424860871186,-6.196483133154288,1.641205226488637
2.7560000000000002,9.44086329160291,10.502915299581218,5.9622506138662175,7.483201371128644,2.2470906861169624,0.1903906223933518,-5.7296827416080305,3.102303408559237
2.7600000000000002,12.178545418832869,11.06856777584494,4.735187909492197,9.360948206189732,1.3517486135442596,0.2078815846530233,-5.722553992559369,4.8814802914389475
2.7640000000000002,13.733616321408476,10.293399325653127,3.153607735668629,10.13163646896237,0.33707957541719225,0.3910712267920644,-5.633209891316255,6.868729533484384
2.7680000000000002,13.604773543649117,8.241998795521113,1.4335956732870727,9.21522398658658,-0.9113235540794449,0.7577908892635605,-4.9450062840721785,8.800267701486973
2.7720000000000002,11.903711731808016,5.288979624112017,-0.25021791995800413,6.761211095551289,-2.420146158534635,1.2720554658385481,-3.5289261589848593,10.325197103561095
2.7760000000000002,9.378796592400022,2.0522294783208963,-1.7265185450003173,3.6232736471861244,-3.9823345990132566,1.8415930478622613,-1.756914385538721,11.130818810703204
2.7800000000000002,7.146241782106699,-0.7580477453620915,-2.786153953355324,0.9893511038894758,-5.1448083859161216,2.3482949808167177,-0.29647992796321887,11.077733222376082
2.7840000000000003,6.230294055857939,-2.5370234629847346,-3.1929634589191664,-0.14252056315763184,-5.368670015236603,2.6890555677605334,0.283233507870591,10.282658405239545
2.7880000000000003,7.104396834742602,-2.979849404656761,-2.789386328716091,0.6089128727367097,-4.302419049825858,2.7919200928840837,-0.1626541239877497,9.10437651427992
2.7920000000000003,9.4597044877994,-2.185999412633464,-1.6224218627967275,2.888399918207824,-2.010638018833788,2.6153720302900183,-1.285542265894037,8.036072364177926
2.7960000000000003,12.319566389589454,-0.617326239705335,-0.010033503077465866,5.82642322242782,0.9814228398215619,2.140954007394612,-2.4605994617438682,7.546897322033146
2.8000000000000003,14.457727083664167,1.091937647317991,1.5319232762819865,8.473368584336413,3.8710827389538736,1.3888116660577907,-3.1512424239786014,7.920598419353155
2.8040000000000003,14.949985114134734,2.4107949417359578,2.5105573991093024,10.230601277309006,5.921694141114813,0.469727356214662,-3.183939645226701,9.154088356270222
2.8080000000000003,13.578589320730885,3.1312011560069095,2.6932670480346133,11.049643416296249,6.781060991377899,-0.38475659544383234,-2.782364096501169,10.945090368501496
2.8120000000000003,10.897921292962678,3.4179053902412306,2.2347842827991826,11.333113371213585,6.606154494467091,-0.860779331208505,-2.364546419261387,12.773059111030307
2.816,7.944845100742555,3.668754008593851,1.6049913705819563,11.627759149734857,5.932158656475622,-0.6827828601994952,-2.2429205652208566,14.063460521386787
2.82,5.755713413167541,4.267143719887599,1.3454268269447311,12.298971616578001,5.364807084894892,0.2316051643447281,-2.4326286927284855,14.39100274908833
2.824,4.930152141372673,5.369365612838237,1.791350229728323,13.36358936468514,5.274941354068687,1.6726468325564383,-2.673236808660249,13.654128235455119
2.828,5.444938125002864,6.844496192944007,2.9001114113405038,14.539091093595061,5.655490894282366,3.175486454566453,-2.634805476714746,12.143441790559791
2.832,6.7753863994778385,8.387107934071764,4.291874114823258,15.447784673682918,6.207507829121596,4.20782481148899,-2.1622271373753392,10.443607300787335
2.836,8.2133909003104,9.716452413756315,5.46566595086756,15.828052640852775,6.577422227462193,4.424191640400295,-1.3902685400275914,9.189136560117277
2.84,9.199732988359642,10.728015176826148,6.065811772577263,15.640616979839706,6.599873242363174,3.860039170481741,-0.6592204116777793,8.77666944061275
2.844,9.505661476390458,11.5001835376342,6.0541667012007,15.037262353299582,6.402294845028507,2.9503600795785587,-0.2941475030596621,9.16952441369358
2.848,9.208535063700992,12.158088005833065,5.695725364434679,14.2354465183368,6.317383070512506,2.3366302005515536,-0.3925080265765928,9.916985923388324
2.852,8.531606708085178,12.707061021603295,5.385800616304323,13.40010768895172,6.673304326759762,2.551143899808494,-0.760613658061402,10.385155023111565
2.856,7.662800834682571,12.959580635549514,5.418104057682967,12.596032269571879,7.587709016425833,3.7323788456922102,-1.0380499473340024,10.093959984636513
2.86,6.66402365870681,12.623857807728768,5.829709067253589,11.815365327777954,8.886679030402775,5.534462030832628,-0.9175384566844969,8.985174201040309
2.864,5.505859856864845,11.504506563754148,6.400080835918516,11.039429326517848,10.183543972452298,7.288759233956398,-0.31894904182809114,7.468487241004368
2.868,4.168498091620563,9.684458842983872,6.78392028202893,10.280018033726492,11.06166660656936,8.330727568845305,0.5852254558863024,6.218317639941233
2.872,2.7367469032446934,7.573969844236217,6.71538046274236,9.592396632356099,11.272347632994524,8.336494256048809,1.51994244039156,5.837227120316811
2.876,1.4159790968894868,5.771084047191266,6.163862057294182,9.06320640870797,10.848841037734928,7.481463409965954,2.317529792771211,6.567975929343447
2.88,0.4656496511381647,4.809795307103627,5.376686108655576,8.801431806351502,10.09766376620746,6.352202199466774,3.0465751583287783,8.213080360604408
2.884,0.09511687046517636,4.940172466830518,4.799383927568442,8.937412762690201,9.488670996251017,5.6584539837438115,3.975536415600345,10.286351555647116
2.888,0.36630870954036254,6.044732094769643,4.886775092898915,9.5930481613226,9.481747002707266,5.884775464083077,5.37762043337807,12.284707515760374
2.892,1.1622420041891246,7.725917137196575,5.898035171049742,10.8140117432946,10.357683408752905,7.071387128890137,7.30726582989746,13.911000330719617
2.896,2.2294772995054473,9.496274156847562,7.748984161562021,12.47703775157595,12.101476728256898,8.817395278860431,9.497035289489304,15.128044683642429
2.9,3.2669378102800692,10.94975281308814,9.986031216005813,14.229452208503403,14.37263447443081,10.492941437051059,11.44423729121604,16.041159995447742
2.904,4.037037781826484,11.838460019284184,11.920025708231151,15.540559916789448,16.577910340499216,11.544916240532757,12.658196516520775,16.716100793511487
2.908,4.447144608707731,12.051884173733356,12.877247539755217,15.884740152237214,18.04695161463667,11.727271389735279,12.905572723676414,17.07592046143418
2.912,4.582166844672656,11.56947919518393,12.491431779627987,15.002781706245628,18.27644027038434,11.162907565146725,12.323114346305147,16.948897501316196
2.916,4.670217305017445,10.455886116550687,10.897082348684535,13.099354261460803,17.147351507126245,10.22065529674046,11.330067619325064,16.22881755790695
2.92,4.976442338813854,8.905816874034826,8.723510159403304,10.83782009761751,15.021880347797264,9.290301177588617,10.382510088295817,15.016262625374338
2.924,5.66589547267256,7.278453900388399,6.869146639462997,9.090958258318665,12.647883559009188,8.588651174417237,9.72886531820643,13.624077969587233
2.928,6.698289645585419,6.048718694803142,6.122082670613054,8.54318295116775,10.887622163681954,8.092774182924359,9.299409766415806,12.437165266887177
2.932,7.811273485156391,5.649672303679381,6.806679698704556,9.340547251372982,10.372336177565899,7.62306913842508,8.797974869763948,11.713454399107604
2.936,8.616383542049903,6.259984761946271,8.618842599781829,10.982439330774127,11.230249812340503,7.004884664157089,7.929784775593248,11.461031753836778
2.94,8.77464223469542,7.664913274309356,10.746735033773007,12.533193617396364,13.02287424071801,6.208843759135561,6.614801994416553,11.473739622668745
2.944,8.182342831040444,9.31348751308417,12.252935591494747,13.075503996109546,14.942699886591981,5.394758813501539,5.075252667737459,11.512490430170146
2.948,7.053028724139153,10.566617191985756,12.518863239319785,12.16216417380042,16.176293092819492,4.828631632639599,3.729384882137765,11.506423261007285
2.952,5.8442529547357935,11.020641530312787,11.542460547495807,10.041435118507366,16.267347689300323,4.738754294210594,2.973378335620282,11.630711802548149
2.956,5.043882448747695,10.716671514472807,9.923923595523547,7.528489281979091,15.296382988134269,5.184803752720654,2.9854068949355224,12.196118624601468
2.96,4.912994103725396,10.095159160677667,8.539373865942025,5.591083133183361,13.788719472568687,6.021182468693723,3.6552580003863113,13.410582055960958
2.964,5.327652774769831,9.713898536807449,8.087395313921775,4.878168292630903,12.416360011320876,6.978838860530914,4.669684011176855,15.166200251718237
2.968,5.797513800736908,9.873801641903242,8.725570875834023,5.42084817057264,11.639538646350388,7.807207241660308,5.671764016815587,16.99444667318994
2.972,5.680126214668121,10.387706782422413,9.998958299597462,6.658499208781507,11.477922664965831,8.400922802095579,6.402837776663773,18.23745583511959
2.976,4.487946947955152,10.645423347586416,11.077927683822622,7.75319827702117,11.525445794691223,8.834922612214882,6.747209984147162,18.35441852430654
2.98,2.1467559844963944,9.96490072129734,11.181821886336479,8.023889684298751,11.196410970374131,9.292866488438108,6.678185979567502,17.200783192106655
2.984,-0.9132031529575784,8.045885602551493,9.976300594866188,7.279425369941919,10.06958926738514,9.93485575445095,6.187970604255838,15.126271824035143
2.988,-3.8919618085637353,5.255290604649815,7.736920980166815,5.883915857699321,8.139628202718654,10.77385419116058,5.276782422659835,12.83976352593254
2.992,-5.915663257355163,2.5642545506350984,5.222916423984543,4.544474078613121,5.844727754041855,11.629737106486573,4.019594780868147,11.099408744622338
2.996,-6.367686244286517,1.1418689910995,3.3315896951966124,3.9451011751159513,3.8610584157883068,12.177976544943931,2.64808169043431,10.390115312856892
3.0,-5.112067670099691,1.8105157471896973,2.722062351270381,4.422824902336856,2.7800753606105104,12.079550949629493,1.5658173024016833,10.747475731123814
3.004,-2.514104517331191,4.651409042003877,3.5944553499953145,5.850284072861427,2.8460361391960305,11.130937182595744,1.2414847999157246,11.795533537687447
3.008,0.725076046498998,8.948257143109913,5.6806193604013515,7.748385245598399,3.8740176773917483,9.358048795788022,1.9941850710773679,12.958536392013798
3.012,3.8404689035112938,13.493281644965464,8.420483332646995,9.558127032839707,5.39043555111931,7.029754600739352,3.775563263785102,13.722482998289365
3.016,6.266213735756992,17.091897582080094,11.201198885573376,10.922993747687599,6.916702558732538,4.582614977643971,6.084956020448772,13.822047385247743
3.02,7.779681363310203,19.004149275448754,13.543065541757358,11.82998846849506,8.227904625270298,2.490895783607016,8.100826779121348,13.280141183821684
3.024,8.48797951348439,19.134961705853527,15.181496784672163,12.552675387861086,9.45177163685321,1.1443921206029017,9.004197690340163,12.310396651223186
3.028,8.680521184464737,17.925066259198502,16.041196538953614,13.426344089869076,10.951279762679235,0.7612226889219755,8.333984749004856,11.158297092126077
3.032,8.640381525671103,16.061725605086735,16.178106593336565,14.589242812259613,13.058215808256364,1.357005532162816,6.205202809658601,9.96932662813117
