Timestamp,O1,Oz,O2,PO3,PO4,TP7,TP8,Fz
0.0,-4.263256414560601e-13,-5.400124791776761e-13,-1.8403056856186595e-12,-1.9184653865522705e-13,1.1226575225009583e-12,-1.7195134205394424e-12,-5.400124791776761e-13,-6.3806737671257e-12
0.004,-57.412401412716534,-44.59948576426372,-93.04080422139555,-52.331447270381105,-28.11662669633793,-32.99003654378835,-46.791589800052954,43.1347624861032
0.008,-98.28651110951239,-76.16515610988296,-159.63101706604564,-89.46863933969215,-46.94344602330872,-56.02554060988302,-79.81012603456335,75.96405692852649
0.012,-113.4464868176299,-87.53615513050379,-185.0609225313675,-102.8882531568911,-51.41914113822904,-63.61333477153025,-91.56571417951876,92.53430025737295
0.016,-104.6860049638089,-80.25776396700005,-172.12080493442315,-94.02656668747701,-42.761153357238555,-56.89845107436041,-83.88317665459701,93.40786110488925
0.02,-82.92942634187105,-63.03783049776506,-138.20056433982106,-72.68648654872678,-27.38382343525045,-42.568070111193634,-66.25176733704987,84.62704290922201
0.024,-62.08342608502308,-46.78811219717116,-105.50520454242452,-51.54241245523207,-13.326236470592512,-29.11332910447939,-50.494674076386005,74.1981496772283
0.028,-52.080603398243944,-39.11451813587199,-89.98051582562083,-39.878937446510264,-6.237021228401105,-22.604543341888586,-44.79827751548091,68.10572666463011
0.032,-54.81520129326763,-41.22773737484688,-94.82837920260671,-39.87029088026677,-7.0547042267451445,-24.2164894391684,-50.30918476716073,67.98282327655092
0.036000000000000004,-64.81628121433297,-48.67615514781111,-111.51716257064788,-47.06050957670895,-12.446218203377065,-30.616357660409463,-61.85269869467623,71.4477247792178
0.04,-73.73831129889362,-55.046054931966665,-126.84713260888954,-54.27144934801938,-17.47810632760732,-36.70275519927378,-71.90829837168586,74.51265631432308
0.044,-75.62609076119872,-56.09927461694838,-131.2337009953079,-56.23831942342636,-18.71108621227289,-38.79392821583471,-75.16374849450511,74.37064559770502
0.048,-69.96514537693001,-51.962940800102295,-123.51917492462806,-52.326335404110964,-15.965776493810445,-36.48014615683111,-71.07608276832393,70.91981676737504
0.052000000000000005,-61.14979717180039,-46.40568787954827,-110.18852522949683,-46.10997867094127,-11.95180541106157,-32.29950783577527,-63.34384480967622,66.36576175466712
0.056,-55.2021896692899,-44.03969452882869,-100.32138522648017,-42.54619323284995,-10.250193113169026,-29.732327470527338,-57.079787273848666,63.47050590721379
0.06,-56.02373825535804,-47.38826455847198,-99.8767115506956,-44.75625896799785,-13.031205195272804,-30.952225246225098,-55.681781353049345,63.72158272782299
0.064,-63.306396260248015,-55.49851690202652,-108.55393239097293,-52.25382423785335,-19.786723482291094,-35.59487687397436,-59.16616332849093,66.53278905787872
0.068,-73.11751816866064,-64.75120210054551,-120.74127789842086,-61.50606769672642,-27.720683491049066,-41.18999174700682,-64.72106743208987,69.82052986462573
0.07200000000000001,-80.50456229602838,-71.14734791373395,-129.45551162517353,-68.2277083761835,-33.412788194404115,-44.81798712353986,-68.83379413991256,71.43584225108911
0.076,-82.37470984724733,-72.55755218457605,-130.55853482681243,-69.85801336029442,-34.68482001505044,-44.86916321665005,-69.50197392840379,70.46391511261699
0.08,-78.96682920692274,-69.62261073138828,-124.75269849299383,-66.7675516702696,-31.615931852304552,-41.88433924370903,-67.1991273573606,67.5943536697353
0.084,-73.17110819708597,-64.88858640945834,-116.32688055892868,-61.568491922825444,-26.181316765461556,-37.982076807966024,-64.12236563604793,64.4279069676596
0.088,-68.41961824080661,-60.966523946951966,-109.94470219590244,-57.222544272879816,-20.92408815099553,-35.40812801225764,-62.46295922086789,62.31206214247758
0.092,-66.63352262598659,-59.00256265589202,-107.78114558564221,-55.27634078786612,-17.568054830467442,-35.187728028123445,-62.980455657300276,61.532799109248025
0.096,-67.44026934691829,-58.360534320711864,-108.7293434519257,-55.2678313446588,-16.35703677453334,-36.670225154231076,-64.76165886165678,61.352500028670065
0.1,-68.91442841557138,-57.52173048576914,-109.8603224963134,-55.48286535895163,-16.369524820193355,-38.16846655959896,-66.1517069089586,60.74460117837907
0.10400000000000001,-69.04742057563698,-55.350878007799665,-108.67864370024307,-54.27913410947099,-16.373043401168285,-38.08853728466191,-65.99014037231815,59.2055387588772
0.108,-66.97332447546337,-51.87347678224037,-104.67275607861404,-51.10876715411296,-15.650448277233544,-35.86703902445821,-64.3123840948527,57.07839165462747
0.112,-63.30626418758699,-48.16858927115218,-99.35752775303148,-46.71209699095028,-14.344552177437194,-32.22240120788604,-62.17715481147726,55.23486136815352
0.116,-59.58532788108359,-45.59912566010741,-95.0754826584088,-42.53604063260816,-13.23661674411916,-28.672009365878594,-60.871731567655395,54.410029168835806
0.12,-57.31053930217587,-44.96979454723353,-93.5427672643145,-39.881009002397775,-13.210122447175983,-26.712477675149373,-61.09976106959883,54.67235934730032
0.124,-57.10170953537003,-46.081756630361156,-94.90913374861485,-39.23770432288461,-14.693490472725188,-27.060830129910535,-62.5883523417897,55.341431518920785
0.128,-58.46051477289928,-47.929344620002674,-97.86288388608064,-40.189465325671776,-17.41593230299952,-29.380304929456273,-64.32905774254081,55.38792141873689
0.132,-60.19709753039933,-49.35665528073898,-100.57488897210563,-41.845606038622805,-20.568351047381043,-32.56912165542499,-65.24302850141376,54.06395792954615
0.136,-61.19611877547121,-49.72888271810499,-101.7895279808404,-43.453568051690254,-23.22662753889427,-35.3740950315844,-64.82622334385962,51.363067274479015
0.14,-61.06532222896443,-49.23385012744068,-101.43057112912297,-44.81006690542324,-24.804061837983877,-36.999367505698515,-63.40828525053652,48.0239633569007
0.14400000000000002,-60.240800499817155,-48.62009968665358,-100.29500667526554,-46.17384514476082,-25.236512230045356,-37.32497476707159,-61.83264558936526,45.07428037844494
0.148,-59.60660171479391,-48.64665831538214,-99.2798648086037,-47.87276032292829,-24.903640273212385,-36.761479990012845,-60.877850523309,43.21875976437981
0.152,-59.93868368191151,-49.64545695388329,-98.79319540826725,-49.950217002230815,-24.407412303448208,-35.92753921873445,-60.84855038434577,42.472653986502365
0.156,-61.50466493793222,-51.436605980348325,-98.71168301748982,-52.09741557541689,-24.341149243164264,-35.351300434409644,-61.55740703735844,42.24691101587969
0.16,-63.985188924269394,-53.56072074953807,-98.80025855653142,-53.88163427208696,-25.133687405572413,-35.349917344495175,-62.62428217863399,41.78182525910925
0.164,-66.5965855481731,-55.5183699068626,-98.98534628388,-54.97087717958415,-26.903487903738764,-35.97710187956893,-63.73204688082783,40.6007151382878
0.168,-68.37760069782125,-56.891185465272244,-99.32499645780757,-55.24288293381391,-29.397424845557396,-37.05370624528911,-64.70719442150452,38.73273498130536
0.17200000000000001,-68.58285961429812,-57.37835470850968,-99.80808607809564,-54.77975677671435,-32.076504773314056,-38.272127591810204,-65.47772048060543,36.63790037480313
0.176,-67.04244533744392,-56.83570181362511,-100.22418576179041,-53.803584621314336,-34.33547565355035,-39.337595907312576,-66.02522308561701,34.92435927099831
0.18,-64.31297026950185,-55.35740694111529,-100.27865834262641,-52.629627130657525,-35.78103038413761,-40.12413916776187,-66.40700842069596,34.01485880979534
0.184,-61.40603844682407,-53.2718465845489,-99.71936316146889,-51.551952194322325,-36.363448616995534,-40.67754267984037,-66.72528161861231,33.90447727318943
0.188,-59.249052281802996,-51.04414267511839,-98.46248007311206,-50.74918622578469,-36.32639673817908,-41.12727429827329,-67.05715434866772,34.13385089161186
0.192,-58.21537361121082,-49.135003242821625,-96.6877344813826,-50.28025027385837,-36.03735499900702,-41.588133086221944,-67.39706597562144,34.00737401229353
0.196,-57.996300568719924,-47.86702111759331,-94.83779548094404,-50.15959199084529,-35.80203667224451,-42.10281617177898,-67.64381945506261,32.95491103247271
0.2,-57.887212327721414,-47.353525166768414,-93.51315346053991,-50.4568451503312,-35.767657165369926,-42.6769341588453,-67.64857162661761,30.84233819077554
0.20400000000000001,-57.227823246698435,-47.44538771756506,-93.12013873799401,-51.24507106872842,-35.88427979172147,-43.27049874393712,-67.22925689310898,28.039252350861165
0.20800000000000002,-55.780993254442635,-47.7720389803548,-93.5575691571729,-52.46891745491646,-35.96444521622881,-43.79005767455321,-66.20060736892333,25.236591276324436
0.212,-53.871830286240254,-47.9040963101655,-94.20665348911609,-53.85800161895884,-35.81473213949605,-44.112002881102825,-64.4700235392571,23.15112265205294
0.216,-52.22025835532649,-47.565947155952266,-94.25349826820201,-54.969223473723076,-35.361900967664226,-44.12670208489731,-62.162689828111596,22.280213306686445
0.22,-51.5545645946631,-46.78021574627159,-93.17212239895642,-55.365623476496374,-34.70366061006853,-43.811020176765815,-59.67216653888137,22.793402536947386
0.224,-52.126751913309576,-45.78032571961226,-90.91559015273951,-54.75004692050557,-33.990426227900016,-43.19578170640003,-57.48650923946595,24.536131579009552
0.228,-53.50971429239219,-44.8304338624188,-87.88077572290577,-53.08728938892237,-33.295731033414505,-42.34281777687954,-55.960924776108726,27.11362793813198
0.232,-54.847297095506924,-44.10093687644672,-84.74610308128143,-50.68685351178746,-32.58857464890728,-41.370649040749356,-55.20095757400267,30.007668022084072
0.23600000000000002,-55.31211606208561,-43.58270604404622,-82.11810023077084,-48.08611337935047,-31.767877131811538,-40.41977032853386,-55.02232374800144,32.642812881532066
0.24,-54.5516061535978,-43.110539929572624,-80.26991307557253,-45.83265022055791,-30.768323673354388,-39.61310078393413,-55.051812620365034,34.43856192969038
0.244,-52.896168325093754,-42.484347278775914,-79.13325124690053,-44.28368070696878,-29.665156702228604,-39.02296117488659,-54.93781318718393,34.92461032969044
0.248,-51.156428833812086,-41.56237900456679,-78.44333375514533,-43.47912814831278,-28.6682935882788,-38.62620943300504,-54.50382395105794,33.89855693479619
0.252,-50.08095111391268,-40.23766244415758,-77.83143353565806,-43.10383028031329,-27.958384437065835,-38.23447799943652,-53.70983852735051,31.55282098278227
0.256,-49.8223702636148,-38.367798238882656,-76.85070008930143,-42.584223294807515,-27.47702443783985,-37.46925906722223,-52.502872450340575,28.497773192219185
0.26,-49.822701089842376,-35.82174393671396,-75.11490523161203,-41.37033734086582,-26.87650120091698,-35.89859034043133,-50.7612635458236,25.647547164385042
0.264,-49.191673323002064,-32.65457256687776,-72.51883004554486,-39.261143096714356,-25.69597108849841,-33.278821916716765,-48.39974313899731,23.955031514646862
0.268,-47.29553007778196,-29.25611110143676,-69.35782701045933,-36.55273885738296,-23.655798440061446,-29.75574888437776,-45.525719417265606,24.047601591572363
0.272,-44.13946413767738,-26.295588932568,-66.18293347613044,-33.86753164162813,-20.865352803284,-25.86378440466934,-42.47699451764056,25.913900923402068
0.276,-40.33688749691355,-24.445201019590048,-63.47742995619592,-31.768844707897678,-17.815032184998042,-22.30300408894039,-39.70495915742548,28.846209761742283
0.28,-36.78821972917047,-24.074623503514285,-61.46653174157512,-30.46825072914252,-15.195388905671088,-19.663328893296594,-37.617481014653535,31.742580284037732
0.28400000000000003,-34.27114396142697,-25.075116198936623,-60.13886333885187,-29.780732396994285,-13.61376073932216,-18.209948186248127,-36.45985620608043,33.64608385620074
0.28800000000000003,-33.11482520081998,-26.875819756844074,-59.362576906563916,-29.29182697191433,-13.320023038468339,-17.805787603043765,-36.235139845967915,34.218501973105546
0.292,-33.07774885075936,-28.631726230808567,-58.92362731607929,-28.586668791134628,-14.062940653605487,-17.982009342443913,-36.657542909936836,33.84473258691602
0.296,-33.48258978567934,-29.525415381651506,-58.49432094781777,-27.413793733715654,-15.158879263696013,-18.12807112464479,-37.1944593992877,33.323338934374945
0.3,-33.58859197253351,-29.112324676548717,-57.72622936927408,-25.776983646667293,-15.798724898057081,-17.78352523050131,-37.26890692977726,33.361211343013586
0.304,-32.9984864573922,-27.541543223418273,-56.44586698119199,-23.928200702100202,-15.435366049456245,-16.874634500833828,-36.52954893171207,34.182480259772525
0.308,-31.847264730435757,-25.500924140898384,-54.78926835282523,-22.252871763378295,-14.029227496324165,-15.760026035894604,-35.011944743824145,35.45501403047072
0.312,-30.65589267292478,-23.874666231694377,-53.11681312324689,-21.078656971074984,-12.010769911784198,-15.017145692822742,-33.06699773110987,36.534875978036446
0.316,-29.98291022956016,-23.30773883640409,-51.773255660296556,-20.526668023058342,-10.006239930507142,-15.083637620352198,-31.11619513330883,36.87374244189227
0.32,-30.15191139019122,-23.960043517385273,-50.945243838587245,-20.54237745159202,-8.540321263910652,-16.012989404103152,-29.438020567290533,36.37125776863189
0.324,-31.187062096025755,-25.550682928199144,-50.67286219797539,-21.050994310706088,-7.864795294043181,-17.452057069390126,-28.111142302967266,35.458410834512875
0.328,-32.896125756375866,-27.58624145074068,-50.91792939640915,-22.076087286499927,-7.953378330734726,-18.8408428630754,-27.075357611997937,34.836342510803924
0.332,-34.94894921847113,-29.570153530297347,-51.53828744207034,-23.67733438642164,-8.582464726530308,-19.689667634436415,-26.203112518835262,35.01210831582111
0.336,-36.897338732634836,-31.087361167036534,-52.197538329690246,-25.745997179402927,-9.418995759296974,-19.77702188552396,-25.34061911166572,35.932440785649106
0.34,-38.24044020192861,-31.829460168546554,-52.424848049049864,-27.88754604142434,-10.113450392193496,-19.239785971508596,-24.377232599373468,36.9760016957559
0.34400000000000003,-38.56959153955721,-31.619519818011582,-51.83357414236438,-29.501059797037993,-10.372555527675793,-18.495265451933953,-23.32610654148452,37.3244078155609
0.34800000000000003,-37.73124891074683,-30.444189304303247,-50.34286129920699,-30.01968727796917,-10.002334031639053,-18.01983029211356,-22.337285545595222,36.460694528248744
0.352,-35.894516270970655,-28.450483519908506,-48.203681789866486,-29.15730074794721,-8.928378063916087,-18.072859645498887,-21.593893442699866,34.47036514018551
0.356,-33.481741764860914,-25.901181121688225,-45.81914448668424,-27.026662596813296,-7.212698810662341,-18.506502700076773,-21.14839376283749,31.98871857348881
0.36,-31.047083528209257,-23.13885772167672,-43.57913911206541,-24.128426575275117,-5.10809399922675,-18.832702521481195,-20.86580333774488,29.87207966163436
0.364,-29.125047678981655,-20.541414221038664,-41.784730766988716,-21.20039468710196,-3.091948954998399,-18.50416325090387,-20.512953675491648,28.80117475691904
0.368,-28.05801497146641,-18.443263297243433,-40.6328302948728,-18.95658151994318,-1.7941035783673103,-17.242609758721244,-19.91152194913935,29.020512115899812
0.372,-27.833460624241035,-17.022066737308315,-40.16649729677638,-17.788751230512947,-1.772963079140836,-15.209397798488821,-19.03233247725374,30.30951221257349
0.376,-28.038736157846802,-16.227150882312486,-40.22187197395093,-17.585951255435027,-3.233230681176762,-12.924830328653481,-17.98628548148094,32.16108207918242
0.38,-28.052647601510692,-15.854042837569931,-40.52329851777027,-17.837716205167894,-5.876122265772057,-11.032024981091856,-16.985332603281073,34.05616434507657
0.384,-27.38330921783611,-15.712757380611214,-40.86405290527409,-17.95372081731616,-8.96997434662022,-10.020945425849064,-16.286586712235287,35.67646252958349
0.388,-25.944211762748687,-15.751780300519561,-41.21966154583896,-17.607759002326482,-11.612575941714073,-10.03966969542144,-16.104699917367142,36.927570822066244
0.392,-24.06644193094622,-16.010781145404078,-41.64258759419866,-16.88026543278923,-13.038926093429136,-10.842639379187318,-16.485728695064886,37.78209062147364
0.396,-22.251300398613367,-16.44993720818787,-42.0267142373732,-16.143206699386123,-12.846845096098804,-11.890294157121485,-17.224753349405873,38.09936872679251
0.4,-20.88698336697157,-16.856150137016055,-42.0447668177483,-15.843438556027525,-11.106270655567648,-12.602315953879344,-17.9505838371121,37.595008533193585
0.404,-20.105496625146195,-16.927690784362987,-41.330101471599555,-16.313378767686633,-8.32195748790917,-12.62443886587976,-18.342863286999098,35.999010240005276
0.40800000000000003,-19.814869643977964,-16.47955116209172,-39.76397325013919,-17.66504849749115,-5.258117666072845,-11.969495290034454,-18.327449474407796,33.28485488426203
0.41200000000000003,-19.818686391538172,-15.607120177478567,-37.61487210124452,-19.747546295061728,-2.6746725041272086,-10.951142098805303,-18.085305205741196,29.78441962340417
0.41600000000000004,-19.937601704541947,-14.676289153873462,-35.41899797008057,-22.165483485368334,-1.0701225171970954,-9.962800830598258,-17.868991120118253,26.10286741417981
0.42,-20.114412885288907,-14.160475136118302,-33.76047980166862,-24.410686461776322,-0.5729675418375422,-9.298316665813786,-17.807204562307465,22.890180923908932
0.424,-20.441365954791078,-14.396559691988234,-33.05088160526181,-26.046639067238747,-0.9935912054241314,-9.09839827985533,-17.83234873986389,20.596178927028706
0.428,-21.06961698831614,-15.375575794764641,-33.37394452271147,-26.84896548475334,-1.9632310378270432,-9.403819599563922,-17.760868684696717,19.3213054605593
0.432,-22.02940985216061,-16.680692227142345,-34.414337962024454,-26.83077829629293,-3.07335887306564,-10.215331508086578,-17.43244256673294,18.814033846456773
0.436,-23.089523166868126,-17.64492174678861,-35.524484275408554,-26.165390012875235,-3.9745488036134793,-11.483879182556903,-16.821283807949474,18.612669217797453
0.44,-23.81114880873304,-17.699811390915922,-36.01238290162175,-25.104809616206634,-4.458767600552058,-13.068759243788644,-16.095876614697474,18.291490498371623
0.444,-23.780943782772113,-16.71844429481679,-35.50151561690883,-23.917113875121224,-4.510592124847009,-14.688821874651289,-15.562385242018221,17.69533173703708
0.448,-22.865392090842576,-15.1175241225774,-34.131339613890255,-22.825805355277254,-4.302946078954502,-15.925124350444285,-15.485094971668126,17.02707568334267
0.452,-21.295209067600105,-13.611596680735744,-32.4183047729043,-21.920204022209816,-4.1085331852448626,-16.296989813672702,-15.86542267086574,16.722899249153194
0.456,-19.52928087736612,-12.760029915918658,-30.87279249967893,-21.08507736123145,-4.1585207876454025,-15.406131548057406,-16.33177942979863,17.18673857743013
0.46,-18.03419142453353,-12.631185416277068,-29.71146911709653,-20.06551345688335,-4.545396955049334,-13.14964035183435,-16.287033765931465,18.55582388844647
0.464,-17.111765306556414,-12.807062550140326,-28.837326258549883,-18.66054571967917,-5.217368828513951,-9.879123368990314,-15.269223420043886,20.612618234384623
0.468,-16.82683014930062,-12.70383613844201,-28.035989701625407,-16.925814157304085,-6.045628846527608,-6.369156770668436,-13.28635569049595,22.86729305523834
0.47200000000000003,-17.014338946872968,-11.963349217655145,-27.163795990266735,-15.218370938481389,-6.8880420818943335,-3.537569450385285,-10.865389300349051,24.752065308636002
0.47600000000000003,-17.34601222754109,-10.658548377709963,-26.19333068084444,-14.029967542690773,-7.603253389631455,-2.0225355412675166,-8.7702331858971,25.83347122172595
0.48,-17.4852781322201,-9.22932936892554,-25.188570360462272,-13.736390445370912,-8.056711921019097,-1.883091749808898,-7.592981939522916,25.970814776444396
0.484,-17.26327131753392,-8.203631500930108,-24.248838653951204,-14.397699542393946,-8.13644722841211,-2.5843055792206755,-7.467281684908633,25.352182262996443
0.488,-16.758097925586906,-7.868084652708861,-23.45477477215989,-15.707288490686107,-7.781180749581793,-3.2879506937369953,-8.060251341013185,24.368413317662082
0.492,-16.20045319420096,-8.064497555213457,-22.788857522880086,-17.08675668079428,-6.986844607182982,-3.2704153632547373,-8.798662142498618,23.382153139085077
0.496,-15.773296857755188,-8.257722747019681,-22.08807111810124,-17.900960781724603,-5.801066095069344,-2.255506360640604,-9.195486837385968,22.522708526735038
0.5,-15.478320330427572,-7.884981385566343,-21.152663697186103,-17.751874082498173,-4.343686984194211,-0.5427653757658106,-9.131282829080083,21.641810423130043
0.504,-15.144250561551624,-6.756530003063888,-19.920474253417133,-16.68226063793945,-2.814010651182282,1.150119841259464,-8.919259596735028,20.472597598648854
0.508,-14.54669278669487,-5.236066961819725,-18.562491789455194,-15.155273134386832,-1.4503287666161775,2.0555371822793194,-9.095703508749025,18.88351439715536
0.512,-13.534166256600301,-4.047593254129125,-17.3694778950093,-13.785655349525753,-0.42195668660023733,1.7667457789591259,-10.028454477037455,17.047635103401163
0.516,-12.094921281206778,-3.8272127103869478,-16.502884922457966,-12.973929763211862,0.28341487578638613,0.4805742181441772,-11.58839983329958,15.416927143200757
0.52,-10.393475041583528,-4.742996088521232,-15.881000215469669,-12.712402566785146,0.8503760692469688,-1.1067350821307507,-13.149817209782775,14.515205120424937
0.524,-8.7542255824687,-6.412375096686787,-15.271288835215016,-12.66716726136058,1.4974108820621606,-2.18369057873279,-13.936938544280649,14.663325506904254
0.528,-7.564889691950892,-8.14606676031967,-14.512107838488983,-12.461737640129039,2.287666105047853,-2.268649565027541,-13.499639821045434,15.78581095588915
0.532,-7.097870657351466,-9.326970629782853,-13.65307587636824,-11.943563953075325,3.030383736986601,-1.4444914869335994,-11.982685328326127,17.402097323080717
0.536,-7.335385210852111,-9.684674185963013,-12.907381491869277,-11.2584456152469,3.3569691466968203,-0.25081110624262415,-10.029445495663325,18.826185921396167
0.54,-7.9517281534337805,-9.359547227786482,-12.543378099732035,-10.741575902673414,2.907636924060215,0.6417300648453637,-8.437448068434918,19.48464041190557
0.544,-8.483786558604002,-8.756066330281183,-12.772558033542529,-10.700407206241643,1.541302423426846,0.7956611022167941,-7.767046024539684,19.181043370264742
0.548,-8.587958141886295,-8.284521567843523,-13.683091991575795,-11.219720387026236,-0.5487964059344446,0.21049700602037902,-8.10712538841745,18.147715333856144
0.552,-8.21392662693879,-8.131268904629998,-15.194203655271355,-12.081262502091556,-2.869184065517181,-0.7087775500311779,-9.077932649383065,16.856560618413393
0.556,-7.593981154879653,-8.184847681308556,-17.02227613740007,-12.843109784664401,-4.791019268660428,-1.3778816868771129,-10.039204720545516,15.721586006791155
0.56,-7.1035155786207405,-8.176468967889479,-18.771183807170367,-13.086548162533038,-5.806212207658806,-1.366232156400812,-10.418320607024883,14.89739372318844
0.5640000000000001,-7.064676968050676,-7.906135348444796,-20.08105094033923,-12.66741952236665,-5.730711882115601,-0.6314321740195914,-9.970335711484124,14.302816739180763
0.5680000000000001,-7.579351037754762,-7.385274197589672,-20.747257856822333,-11.809331998400904,-4.738466092829304,0.4656554831911124,-8.832924732395268,13.819722656692223
0.5720000000000001,-8.45485914065829,-6.7877331554084,-20.72015805419332,-10.959530220439818,-3.2102962408339444,1.3772698369507528,-7.360757068654896,13.483549086395481
0.5760000000000001,-9.260541596592844,-6.2541251915402185,-20.00789652629127,-10.485596641962,-1.4951062643695536,1.6943651781776548,-5.865010983405948,13.515967652704084
0.58,-9.548028694019344,-5.747380920675928,-18.656763132475934,-10.449952182224239,0.22766631291882078,1.3407066190938255,-4.475522089563576,14.168959546759835
0.584,-9.118205792300442,-5.068957445048205,-16.816257540782594,-10.587771819761581,1.9175980709715654,0.5519526258617171,-3.1937290983870534,15.49225640828222
0.588,-8.160090054642062,-4.007195323871278,-14.795068199211592,-10.47317039663295,3.542030709391272,-0.3182232550994355,-2.037065174122451,17.19643096432347
0.592,-7.137716638385193,-2.486284299499835,-12.97248941421038,-9.728869814050528,4.992050828201875,-1.003736044957181,-1.1039243080007277,18.726112071000266
0.596,-6.479432014143059,-0.6048915496539613,-11.56877076254514,-8.15675415925612,6.131384854900023,-1.4168202400927075,-0.4921501728864697,19.521820246223342
0.6,-6.304340602613322,1.411290100116653,-10.501420610935266,-5.797007555069604,6.916160146610676,-1.625600151031862,-0.18355679902294764,19.327819047722077
0.604,-6.362775577913163,3.289139837313212,-9.436166085630934,-2.923030643359578,7.486215821501251,-1.7493331044516456,-0.0057242053509050095,18.345762196653002
0.608,-6.229630691285804,4.765631842323176,-8.027900982289406,0.00018723220405525431,8.12372395957212,-1.8684179379175303,0.28708503802115626,17.105316913816353
0.612,-5.607398240603704,5.615980140508784,-6.1884426823195,2.3974682873433695,9.072973691773758,-1.9939412695999108,0.8601270282708695,16.106410463660158
0.616,-4.542487680432941,5.671863775510019,-4.204627111949877,3.7200790058979805,10.322790282663336,-2.0851752211568733,1.6773021846866705,15.47734242252455
0.62,-3.4545194390514586,4.836344991400638,-2.678698875192225,3.5883899123996894,11.484835945601061,-2.117687393306986,2.487647204267745,14.908617513449002
0.624,-2.9311440501589328,3.138717884896823,-2.2702823591387897,1.9364312128923133,11.902423429518308,-2.1174575246097014,2.9580585767732526,13.931949702388144
0.628,-3.376596244483688,0.8178978669389227,-3.3443069621539028,-0.8858689158320487,10.98119023518463,-2.126006467725055,2.8968575067717515,12.36347393652813
0.632,-4.7010667443151934,-1.6328046329188868,-5.6879908824839385,-4.122058259090139,8.574262937845461,-2.1119298162222604,2.4297162057142225,10.570102705100123
0.636,-6.266236341078551,-3.5584194773057525,-8.485641202264784,-6.800076596893335,5.168376017061401,-1.9127979552195375,1.968809177178482,9.318457120294962
0.64,-7.207121418426693,-4.439858984407843,-10.71531060836802,-8.138811197944113,1.6648705576632095,-1.3363699919151428,1.8966851829166549,9.246426927592024
0.644,-6.979989890268897,-4.266208532262217,-11.774869155006352,-8.001070935611832,-1.1620691444495077,-0.3815119594361813,2.1259920397237524,10.268016398519773
0.648,-5.8250160644316065,-3.743191832291614,-11.97648052208212,-7.137610962121604,-3.2254813153375594,0.5465546950598359,1.8363310675762246,11.307144811562956
0.652,-4.812815820987307,-4.115147450801202,-12.52917020207288,-6.986618980139414,-5.308259845716556,0.6233416757903285,-0.33155676535946577,10.611681803690644
0.656,-5.373723329090482,-6.594258912677388,-14.913133818432257,-9.033634765439157,-8.671188554627358,-1.1067703227404477,-5.6026598964958305,6.578582101517842
0.66,-8.548428436588964,-11.670685202430487,-19.999434060219343,-14.03584132472965,-14.25709007671621,-5.264218194387862,-14.256691822783278,-1.2894590531625303
0.664,-14.337982340438511,-18.67082707032184,-27.363301936929815,-21.487727102503488,-21.903960228682042,-11.68490358040948,-25.112958826596437,-11.814742759323488
0.668,-21.502120753602576,-25.837565642538294,-35.19059225537096,-29.62833086709682,-30.040554755073874,-19.239846578841526,-35.64385910325116,-22.33652189705502
0.672,-27.923915567370436,-30.93644916587493,-40.85847567646194,-36.017203609759704,-36.109085980557445,-26.053155928162575,-42.75256331788669,-29.657686433740324
0.676,-31.39371829526538,-32.129454100357776,-41.942967927394086,-38.4387793858358,-37.57202726319024,-30.074387826933567,-43.922090562008194,-31.32385769462763
0.68,-30.508669413251518,-28.744666205346796,-37.27882200780803,-35.78014746239028,-33.072681885913376,-29.83437040024069,-38.26584211856153,-26.61324929939905
0.684,-25.276888369879373,-21.578591610668237,-27.563741573251498,-28.48845809586055,-23.16873639281473,-25.048254840213406,-26.986094435943194,-16.770212556622116
0.6880000000000001,-17.141701179952967,-12.584951252628601,-15.200921445912032,-18.408520054543597,-10.25365269558324,-16.797569233573274,-13.007790391074286,-4.425780342607981
0.6920000000000001,-8.405051192151351,-4.093018267859973,-3.4024465791807113,-8.071269443161906,2.3220135311304553,-7.173603055437187,0.09803957267094399,7.4551618190828
0.6960000000000001,-1.3187538888102837,2.0720905931521134,5.055950935000016,0.2358528165427649,11.521373892624371,1.483940002955951,9.425837438692973,16.585449751459137
0.7000000000000001,2.7224373924757836,5.141184374689772,8.792514065393409,5.180674167822572,15.667135972169227,7.393791460024563,13.672117430281686,21.921732200723206
0.704,3.549311525093662,5.4248278291303205,8.099401769951687,6.628575518484699,14.815977289594489,9.8762113057774,13.32778863931317,23.657760908925752
0.708,2.0365804127747227,3.8904538439644263,4.494022957414668,5.386578461214183,10.376713909064977,9.415354906595088,10.121123965979269,22.78281118535981
0.712,-0.4417105771109142,1.6011404102062574,-0.11681688083265218,2.681759751112116,4.2814618815322305,7.275625354959338,6.0745918096863045,20.504549805541973
0.716,-2.6247350525445925,-0.685762590456475,-4.2038617467334465,-0.3410642715998047,-1.8196482606379143,4.903622787249703,2.6611957864405094,17.81506091153863
0.72,-3.812580001256767,-2.645478123487576,-7.050786717336725,-2.941403169539127,-7.000610509655424,3.350604669279658,0.38874688597245033,15.328807624639254
0.724,-3.99537888125241,-4.265219800415748,-8.726494949552366,-4.841869523793168,-11.017319396960518,2.969071646696346,-1.0755188380388048,13.341448495366276
0.728,-3.6675979378514247,-5.6320573087184655,-9.728533065723754,-6.084693006126917,-13.951785774473109,3.466525847872079,-2.4092199821863725,11.95123287739482
0.732,-3.4355956842052464,-6.759245213919128,-10.508634208397297,-6.780739965296018,-15.824342764811288,4.252467731183078,-4.055357546169291,11.134273873847075
0.736,-3.6162737827601124,-7.522431989411427,-11.120001916758495,-6.887352119180215,-16.42085014075549,4.871674981630548,-5.864489406922188,10.75240136077286
0.74,-4.066474049480761,-7.741156249771797,-11.218420085410253,-6.1800060089011115,-15.441679794994442,5.244218211620949,-7.162799961291814,10.559118285404823
0.744,-4.301985153302302,-7.315425513582772,-10.35281769177681,-4.408774176822049,-12.824313367787921,5.624321162201332,-7.168890097858178,10.269842360747216
0.748,-3.8232622275324366,-6.326781854669439,-8.352335386929859,-1.5580631699262906,-9.002601471303418,6.316766784488067,-5.512580800387012,9.66900016094113
0.752,-2.4503991915336103,-5.039750490880863,-5.536115054605986,1.9576633969694273,-4.897025735638213,7.3534269854251875,-2.5397121956046433,8.685874286827566
0.756,-0.46563797514791716,-3.7982006079732837,-2.597338754960205,5.3112678443477925,-1.5973836841890368,8.366083676971492,0.776400667110746,7.383276139616487
0.76,1.4930691034143257,-2.9062964510481297,-0.29523924671711566,7.497531072926321,0.08778078942560263,8.716470811718663,3.239323466284645,5.871816134440052
0.764,2.743774526401427,-2.536978376590903,0.8941988510867667,7.721427972374824,-0.016168079673517077,7.836137635265633,3.963562828993595,4.230814521477607
0.768,2.914135139851818,-2.684483355077562,0.9797746817335957,5.774034943491664,-1.3814392926353127,5.5811412518384795,2.7736806220454118,2.49426903474043
0.772,2.1615315911755157,-3.1541695205215188,0.4432123521467446,2.2215933162551997,-3.0162734126406328,2.3965097706102445,0.2893995575636472,0.6989581222293095
0.776,1.1341093775329885,-3.586309218910646,0.04510740509568123,-1.7126483289553205,-3.891717455995746,-0.8152430339555568,-2.3300562337709874,-1.0549025965793466
0.78,0.6356805857763721,-3.5579775684893917,0.4748116726969194,-4.601402167054108,-3.381880334501428,-3.108263952235264,-3.89954024518238,-2.5915844705515187
0.784,1.1637161208914302,-2.7486812219840715,2.014674124206346,-5.412163407145647,-1.5156542438561873,-3.9574538024211074,-3.741869826450823,-3.7269246142287926
0.788,2.58401773890259,-1.1035819280147119,4.369789329319368,-3.963031731184339,1.0674683575114274,-3.515670699662163,-1.9891252225006077,-4.3762000121760405
0.792,4.163184330888064,1.101008449887189,6.784332583449046,-0.9781354628814372,3.434024598880441,-2.494578144058936,0.5112901320607977,-4.626115641593467
0.796,4.974476797849199,3.351505144406108,8.413374107071943,2.309787034755044,4.788564722859478,-1.7101431693849483,2.6375256107512683,-4.707688852616329
0.8,4.426064094543233,5.093213466182686,8.701953805100203,4.769691910948899,4.7861395045833675,-1.5838802633420688,3.525649803110624,-4.859089797148517
0.804,2.619343787398579,5.949023784288304,7.6099726081567045,5.8843864639188626,3.603130906983454,-1.875348200454865,2.9291976580334085,-5.159108410470408
0.808,0.3135681968799342,5.851937983418335,5.565982604488673,5.889757501330008,1.7545786782287216,-1.8307623601740377,1.2320599759362225,-5.453149650955489
0.812,-1.4891511078896,5.033151029783489,3.21990983051114,5.498725727507399,-0.21106663705736128,-0.6647220785430141,-0.8436857263560762,-5.445655717406856
0.8160000000000001,-2.091585866651881,3.892386355155372,1.1668591034507712,5.411101200389215,-1.9494249882037167,1.9173312309976898,-2.63039262337694,-4.91444169234938
0.8200000000000001,-1.4913366085139468,2.8067496375593817,-0.26743466862459364,5.8805833423434235,-3.3812153919084533,5.430946939225834,-3.810918562766792,-3.89563469890222
0.8240000000000001,-0.378688670504447,1.9822822696484594,-1.0725997554440574,6.597192974392566,-4.565537178685568,8.757337535415925,-4.469409675085798,-2.707435030111146
0.8280000000000001,0.2626276810247754,1.4229239978608827,-1.4411974420038736,6.9306280829632865,-5.498940627753806,10.65821726098043,-4.900740729985811,-1.7770061133019315
0.8320000000000001,-0.26350779415755055,1.0290939483614159,-1.5700556598141246,6.3774563669262925,-5.986788813898276,10.39547734077226,-5.314476233282061,-1.3770408984183264
0.836,-1.9296671880040726,0.7580512453417292,-1.4794244879352498,4.9330290246240756,-5.680399420977463,8.130566117380965,-5.634797222091716,-1.4524489387124877
0.84,-3.978829381410481,0.7097403272020701,-1.0128969290602945,3.1246288736401087,-4.29790721648532,4.8506850600132765,-5.555753993905569,-1.6494017824440643
0.844,-5.34333250932042,1.075745064600231,-7.92372931757157e-06,1.7018719559442155,-1.8889529358269206,1.878472397784346,-4.8086216853082036,-1.5375427073069616
0.848,-5.247002663228756,1.9804914099678084,1.5249941819626882,1.1811256300644062,1.0342738698414191,0.2199911705663804,-3.459085821573341,-0.8966190467911357
0.852,-3.6267795600767547,3.336722670055185,3.228885467275513,1.5476831260516268,3.6229751368594787,0.1124826990447631,-1.9941861482735845,0.10926428952658629
0.856,-1.1252842437829587,4.821479637229999,4.610365955970183,2.3129033558491923,5.0433460069778135,1.0134710311272297,-1.1036445297432724,0.9734483042479045
0.86,1.2903962529961381,5.977746559795481,5.239625409748701,2.8489711022060322,4.852321565483376,1.972149197946401,-1.2940846412987703,1.0857788682741818
0.864,2.830178423660014,6.391334198751044,4.9625045633642655,2.769312527075893,3.1877009837659127,2.162152906981521,-2.5771925176708024,0.02983862904032364
0.868,3.1984155428587027,5.843614888388457,3.92273995296957,2.095571617250963,0.647995026068326,1.2591646010758812,-4.44673990448322,-2.24495810932667
0.872,2.584867619065518,4.379628734011959,2.414563900805579,1.1295679797229212,-2.05366873016421,-0.5063219419763716,-6.175997276483709,-5.4637940065340596
0.876,1.4078166985895413,2.283409756000696,0.6951550076327617,0.15444557063523234,-4.447298451938155,-2.5811859169462754,-7.24604830599563,-9.226515028896483
0.88,-0.004339060752050372,-0.03021893438102552,-1.157660849094079,-0.8309361284210262,-6.493619582258522,-4.455882365312927,-7.655747761087547,-13.213122404808445
0.884,-1.5563769229017002,-2.1261498555534297,-3.2064232406803135,-2.1151987499217153,-8.477386984250618,-5.905959711902954,-7.896635829224623,-17.24344593771603
0.888,-3.2859905919413457,-3.629515644775447,-5.479162758846104,-4.008257809566032,-10.693772511284372,-7.005497207476069,-8.602002771409062,-21.169065665491612
0.892,-5.123507086252879,-4.2585631993950965,-7.765669122375099,-6.473007109846643,-13.123079711184765,-7.9471724549698415,-10.069001837086194,-24.708194152448726
0.896,-6.709440184214385,-3.8248612911273474,-9.520951617031532,-8.904468931292577,-15.294415463219444,-8.80235908256589,-11.948119960036811,-27.37826404258386
0.9,-7.470645885335738,-2.2609968493794534,-10.03471247206658,-10.286661200069847,-16.459489454204473,-9.431575054954843,-13.341193703922773,-28.616343021333392
0.904,-6.941903570113506,0.32421275768440916,-8.786363346628386,-9.687195596105479,-15.97281668353115,-9.587176257140303,-13.272325787357573,-28.039224593970275
0.908,-5.1319625630086225,3.592240817306764,-5.817279918209635,-6.823980994291486,-13.672077925905477,-9.137242030030746,-11.276118826252567,-25.69503257977395
0.912,-2.6581499800167743,6.99341599947415,-1.8613850733193642,-2.346643930519088,-10.030001873382988,-8.22577281774922,-7.732971614188005,-22.1432741295354
0.916,-0.48987021388933005,9.911744929275017,1.9306233137680362,2.39076948315701,-5.962647932577356,-7.218526455489606,-3.7118068466311076,-18.287894754020982
0.92,0.570424030926203,11.87927985333241,4.504573296696968,5.956774402424601,-2.420675255502574,-6.482231319412933,-0.4193201176634851,-15.031637675877443
0.924,0.3697193988239924,12.771016655316128,5.408803197495754,7.547355595545122,0.02950281280236755,-6.120126401783555,1.4348691593823792,-12.919258306439588
0.928,-0.4657148303128009,12.862269594503342,4.98635299658069,7.3594794615965995,1.3984552238714798,-5.8747036139213185,1.9780897771102302,-11.955123991451776
0.932,-0.8480558892281742,12.709307055922466,4.14543478718128,6.424953013221408,2.153632922644519,-5.279744826225433,2.026695833733136,-11.692274108060598
0.936,0.19019100257353472,12.921598057949002,3.881725350981276,6.021256267153904,2.902527589604106,-3.955902670585127,2.570092498064085,-11.526981285371694
0.9400000000000001,2.955889116650373,13.898701908634855,4.762913054425024,6.960850221982721,4.04661656466823,-1.8986408582194987,4.1866963030680715,-11.02316992293336
0.9440000000000001,6.910017042797381,15.650515789901403,6.667094348887044,9.161177005602687,5.59415897213362,0.4468431623498468,6.736647824063956,-10.09706056813081
0.9480000000000001,10.939729079481271,17.778201139404132,8.887910641317674,11.72077902980734,7.207739807765205,2.3808632727482184,9.482242495069093,-8.974311492623173
0.9520000000000001,13.935091530938864,19.62616262164694,10.531128785003775,13.443610436551554,8.428481049488923,3.3138799759417497,11.540514373108513,-7.981126666167999
0.9560000000000001,15.353803779974093,20.549923839350434,11.000788818393653,13.522584280646791,8.943228422857562,3.105935814859983,12.384620251698156,-7.319775767422879
0.96,15.434928685233396,20.167692978053896,10.267270548279395,11.97212126461778,8.729910791151553,2.145704604669308,12.07330183648314,-6.9526819533374695
0.964,14.960782474552662,18.498619075081262,8.805928369967045,9.590987907307774,8.027578692386431,1.130207848751886,11.109987754953433,-6.640226750730206
0.968,14.730711212198488,15.938190582578635,7.270494154450834,7.5024968409610215,7.1733031572675845,0.6568206336924505,10.054793020751113,-6.089397008618443
0.972,15.085978085651915,13.099913018663157,6.127976226248899,6.562974327660592,6.425133821530952,0.8779543081133736,9.180812027206219,-5.118839926387293
0.976,15.782304454035517,10.617761462299098,5.512164587492459,6.998197555133239,5.889323748905893,1.453530366299531,8.418803009802037,-3.749599315610828
0.98,16.254278768334256,8.97479152007068,5.318527211989521,8.428072941514664,5.560104396268095,1.8066426719998163,7.590862792673581,-2.1750972171505585
0.984,16.07180905380691,8.401550873601414,5.4371508177362,10.214473958378552,5.418215589722685,1.5348751053968022,6.733100427676258,-0.63432390608157
0.988,15.269075341685266,8.84476858752613,5.910399620549602,11.866097108632898,5.492932817482632,0.7018391578485592,6.231981296555782,0.7276129089369445
0.992,14.330657610067494,9.998467292773748,6.893935282205861,13.240829828617787,5.835950570132356,-0.17447999053137908,6.646340700234245,1.9258921435866965
0.996,13.858354494900771,11.39457228774277,8.475859384350843,14.466764139638677,6.44475929341532,-0.42083548978498175,8.318564982239991,3.093628866182272
1.0,14.122092422878406,12.51801538733906,10.466484840938989,15.659060293204213,7.191118425143037,0.35562985237444644,11.021970758744178,4.3605889276706025
1.004,14.803788135988617,12.932325355242542,12.352919730614799,16.680298903769838,7.835129875745325,1.985858459749314,13.91128892398316,5.725046855429666
1.008,15.101875286193447,12.379399660303545,13.459685308067002,17.12193992951873,8.123657427488382,3.7760805521029237,15.839792609651184,6.99107413461698
1.012,14.160337644672802,10.839798986652774,13.259721186069658,16.540897596782433,7.927815765232318,4.867589555975612,15.893822409707901,7.808766107028307
1.016,11.604705219697372,8.558696476094555,11.698985450429728,14.82282010692002,7.351028898276449,4.73670522221941,13.871749529004676,7.806251138596698
1.02,7.850646018742557,6.009727498477981,9.300811880667304,12.401715025643796,6.715942473322077,3.517498903044322,10.407159215073978,6.759445728073645
1.024,3.9907818953948215,3.782176505870939,6.981551980422356,10.165169758081714,6.422537509524812,1.971062874240479,6.670973903586204,4.725815438167086
1.028,1.2957666996460677,2.4091649761398415,5.643434706389289,9.047806400088007,6.744444774235421,1.0891516546889601,3.80569315051115,2.0784243505638633
1.032,0.5949470522321549,2.196383738502597,5.763029348436151,9.536636484811595,7.679716913887201,1.5527192815997917,2.4163252751917543,-0.5999015770655847
1.036,1.885906836248405,3.1278911219301633,7.225541905110871,11.400521355323654,8.956977387560112,3.3597509062938675,2.4033022346336534,-2.7336381141877517
1.04,4.361438634143909,4.87749246956977,9.443386126552225,13.787291309520397,10.181172896069972,5.796946598028758,3.1821657168129183,-3.9837944578800677
1.044,6.8345837581021325,6.929136439997285,11.688580871083355,15.651419481762137,11.047147718088294,7.796030039391921,4.11905315158506,-4.3783923907862325
1.048,8.308588978848189,8.744229484920904,13.411738269912176,16.252207209506786,11.481870459377713,8.455400209493181,4.891728486427522,-4.272502056071387
1.052,8.400979421162996,9.922698663534826,14.395386668438018,15.450740121209506,11.631656827181097,7.452903025332134,5.587116657958715,-4.145794120792599
1.056,7.450344323520074,10.325175504200956,14.736000481914928,13.686041077806799,11.73150116856214,5.177775685131014,6.537533987447161,-4.336570327244258
1.06,6.26120084660058,10.085980208961306,14.664359736903661,11.650112991710092,11.91571579807771,2.5020289583889666,8.018080108987464,-4.855636219737921
1.064,5.650807922665766,9.518491885352901,14.358214421955529,9.889948223806396,12.095021465237604,0.3488564731024807,10.023179113379715,-5.382685491756591
1.068,6.035935707033694,8.954454150574243,13.836709006162087,8.564884815814754,11.983209525522392,-0.718019538470839,12.240206135320456,-5.44745086065743
1.072,7.260163385888157,8.587378136356303,12.977179873776286,7.483468809444698,11.259187727928232,-0.6897517848849128,14.216723807186145,-4.702778590540067
1.076,8.731874869434648,8.400330657833287,11.65720545340273,6.376858894671157,9.784222168383746,-0.0021598240206044395,15.61197262564267,-3.1443331546219766
1.08,9.754498776529337,8.193306861054705,9.88510427207263,5.178946822997176,7.729376208701674,0.75963887181446,16.34628875931869,-1.1567732571254505
1.084,9.8650316832079,7.696403137875257,7.856043302427931,4.125679552413374,5.540008674900095,1.1784980167587813,16.57029761937518,0.6469344095671037
1.088,9.000131480285754,6.703018200923934,5.886072173620725,3.591162420724366,3.740538762120722,1.1641559875946046,16.483919604766093,1.7134483162179004
1.092,7.439808315573699,5.162947437029169,4.277956424481158,3.7744437638677697,2.6889810806808105,0.9002426532639094,16.146369049826504,1.8072728875689483
1.096,5.617699443013693,3.2192499525882314,3.234092325827139,4.484619146912357,2.437080172736091,0.6714772780060239,15.430343443370772,1.1009050356320458
1.1,3.915192986465277,1.1703231488932913,2.8266789048784,5.172565828271358,2.759478155162147,0.6683150284147894,14.140362058932347,0.05188927111068953
1.104,2.559606676425721,-0.6140715881766474,3.0426181855882453,5.228088057512435,3.3401579347727637,0.9038678919698226,12.223369566575977,-0.8453954410672679
1.108,1.6426569858710327,-1.7996085738761272,3.826401280115854,4.353274844395294,3.9822300384809983,1.2584578357252134,9.913344210208745,-1.28905777242713
1.112,1.2104748445566205,-2.1852095470732706,5.0799896536769795,2.780264434757468,4.702774209785677,1.599979830954362,7.702699297059164,-1.2624527943401338
1.116,1.3561451879156747,-1.7478666497602742,6.657607442407807,1.2046766679747671,5.665253071896374,1.9094590895405714,6.149208202866334,-0.9727130716841623
1.12,2.215400975576915,-0.6453788339203106,8.343000985718596,0.42877563125281704,6.979437678623372,2.3038727067323195,5.6044953364653365,-0.6990203243904736
1.124,3.855652860462389,0.814418435096659,9.853205125600493,0.9142843782141918,8.504183666999626,2.9602362740743127,6.010434705880439,-0.6508298491371649
1.1280000000000001,6.114235991583939,2.219855853030946,10.855329662957931,2.4820589946422515,9.779140908224427,3.97091532664362,6.8724012247204715,-0.9012554763407499
1.1320000000000001,8.505574163184345,3.1209782707205465,11.00886684352863,4.33752084563297,10.1588424465173,5.232074793408982,7.445048985774128,-1.4107228051972305
1.1360000000000001,10.310135373476696,3.1382443430888007,10.072071399910081,5.445680281516774,9.11306296599313,6.468115723719409,7.074649644395257,-2.100899273549266
1.1400000000000001,10.833881323501863,2.083748602083338,8.009670448316147,5.04634745884615,6.5268352978416715,7.358251551777421,5.53661242503579,-2.9088793462740474
1.1440000000000001,9.744110656799599,0.06275685747425097,5.0797887985879004,3.058921416852444,2.8468881493597786,7.72214920876541,3.2090421512117864,-3.7844950223102334
1.1480000000000001,7.285095670084123,-2.5230707577661864,1.808728302001894,0.1396157812701997,-1.0478044012494552,7.631758298045264,0.9621752982181011,-4.6542297754211965
1.1520000000000001,4.229346597664778,-5.099866625667541,-1.1546913689474847,-2.6405457608490543,-4.197743717527769,7.3715891735947565,-0.2079944113848633,-5.40468336422186
1.156,1.5853492268918221,-7.1211350395696495,-3.2186227335644393,-4.30366370381458,-5.941017150082523,7.283461312918269,0.3808646032698064,-5.923461602251692
1.16,0.1843905200699738,-8.265364660372828,-4.021190860897162,-4.404078690520558,-6.1378759015997835,7.569973862552834,2.7797989424350495,-6.1638251555346315
1.164,0.3450272181643319,-8.534121840812354,-3.5080205470146373,-3.181934707736823,-5.129649729364217,8.18657145646797,6.374115887636969,-6.176571274433897
1.168,1.7648962637358059,-8.208170718124535,-1.914196638714449,-1.3877731868480492,-3.4807932363511505,8.862412915273001,10.143654603684833,-6.062743746125573
1.172,3.6965536497939233,-7.669584707578286,0.33968479993186484,0.11864984871184259,-1.653099406672613,9.241281450872808,13.097986310476678,-5.85621196878305
1.176,5.335880554348339,-7.165546040241999,2.822551227148213,0.8021330493851133,0.20897687160986145,9.09149576979348,14.699619658920973,-5.428789291573466
1.18,6.196980541381539,-6.6586814170514,5.221731809778964,0.6763927884003884,2.24865078190758,8.432874951878894,15.049617813481563,-4.5194013955201315
1.184,6.282077462059455,-5.863265237865509,7.371746556425638,0.22409362943279199,4.656032647385496,7.527091831549474,14.735845086164032,-2.9178599947410886
1.188,5.961088141914087,-4.474576969166149,9.148101485267425,0.05638108591708946,7.356477882628287,6.726754484922493,14.42479476816318,-0.7130327935618843
1.192,5.657554317552303,-2.4562769116481697,10.32209664029946,0.5137638629658037,9.841094611357187,6.276688654229702,14.425142314615844,1.5603181866786198
1.196,5.564263484461011,-0.19421925663905437,10.545224719401274,1.4497317555656482,11.290388423608054,6.212663805906623,14.5013938714458,3.0055865551002396
1.2,5.5556622559062045,1.5926772383015797,9.487413371807213,2.2949221052579567,10.940444471527943,6.391652501976319,14.043650021883403,2.695832276171632
1.204,5.351437750074888,2.1797324957678836,7.0957100101762585,2.382184354181753,8.523560985590407,6.637527216386774,12.49846492419625,0.12441377370160867
1.208,4.783293337229049,1.2185951461475941,3.7739250898502927,1.321545788589404,4.509689603691751,6.870203572388053,9.784194622731333,-4.457003924247029
1.212,3.9703967116970156,-1.0395259379461563,0.32927893894637617,-0.7834007757820984,-0.012073587399224373,7.11884052883086,6.432112231095081,-10.020379736587328
1.216,3.301872765967551,-3.8003444239378594,-2.292030634607591,-3.363003172258927,-3.7549341374954954,7.4345000575055336,3.3710175926596913,-15.11617993398032
1.22,3.2144443328919374,-6.064818361633499,-3.4036820620047528,-5.6459979252789,-5.773288926204335,7.757387785021794,1.467743657831173,-18.4438836682728
1.224,3.9079723331228706,-7.071740717200331,-2.8839956190043923,-7.003243486767639,-5.840153506943178,7.867743408320935,1.1013660884520036,-19.35721720536931
1.228,5.172735516804085,-6.6301279363478605,-1.2405220467923375,-7.204885160230042,-4.480601215457931,7.469224305235041,2.00294935780369,-18.0453080149105
1.232,6.443458874914607,-5.162951007683676,0.6167004228425306,-6.468399909128564,-2.6575335885843945,6.374243232980037,3.4450935925107338,-15.322489898601333
1.236,7.080460649825036,-3.4332619360098455,1.82481822981436,-5.278511801051828,-1.2659960944991635,4.698951734633177,4.668455784237505,-12.18145123105213
1.24,6.701518725331449,-2.126998495452793,1.9711833316918765,-4.1185586783002375,-0.7261855865799838,2.9011823820582485,5.274714315176425,-9.36896594407468
1.244,5.375927929793952,-1.5191840693528844,1.2507949278469956,-3.2580384304760424,-0.8682616694671808,1.618664803713242,5.358125833194191,-7.200137261873051
1.248,3.5674114068327873,-1.40582013645328,0.2887251074270142,-2.7044748148563897,-1.1422508985751656,1.363308590953892,5.315427285694247,-5.647368659263361
1.252,1.871518907632355,-1.316260084531966,-0.2534840390463202,-2.3136066488629767,-0.9995791554058537,2.2356767671161792,5.488160957223735,-4.575970068102665
1.256,0.7247842848580515,-0.8455396919744409,-0.00945752091700447,-1.9350527113101617,-0.20142442062589483,3.851423141479887,5.907202288590406,-3.9312203737793627
1.26,0.25195657778819935,0.0978498196254165,0.9858084479563414,-1.4957368610482638,1.107887077278265,5.519781088577216,6.310163115673126,-3.7449039385939615
1.264,0.3166484190488985,1.2679090381767457,2.4516605403743514,-0.9770682220787297,2.574240148626343,6.5943319929310675,6.397748982569144,-3.985281110015635
1.268,0.6902712102252879,2.2585279162760266,4.098853945285292,-0.3541213852302807,3.8971157532270166,6.772810650610957,6.103306145609038,-4.40307900844263
1.272,1.1993080010663961,2.7472194473776375,5.753305869466023,0.4165534642245392,4.988090133572583,6.1720306304659065,5.655006389445226,-4.545667805485879
1.276,1.774846568017871,2.6678885909778165,7.329977906423444,1.350582977821135,5.949942899355241,5.178141269310672,5.398699534159911,-3.97740512227095
1.28,2.397359126305517,2.218432233712477,8.703556721249491,2.3585185799605197,6.919169371766245,4.172656528975908,5.511775461463621,-2.570390556826908
1.284,3.0205003804139547,1.7354001715887661,9.659687308636922,3.2323519965357312,7.93154139667929,3.3415468476198655,5.854166565399075,-0.6457455996663635
1.288,3.5452718932680414,1.513663936735167,9.986532414411407,3.7251005114628795,8.910625313049644,2.661735359135273,6.08114575622084,1.1767604843373336
1.292,3.8709135677032016,1.6726923152780762,9.661892463064303,3.690260376035255,9.776503042579339,2.0426241069202673,5.958009928844178,2.3521324032853768
1.296,3.9893918901051917,2.134639660658797,9.00766118323502,3.207170007845548,10.570296221303023,1.5027420170730101,5.64629879806917,2.7496384996051177
1.3,4.009736958728199,2.6672689304885613,8.598880605189034,2.5568650655156246,11.43224027195656,1.1974961395640509,5.681736073482235,2.701946042378839
1.304,4.060486322971054,2.9302831722893656,8.911055978569786,2.022570786481217,12.394515587867007,1.2575136632071657,6.57968940016816,2.6850197771821933
1.308,4.096898667773529,2.4842157409259435,9.84821938434268,1.5992231387829898,13.09395561220788,1.5219141928252504,8.254903514363082,2.810973552946767
1.312,3.7484936612183137,0.8022822566984598,10.479218107190285,0.81411832085239,12.640071838003468,1.3787330836211935,9.667889464166176,2.4825530551937454
1.316,2.389668270591311,-2.6097390227384887,9.313073466178945,-1.1303048122318398,9.870446788170113,-0.07338577920889566,9.069442072016338,0.5149496031618843
1.32,-0.5389954015411877,-7.961958520665914,5.06768117061997,-4.895587339301253,3.969621468191884,-3.5743142956404044,4.834407180609849,-4.239397706753766
1.324,-5.083717806102091,-14.863741688266668,-2.4024149701866016,-10.420796484637014,-4.815005778411978,-9.155536813322314,-3.487910486719295,-12.054376697466083
1.328,-10.475692731170158,-22.138868814867454,-11.592121457485206,-16.572721631526274,-14.798383266733804,-15.832283463360522,-14.518455700360583,-21.75799578312618
1.332,-15.208774955827698,-27.96487896390805,-19.655693281635436,-21.325208939291713,-23.16503074964114,-21.780566835253573,-25.266922083848037,-30.8381905813655
1.336,-17.51587428657251,-30.365577397499315,-23.47423363065753,-22.46277707208009,-26.928031578301745,-24.968181114377686,-32.22216739243762,-36.29473992948128
1.34,-16.076143457333583,-27.923747231192976,-21.03573796010057,-18.54245679358261,-24.17214889536559,-23.987276857201653,-32.83201963066952,-35.871109617187756
1.344,-10.622552351477989,-20.41557802192821,-12.423641693082114,-9.646674348425993,-14.982801182656456,-18.673924422100775,-26.629812158283674,-29.0704687483151
1.348,-2.1666035660438445,-9.06969226492382,0.09103572291718187,2.448298227350991,-1.579001815830444,-10.227059382650602,-15.443590303494592,-17.43474085744656
1.352,7.293182810254113,3.72047553287498,12.934628602582443,14.831322291402635,12.476465053431784,-0.7662132839157318,-2.5775570184353884,-3.9285784902994783
1.356,15.479997150036166,15.170556265162627,22.714804253756725,24.54281389716081,23.661222982750402,7.48573667075324,8.624558304362422,8.25644889710729
1.36,20.6437715989224,23.046168213423694,27.560402137057977,29.67801590498533,29.8235487513876,12.995436781457727,16.095765279341574,16.89045951406105
1.364,22.11907932012422,26.36996575690044,27.689242495574895,30.01179144079755,30.847850602190434,15.355836113081532,19.602079938346442,21.33976597162289
1.368,20.38850482902216,25.585689659364228,24.945061902150506,26.854329457506896,28.363642955716024,15.201093536954218,20.334796636275662,22.426838509151388
1.372,16.675027890184573,22.14265822137632,21.625611827485898,22.253211646562377,24.71589572006588,13.704564257075635,19.878603104978474,21.69351497611379
1.3760000000000001,12.334121542753994,17.75615453692885,19.310479715798266,18.005158100805563,21.787833145834988,11.972206442464241,19.22155723255622,20.518239550856862
1.3800000000000001,8.340099012244568,13.706387201048539,18.270805605774797,14.953867874352202,20.262445978760347,10.605237551254405,18.347008830294342,19.534444612597525
1.3840000000000001,5.090057456864911,10.489362898456855,17.707324763934395,12.891109901871923,19.637047597376874,9.61157639534024,16.55753512304155,18.56864851156411
1.3880000000000001,2.5301747125381597,7.908194833375932,16.53262648460313,11.014435469191026,18.84449988644503,8.610335784189907,13.218840488790512,17.015738406748635
1.3920000000000001,0.4519579131181781,5.474558379697076,14.170364362415715,8.616173909133453,17.048941680695897,7.168523759749222,8.410133444396484,14.359776424445297
1.3960000000000001,-1.223412502666594,2.8717131082900575,10.945362839973836,5.623909974769081,14.162486788572808,5.104033502642641,3.0756456281063946,10.527797912991428
1.4000000000000001,-2.349499837730762,0.2144175541675044,7.8591384460676945,2.6949437449490175,10.815758450011018,2.5979141890741864,-1.40473804090749,5.915550883949479
1.4040000000000001,-2.6699160706743283,-2.000625236655677,5.970100269696017,0.8591866530935823,7.893580065363194,0.12064018651232278,-3.9328615488352483,1.162559228205101
1.408,-2.0588472691876616,-3.1993794962159203,5.749411139702092,0.9247202961121463,5.9668902308807485,-1.7834149626414126,-4.2712816600736545,-3.128725902012002
1.412,-0.7140039993791698,-3.090460155903379,6.79219804773978,2.9920376578041883,4.980772204188747,-2.741974141313559,-3.14615960697732,-6.561964133336818
1.416,0.8587059345369965,-1.8522903099407957,8.066990552187328,6.35876349223105,4.3806626006241896,-2.6983560975755534,-1.8132773092787193,-8.959916988462371
1.42,2.061009080454504,-0.06240517230745812,8.497663723191193,9.829536587572386,3.539278143963369,-1.919758514055308,-1.3697012799109007,-10.294069212867356
1.424,2.5107504521062736,1.581142348990813,7.552168586096091,12.267400009682532,2.197749250312901,-0.8554733298887378,-2.1944392201675056,-10.618022202035359
1.428,2.2397335336766897,2.5671789829203115,5.480915569003209,13.06647018862559,0.6218784879675354,0.06318598117057839,-3.8296804504924085,-10.047744314568378
1.432,1.6485405827157011,2.740207786305194,3.0959524435442747,12.315199032620171,-0.6139667643247018,0.5896862842642459,-5.331489271869274,-8.776910869377113
1.436,1.252252445496309,2.2781512200902077,1.2962362499460385,10.629293932354063,-1.0367082368433884,0.7489883173774765,-5.833378781440308,-7.081921485984145
1.44,1.3326274000440068,1.5049043034205223,0.597156920786218,8.754900160044643,-0.6228985856849141,0.7732252532316504,-5.017521847518429,-5.284710697387149
1.444,1.7059385322828842,0.6727859744920996,0.9341728223180059,7.187906105942789,0.14654692302063843,0.9335873614362655,-3.245512863958938,-3.6731721176307026
1.448,1.7408572414420214,-0.1723025430225471,1.7686390058446815,5.9828046409267905,0.5376463640206746,1.3357426032250728,-1.324948390678589,-2.425696764958742
1.452,0.6481398112412895,-1.1837402987083223,2.387261016837096,4.81750665439244,-0.04404720296217146,1.7944492609815192,-0.0791451277115911,-1.5817674027979205
1.456,-2.073045277075062,-2.568957978225458,2.2560308788819823,3.262942923222338,-1.7422929691098865,1.9007989254905158,0.055655855565605705,-1.0754569255569848
1.46,-6.2679438619159935,-4.40167489168634,1.236627892823547,1.0811388477859638,-4.196444549737686,1.244866060690606,-0.7890217397087174,-0.7917307601973018
1.464,-11.043369710907303,-6.495616539881494,-0.3856873384274815,-1.5973027367005193,-6.7380901299850375,-0.2966716076004783,-2.0133308649340655,-0.6001534264693245
1.468,-15.069912498487009,-8.434954671463247,-2.07092546272451,-4.325334534954305,-8.713794551179806,-2.4045601392284004,-2.8750814028378304,-0.35420326811414604
1.472,-17.138437064379588,-9.74525079006688,-3.276790541991267,-6.57113862318241,-9.737896187893408,-4.407192268273715,-2.8737504199330353,0.11676254053491109
1.476,-16.69022154588651,-10.104251456726784,-3.6401915784981913,-7.972815238066056,-9.744096283248464,-5.571535957246741,-1.9901086941258797,0.9581794213757053
1.48,-14.067393381674167,-9.49531100765846,-3.061824237220241,-8.49040932046752,-8.86772620475126,-5.4835911765972645,-0.6901935779846822,2.1704371100467044
1.484,-10.332132487580427,-8.21093678479712,-1.6646945333385639,-8.356407751473505,-7.264317483984678,-4.279953435882888,0.3097753256630331,3.497743351232004
1.488,-6.764572775131568,-6.72451926140577,0.27509323311442957,-7.896178357201254,-5.023786865242504,-2.6057827471549997,0.3801007380295145,4.425693690747256
1.492,-4.303878651018165,-5.500693593248263,2.3757768871997036,-7.340182996575557,-2.2360603427719914,-1.3096177164685752,-0.743358414398805,4.3436484882037565
1.496,-3.187166112790641,-4.813762979561565,4.227526754700121,-6.7095768793261845,0.8764031445240459,-1.0036817574803192,-2.8426406805977935,2.831940229055263
1.5,-2.9599032219424015,-4.653737684046758,5.479653371976571,-5.84571340657598,3.875652396959144,-1.7441829024117708,-5.3163572421376015,-0.06112757884697695
1.504,-2.830882784182516,-4.762752642524297,5.938109622543131,-4.560381076739385,6.171209402600038,-3.0057378667494223,-7.446092619151034,-3.7200956093252286
1.508,-2.181548773756166,-4.79945153183855,5.60531850661066,-2.833995758909597,7.202943592584418,-3.9919552048248614,-8.72030130714948,-7.131728665582384
1.512,-0.9435698698043502,-4.545222308117723,4.640012216900124,-0.9438031355704752,6.657086641729071,-4.106900907926015,-9.055161008960877,-9.265060477604047
1.516,0.3769416567893229,-4.034779891460409,3.284972839127367,0.582462589077205,4.6081448829024,-3.2983177089836713,-8.782207428672018,-9.496267419763795
1.52,1.0137574398303195,-3.5565263218610017,1.7625405497465232,1.16269854016112,1.4920739707623565,-2.0996720621986578,-8.415890775944009,-7.869959019133875
1.524,0.4083308499626428,-3.515830668947889,0.20711742723216653,0.42089326561685136,-2.0642240875976015,-1.3291256445213515,-8.3292957979979,-5.057837548213941
1.528,-1.4524231930847966,-4.240444129148256,-1.3682268865925258,-1.6360642440138804,-5.4801363606824065,-1.6436884287922005,-8.538409930937105,-2.038138359339279
1.532,-4.014598092767929,-5.820605780028491,-3.0567843790260696,-4.613176799075422,-8.400493548826482,-3.2054530456323835,-8.730741789326457,0.33732892346453314
1.536,-6.4377232174936285,-8.041852459710018,-4.956719771664737,-7.868293894651018,-10.727257601210669,-5.612328179524151,-8.48964959755451,1.658974629787541
1.54,-8.01830684456524,-10.448253187776624,-7.062541159049333,-10.741267626936752,-12.529732238362097,-8.137400234442369,-7.600451668040099,2.0062732097172287
1.544,-8.512346419280915,-12.50160107075975,-9.193880711020764,-12.75617248109357,-13.899523062604121,-10.108346197773493,-6.242498143256858,1.742213732382325
1.548,-8.202983126560678,-13.78064799691486,-11.036213313934706,-13.729077297170596,-14.853033401253228,-11.212652371212556,-4.946454237327426,1.215281647876779
1.552,-7.705277075166072,-14.139008728906838,-12.283284603178869,-13.766829063852636,-15.33670462886956,-11.570855264820178,-4.33338050435341,0.554073727946859
1.556,-7.6056264064314725,-13.730806735941155,-12.761670460758536,-13.15083657307894,-15.294663162677097,-11.531149862545078,-4.751687398771388,-0.3410257166873052
1.56,-8.145924824294777,-12.906501956902042,-12.498665025630938,-12.188218332690708,-14.749104998535174,-11.357638515540726,-6.034890083048491,-1.6338577229117366
1.564,-9.111417535467254,-12.031651471886107,-11.676452389391313,-11.092182152418577,-13.822725123872296,-11.006593376458238,-7.521486237799969,-3.3486054641374485
1.568,-9.984197987452546,-11.335190130383193,-10.538727955122646,-9.954012625810105,-12.708795814149775,-10.152553865994381,-8.365263091969107,-5.272752464923631
1.572,-10.26713817564263,-10.860702012141395,-9.31697133725648,-8.80155312291798,-11.621934032385475,-8.45755737406385,-7.984430731824123,-7.040188148638075
1.576,-9.770724432815204,-10.516114881311381,-8.172652632114891,-7.673933844665811,-10.749469300366354,-5.884175911250275,-6.388835808151281,-8.350761014014603
1.58,-8.718406517168038,-10.189757315213791,-7.206901573231368,-6.679332684767399,-10.236571795011496,-2.868857928759302,-4.221050800423943,-9.180390125666134
1.584,-7.613080738523451,-9.84635318915825,-6.486378323687879,-5.984588580218159,-10.179207749674475,-0.20928941974160997,-2.463549713846755,-9.830185701040556
1.588,-6.96160706503651,-9.553651798618324,-6.080328531100129,-5.756375803375823,-10.61689628442883,1.2843040827515342,-1.9748170642339598,-10.75722610196825
1.592,-7.012686649260493,-9.428425168215897,-6.075745412168814,-6.0891018685862415,-11.51149818469581,1.1859413062144304,-3.0915610155613864,-12.267133224777528
1.596,-7.623327159131281,-9.518572666931188,-6.5120977140249225,-6.935095918116273,-12.704833780156934,-0.3008374051900642,-5.466931084753156,-14.260113441837891
1.6,-8.33325501314717,-9.70774507020849,-7.307833668043148,-8.089312751471645,-13.910784334747218,-2.4123102710184607,-8.21506015100672,-16.193384780489794
1.604,-8.590230177364502,-9.706574799902668,-8.2182863859477,-9.222955061510824,-14.764227415106191,-4.165739503969484,-10.279279877200395,-17.298651077200788
1.608,-8.028791288392968,-9.166200236019147,-8.903407772833308,-9.981481968804651,-14.94394781699526,-4.813413624213746,-10.86444284968395,-16.949544608887066
1.612,-6.675346172887154,-7.877049660785108,-9.095646080457923,-10.118560405088187,-14.322644336257662,-4.186688934520444,-9.751580229497076,-14.989789700913816
1.616,-4.950701597724846,-5.919276300003721,-8.727790446052587,-9.575604576220796,-13.03381149383432,-2.7222081385450725,-7.342272496458182,-11.8369779304241
1.62,-3.4754499779506034,-3.679394961954265,-7.9633549591915,-8.48595666055777,-11.41216009220905,-1.1797636098069617,-4.4417025324706785,-8.296806328629659
1.624,-2.772884899245989,-1.7108421247058043,-7.0836342046871215,-7.0962168592732775,-9.815028081016614,-0.19665594604284564,-1.8908677381598156,-5.182182942425365
1.6280000000000001,-3.036332306685832,-0.513722393359533,-6.322499808049866,-5.663805306372339,-8.432615899020071,0.054266795148341984,-0.23944707289965472,-2.9387104330483322
1.6320000000000001,-4.066352844969517,-0.33786118106865004,-5.752862246962838,-4.386822367122022,-7.198413423210869,-0.08526910298865964,0.4139669186384216,-1.4762988838653408
1.6360000000000001,-5.374704247969267,-1.0813095276210367,-5.250333666887848,-3.368310102268066,-5.841196586448898,0.0073006398031196795,0.3833602115667025,-0.303585830232433
1.6400000000000001,-6.394951482115478,-2.335102149881057,-4.580038477688069,-2.6250860070925253,-4.068248564539217,0.8358768994180554,0.19245965606393245,1.1072885593784152
1.6440000000000001,-6.678467461609913,-3.5388874796238015,-3.5331299141062873,-2.1086945000204684,-1.763722005236012,2.4727735274619063,0.330889713171711,2.9425658918716993
1.6480000000000001,-6.014406703362024,-4.187087525667512,-2.06286699274548,-1.735280822980621,0.9047059735400049,4.489768293222734,1.0478868747527397,4.871005152208225
1.6520000000000001,-4.43511391996798,-3.9912741461564214,-0.3341529470439841,-1.4000672992067154,3.5435744095133375,6.169081029881406,2.2675102639548177,6.185343457775531
1.6560000000000001,-2.1172566184093204,-2.9214600139533196,1.3896065223403116,-0.9582846610857634,5.743292671616432,6.8897691818503395,3.668444276919616,6.172401506713378
1.6600000000000001,0.704361618013405,-1.1595331658661996,2.8965046219525212,-0.23808989286709625,7.294362981428424,6.437479153381049,4.843191005454266,4.511547700850991
1.6640000000000001,3.7661195170983355,0.9987021646300857,4.1279163584005705,0.9105751021693349,8.285843310988497,5.085913374700146,5.467519623809512,1.4982520382561912
1.668,6.770547009308906,3.252261577467187,5.1981502065375835,2.5534176059894222,9.025010416030776,3.430448427020051,5.419753418547703,-2.045469682695021
1.672,9.356817061623994,5.3477960659605035,6.270848132168616,4.590946979442133,9.799918662907086,2.062982182652172,4.781579576336279,-5.109023619758144
1.676,11.117514235804896,7.089072525869419,7.382688509605554,6.721667450811575,10.63322504409131,1.291811843672294,3.7451044804173463,-6.901544592788579
1.68,11.706094505534537,8.340134044972734,8.357242591248598,8.496534040294673,11.195526958652348,1.0660431932427532,2.5012694322574527,-7.141938676445546
1.684,10.988840128450889,9.029287085747566,8.873657413026248,9.453252634207502,10.947215900679419,1.117065625877292,1.1799305573685404,-6.10201946654627
1.688,9.161740492385075,9.170846718555115,8.676454451049457,9.292306395280963,9.458288466173169,1.2052256129108914,-0.12255749762473123,-4.404251010052375
1.692,6.723622328918081,8.864114574142564,7.75874074914954,7.9941395275776985,6.718302997868346,1.2774380138734411,-1.286262585408533,-2.6861881874554863
1.696,4.291709086266061,8.258420055683859,6.408553651267699,5.829116319203488,3.2550505215894106,1.4451269301598386,-2.136675106085135,-1.3021562225936392
1.7,2.35333603426212,7.499534828548979,5.086718742885407,3.264755886027745,-0.025608561734884905,1.8154112421416944,-2.4620010571787607,-0.20569396869189127
1.704,1.0960825299906332,6.690519795381096,4.202167469315924,0.8198745304723423,-2.2103845282744574,2.3229992358945926,-2.0782981292135707,0.9621024951868775
1.708,0.40594216201497124,5.892080082865214,3.9203574623781323,-1.072752194114649,-2.7778675939677457,2.716507127923375,-0.9086154619137767,2.642498437920868
1.712,0.003356989496127838,5.139663619719725,4.073053717944672,-2.170038174388927,-1.8377263873156355,2.702885666686973,0.9471188114657119,5.1207108990577535
1.716,-0.36435438652685637,4.466627364603573,4.237711759776202,-2.453114643186395,-0.07604883816890151,2.1656369786583785,3.192984580310972,8.382232941352967
1.72,-0.7817387360334411,3.919041310770037,3.968128874126515,-2.0843742316115796,1.5715562129558833,1.2981399934464264,5.399819583710597,12.090794427205616
1.724,-1.1431188783156006,3.56003947755782,3.0687153467754382,-1.2979354316837581,2.371109943163745,0.5454266323694226,7.139668649228426,15.685322259249759
1.728,-1.2409532052235068,3.469879477460508,1.7842559093744703,-0.2606882772113086,2.1556205016159504,0.3728731361695248,8.13290428811808,18.546573591351272
1.732,-0.9250592331284961,3.7138470545614117,0.7478005246439063,0.998880962634964,1.395660168641407,0.96911965138716,8.318287879486395,20.179525476696877
1.736,-0.22405440295722023,4.298865322631331,0.7053703466316854,2.564244228297212,0.9513724985499343,2.0858486304478525,7.828760309364616,20.36452204576325
1.74,0.6583837168577635,5.147542954366334,2.156417209349956,4.524104725356814,1.6269321178859526,3.1332302795440015,6.899352425384635,19.21127114469966
1.744,1.4695224398003108,6.103113027875299,5.079737684943355,6.840401814101291,3.742416195306643,3.4898068036103522,5.756729727351322,17.099226842797293
1.748,2.0834674392178436,6.976014753425185,8.898250116715786,9.272509739119979,6.940140400135109,2.856266634225033,4.554363128787669,14.529320767886267
1.752,2.5967996582522934,7.601340024277713,12.664923244351971,11.398076557598102,10.306022668164655,1.420779673087289,3.3543771357288614,11.954417048365556
1.756,3.2938198154429728,7.904211422661739,15.405843796840916,12.763962803804692,12.755600953068129,-0.24773707452448046,2.1652432542579243,9.665186712535169
1.76,4.510374585956155,7.955892911609768,16.49950253071401,13.121177072166024,13.514978520679952,-1.5024568241803586,1.0280525253055925,7.777059399639836
1.764,6.454049966639807,7.984654644630618,15.923976813034376,12.615405568101012,12.469666838869173,-1.942091719598784,0.08810865546972302,6.310917176937222
1.768,9.073515992976269,8.324870723216222,14.27531562269624,11.816349423151435,10.224438392045373,-1.5589960359344355,-0.3809973693793669,5.307787301490405
1.772,12.007009619205098,9.26607684367893,12.48958434294427,11.493683794228273,7.817697179096075,-0.6718690013273014,-0.06007822459556589,4.898833192198833
1.776,14.635956564746806,10.855920344719252,11.398347769691787,12.22593879944462,6.226864134596988,0.29602723508650186,1.2514231601133046,5.269330135077647
1.78,16.247296247094244,12.77422877324157,11.336391607873441,14.042801494616466,5.905943795027586,1.04375514372609,3.475538509187346,6.51466540201345
1.784,16.267190349571212,14.371991464880375,11.987484875338758,16.317417383573577,6.575509116845561,1.4859576498668132,6.185638835113313,8.477298598787579
1.788,14.497337769950427,14.903111261745057,12.559485744391353,18.017525789990913,7.379572393715877,1.704565557151247,8.700211324274816,10.690682131466604
1.792,11.241576698864892,13.856328495964362,12.169077972508855,18.190933283874962,7.321895085874674,1.8116066045259895,10.299988064063857,12.508485688797228
1.796,7.259466638185896,11.240685890345116,10.26232892088644,16.45664074761835,5.778979699706845,1.8486479699420013,10.500199893951258,13.398454543731168
1.8,3.5333443374872116,7.666244002950489,6.884794222964654,13.231802336406144,2.8346626401103436,1.7928940266619053,9.260664941080368,13.235679956508692
1.804,0.9167624411351691,4.143944550604225,2.678107685342141,9.548411266819231,-0.7308800951759125,1.6359472403799797,7.019147151662885,12.408870545876693
1.808,-0.1805207274547933,1.6805064688353428,-1.3673424885298995,6.56042447433367,-3.777502813173456,1.4649057796774665,4.532446328423063,11.659436692183153
1.812,0.055128179151676004,0.8405424445166954,-4.324060950560679,4.979565757469372,-5.319851505799313,1.44094125574134,2.565235364322085,11.717702510335954
1.816,0.9501277720185479,1.5068466581493394,-5.693730777401303,4.760925477553982,-4.957297772046331,1.6876268986195657,1.571420830667592,12.922876921187743
1.82,1.6878910977022206,2.97237104679668,-5.546554129694261,5.213989408502197,-3.0100327324828258,2.1749042561859504,1.533141967297766,15.021831284332318
1.824,1.7249927015185973,4.318447701149689,-4.392720533736655,5.463275078884772,-0.3112095225026632,2.6994549295375867,2.030428421645553,17.25796595147489
1.828,1.0689588536073247,4.8901194663943475,-2.8685265037418883,4.986051507530175,2.2199550044939995,3.003353300136661,2.4913244783931514,18.699646912180402
1.832,0.23145837976647154,4.585758252420584,-1.4597805033385458,3.880865514988133,3.9636491331943557,2.9311500984584873,2.464219184455434,18.636560705325465
1.836,-0.11791719542151036,3.8140867360942905,-0.3828673931745392,2.720772599426286,4.761689761863027,2.5218050085624513,1.7817851163030562,16.843230049633696
1.84,0.4226896434767724,3.1774971491187527,0.3764179706472055,2.1202308452572654,4.820531380198792,1.9635611910724553,0.5656383930697526,13.592276813844624
1.844,1.7343525115063108,3.0839335930317855,0.9369331211751395,2.302456892843271,4.458298280170936,1.4345953248112666,-0.9020900259774232,9.455759483633472
1.848,3.252763265142611,3.520020346753393,1.4232582687136008,2.949309308326222,3.876648874731335,0.9534704910976923,-2.3206451077783354,5.043642793959856
1.852,4.3092888139101895,4.087610438135893,1.9025560865536857,3.4049771512045663,3.082469698037394,0.33577148574078364,-3.4653122497061855,0.8422837931906786
1.856,4.5306626705850945,4.264530784672795,2.37415664218706,3.101731153946825,1.9902882118612801,-0.6806131509265911,-4.196837829384554,-2.7837712011624047
1.86,4.050943327593051,3.7200365472720547,2.78484793674866,1.9223894960943397,0.591116308006618,-2.216714806841999,-4.418599316944173,-5.508511075548537
1.864,3.3963552554342673,2.481915624790238,3.018901277433006,0.25649828516941486,-0.9607240299504642,-4.096392854967441,-4.06062345512987,-7.0164012959904
1.868,3.1224628771186227,0.8735372998384303,2.8884454956168018,-1.2735191306602536,-2.412223478870529,-5.866222324026166,-3.1167260147272025,-7.101349324428977
1.872,3.4194300608820107,-0.7289957176845334,2.121110212984415,-2.2515951315589975,-3.6073704117115897,-7.026454475751629,-1.7364158759577695,-5.833292475590293
1.8760000000000001,3.9408490296121323,-2.1434991704298216,0.3994421350703954,-2.7765972505665735,-4.6707981735051085,-7.326581055863379,-0.28308122969685456,-3.664484269255398
1.8800000000000001,3.9891119401184847,-3.4536111427126555,-2.4986486554924685,-3.4203531247672796,-6.013037926001591,-6.933452517298661,0.7386816690286233,-1.3495253787824917
1.8840000000000001,2.9520033962287515,-4.863728060394869,-6.5111643582000704,-4.857733849698446,-8.109575816519701,-6.361997435894425,0.8825817340338857,0.3402456101387401
1.8880000000000001,0.7349080829818857,-6.4316522965071865,-11.146443556105897,-7.385986634654879,-11.149082360994978,-6.177777491126786,0.004574731762883921,0.980099204119196
1.8920000000000001,-2.1031666024762266,-7.894996694595588,-15.541910790626556,-10.657954292571658,-14.775873079259714,-6.680157748731619,-1.614856571452814,0.7239429496596408
1.8960000000000001,-4.590877893611671,-8.722152617572815,-18.733999484972756,-13.793619839812912,-18.09597479286829,-7.742318294812594,-3.361112483507811,0.2586903842909323
1.9000000000000001,-5.815885767499539,-8.362193460168802,-20.00571227123591,-15.792951138881635,-19.97742569675005,-8.89455448814328,-4.5545564868751995,0.46716777129188314
1.9040000000000001,-5.35464099415984,-6.550903850356919,-19.149365384242785,-16.00782373459119,-19.520321553259507,-9.594368925886009,-4.75338951502031,1.9639083663791213
1.9080000000000001,-3.41517224878415,-3.4789790437702326,-16.499921377089557,-14.398465015790427,-16.45800307943658,-9.500189832252119,-3.923503115893518,4.7434600877607815
1.9120000000000001,-0.6612340082437873,0.2636314339270369,-12.75921093976085,-11.481199662466196,-11.30359455600265,-8.613518960958245,-2.407475293361134,8.13650630078147
1.9160000000000001,2.145425483575888,3.927662941356491,-8.708298223947429,-8.040881820438035,-5.182662620857183,-7.228955403119886,-0.7275761494341955,11.087249156606577
1.92,4.483549020494284,6.900610974443941,-4.9446179979616,-4.792168737504022,0.5628041862758506,-5.749717763374257,0.6620831550476975,12.592081486104686
1.924,6.204188908597487,8.894053275248055,-1.7720386083003943,-2.1769850378297044,4.808529730061132,-4.50565859383923,1.5298850543857254,12.081965928181184
1.928,7.444954702445768,9.951152117946368,0.7546402320907051,-0.34265782135716183,6.947502410990166,-3.6669659534233516,1.8767249376382584,9.57889490174384
1.932,8.41705122722586,10.299355954938134,2.6665470396434308,0.7454177445029033,6.9568391392891,-3.282424594211639,1.8314523838514698,5.617649278467218
1.936,9.238998412600116,10.177487612542972,3.9459517838796145,1.2024618121084498,5.281687983413707,-3.3469295383607696,1.5414947072247622,1.0418984407594976
1.94,9.928890842786847,9.764230204952145,4.536222728326658,1.2224077487348035,2.650968963947647,-3.801004638785633,1.1630135174951244,-3.210864543340492
1.944,10.510285679906413,9.219946734549378,4.465508975397556,1.1237143905883318,-0.10194905530472553,-4.466741234831639,0.9315025017620275,-6.27696715630889
1.948,11.107851151304661,8.759820103385046,3.9750836579888764,1.3359093584596542,-2.1940374408646384,-4.999305716478295,1.2024033121721578,-7.509126553973074
1.952,11.886142515049862,8.62156826948015,3.468061878105847,2.2121043029177216,-3.0756894912354524,-4.983680844641588,2.3243199530489855,-6.65040743103331
1.956,12.832966603454024,8.888012783379521,3.2535185862599625,3.7214073703712582,-2.64418040111004,-4.193592300801687,4.335156612221571,-4.03004803107199
1.96,13.546946556298252,9.26989936252011,3.226701274373654,5.22756553606518,-1.4083525511492008,-2.8841180502809363,6.651638121697955,-0.6773995981046532
1.964,13.219243896488887,9.023665293204454,2.7020952397292106,5.562072108644784,-0.46665177458776963,-1.9004316441279965,7.9972508496054795,1.8036057435245745
1.968,10.918136682172966,7.159949193681516,0.6046014547778693,3.471058552123969,-1.1880864261385877,-2.429926807095998,6.75442494251543,1.6899712552483432
1.972,6.076538264336669,2.914576372453294,-4.011714804764107,-1.7332814616769845,-4.643271036548984,-5.4510223241552955,1.6877201286918764,-2.1546258040332225
1.976,-1.050792816103383,-3.716359531409837,-11.32534923987824,-9.639968473419245,-10.987600507510425,-11.123148163216705,-7.275189148407294,-9.610114046576697
1.98,-9.231196093663627,-11.668453496948048,-20.319985785826056,-18.64017734884312,-19.11162514705807,-18.45477831604926,-18.61448964492321,-19.043031146184276
1.984,-16.553313067342007,-18.960639481855477,-28.863473674002535,-26.38271452738089,-26.807407529280297,-25.496765196763363,-29.46621095420814,-27.69453945107566
1.988,-21.081302904006595,-23.320238878988327,-34.340245109542565,-30.61185560325699,-31.45855003913693,-30.032589082383595,-36.543066303130985,-32.640838233165624
1.992,-21.608801717209296,-23.066118563803407,-34.65269308452088,-30.032494682331624,-31.0271998750818,-30.484127179835653,-37.397909866956034,-31.9430215911472
1.996,-18.155886184881652,-17.8474344812907,-29.132713631614106,-24.785514306675566,-24.895331563471366,-26.58394810587505,-31.454785773575907,-25.462458230261575
2.0,-11.96265204920321,-8.872492167324177,-18.9048670622155,-16.31531410810594,-14.160840155120628,-19.47510401970375,-20.297810033763763,-14.95786113567857
2.004,-4.969048990951381,1.5071296544968875,-6.503211330799198,-6.716183260738085,-1.2348814678414808,-11.184275998569037,-7.053801974293654,-3.393332331196853
2.008,0.9780396507539524,10.68636782209724,5.1134083212966575,2.1053056228639386,11.083451971224031,-3.7398893157227144,4.857909768424911,6.224472025960938
2.012,4.793926483098764,16.745111524729335,13.650616114306114,9.022674731575036,20.5930973625508,1.5950546999345336,13.002324362676818,11.941293635108686
2.016,6.414498899054573,19.02082449396572,18.177997557625265,13.799136661901988,26.28686078868242,4.624734334482913,16.65787556994186,13.408006834304203
2.02,6.580187737881565,18.107041720978607,19.16858577781025,16.76382881759473,28.342329224081624,5.972869668282044,16.723641185577645,11.692164360535045
2.024,6.300847450335723,15.34517982498484,17.930229424990248,18.317332193763786,27.613861776945463,6.498808104842159,14.943876932886312,8.532087906285769
2.028,6.312581259462767,12.127298359479948,15.809159080221276,18.595953558705588,24.987438090600406,6.74827999044933,12.926562354652287,5.457462964961103
2.032,6.781736252181057,9.352299261379724,13.57201304367305,17.45709991162072,20.968407914157535,6.728431015435791,11.451836680259461,3.2150441026061714
2.036,7.361956210671415,7.260982624384733,11.259476399577466,14.748694616481195,15.702870262597465,6.096434649518468,10.37058675307507,1.7291073564749837
2.04,7.52397631773123,5.652716356403336,8.51283811107498,10.646937449408016,9.335250877030042,4.5770239323419615,9.051041612600839,0.49455702803899726
2.044,6.930696441007734,4.266882526385984,5.077978224215964,5.806171141373002,2.3857150017836677,2.3040934683146626,7.011826545310907,-0.904276250170982
2.048,5.6364380270282695,3.068167192382814,1.1539025456028578,1.2080304771499055,-4.149458690635911,-0.1254213708579317,4.342879774360757,-2.470672104817504
2.052,4.015002144178067,2.2671468629235907,-2.6473301363821324,-2.2236798776745568,-9.090246965290184,-1.9264158913784293,1.6824707785884092,-3.80969116539697
2.056,2.5026653511177965,2.1149028288576996,-5.6589669830385105,-4.012383043740284,-11.585885767787047,-2.5442067754452626,-0.18497010546757942,-4.407259824780635
2.06,1.3418154276436098,2.6535309760376897,-7.559359712187025,-4.2946214339615185,-11.52750409652564,-1.9567635756779724,-0.8085501090278937,-3.9699223923605604
2.064,0.4880138216882557,3.617789111454006,-8.526378493010174,-3.6790781177159477,-9.58582685415351,-0.6837837266001561,-0.3115998955146413,-2.599196694591501
2.068,-0.2700611691921324,4.568553506741926,-9.024404467980698,-2.8798920290699215,-6.826725604479757,0.5046523734562278,0.7503758843932555,-0.7153009725315771
2.072,-1.0948556205514066,5.162727645417777,-9.399291553431578,-2.351954738217234,-4.134237800848553,0.987012226002923,1.787591364054343,1.2002122888037308
2.076,-1.949325083038664,5.3747012037211315,-9.566379049757286,-2.131745034686257,-1.7815957359579668,0.5807646038651981,2.549903091575729,2.871594187218842
2.08,-2.6084493764090713,5.516339230019705,-9.01716988674829,-1.93616839152424,0.5973228636506782,-0.41717037568991167,3.236213294047545,4.338921339864372
2.084,-2.8277137836023165,6.027601286593396,-7.16735430287345,-1.4140931896762838,3.624385078970918,-1.434914833034484,4.27575275305492,5.86440004999172
2.088,-2.532875461081069,7.174959616519152,-3.808724754240524,-0.3653934304470541,7.633234642600149,-1.9217657746966226,5.948423259959714,7.708700511713904
2.092,-1.9088810325550396,8.825306002243824,0.5950940213777876,1.176344647521164,12.283828973317847,-1.5969343817299482,8.077288947364858,9.914254642451532
2.096,-1.3209169969031507,10.43354043505034,4.984781773861907,3.013825085604371,16.576575383759092,-0.5422870665217241,9.99658230438565,12.208895888210288
2.1,-1.1104453699075365,11.267765177736072,8.147272785837378,4.920721597075133,19.2654900600491,0.8716565885476482,10.850377103121104,14.067457157857877
2.104,-1.3944036392676307,10.749616389202666,9.269894428740288,6.712643044098325,19.435435928453906,2.149879585086469,10.044500538501765,14.888781178244441
2.108,-1.9906472495206624,8.735717816065478,8.308665289387674,8.217927088572957,16.932345570682255,2.852794346623806,7.591122911701523,14.205466217245204
2.112,-2.5315515859668434,5.586409754241035,5.945141958340824,9.187894406811505,12.418522800120115,2.7181294105276463,4.15425426671756,11.86479718417279
2.116,-2.689425895647524,2.0094249102452366,3.187723349025341,9.266825848330235,7.05782626643059,1.715815635708294,0.7723212720723298,8.13411785834887
2.12,-2.3512508782620207,-1.2029959518966349,0.8846397174541711,8.125277060657792,2.040744664682137,0.056148881824593544,-1.5722379030742264,3.692963542412073
2.124,-1.6486469969358248,-3.4159455263370337,-0.5887280249164002,5.704631613902433,-1.8048391509364619,-1.854012823356091,-2.3171861296482485,-0.5042831115526614
2.128,-0.8434307930903597,-4.284648160192207,-1.317388873298933,2.417540102484616,-4.156495328949845,-3.5091406076780665,-1.453934319299433,-3.4931021738980883
2.132,-0.17250010843788033,-3.7782643600724,-1.6143381802075467,-0.8768624283628661,-5.106546320483233,-4.465399004455481,0.5740498062543944,-4.624105264652923
2.136,0.23442850793585013,-2.140328374140084,-1.7609394355193055,-3.181542256698017,-4.964535889977251,-4.513136449486188,3.102472968582078,-3.8280392887053285
2.14,0.32625967647365295,0.1719384203459997,-1.887893780923969,-3.8236584835148366,-4.101901491285257,-3.788931808584131,5.463258201493904,-1.6991402651462857
2.144,0.04017443623775652,2.557738381018221,-2.0439621119782547,-2.819050223539991,-2.899057326250042,-2.7512116999117975,7.10992704350895,0.6912401545689765
2.148,-0.725221135488443,4.39030651928771,-2.311469654235403,-0.8911540680034014,-1.7368050302024387,-1.9811347354202842,7.672250830370567,2.216984754995859
2.152,-2.0275144840466366,5.184309547306212,-2.841954320214076,0.8921213630421807,-0.9605654451171284,-1.9044665489442822,6.985722834353175,2.197455092070849
2.156,-3.733435168213891,4.771057034769079,-3.751513193705387,1.6820504011392963,-0.7796397278744449,-2.5727549259842526,5.13553651984029,0.7283448619345683
2.16,-5.426038159963853,3.3984705564667212,-4.944645120267587,1.2972176943273825,-1.1490349459654907,-3.631974524189813,2.5034544653396025,-1.3524690245315025
2.164,-6.500608835572647,1.662886767000323,-6.041222678647323,0.281582289118848,-1.7487338164274988,-4.51450833203886,-0.2634590219168629,-2.878527247090015
2.168,-6.451958044355541,0.26809264497444296,-6.515062013750005,-0.46742899273056293,-2.128722325483939,-4.757168738503307,-2.4130644568751665,-2.970168656868439
2.172,-5.224976554920163,-0.30495184832103317,-6.033484234196281,-0.2959799890539041,-1.9857934566437927,-4.285538576178594,-3.3729730802210875,-1.5210289516298268
2.176,-3.400336626612418,-0.048574179294022635,-4.775321498580458,0.7525211021453968,-1.406935754825787,-3.481493447543813,-3.0399418728393957,0.7144769470953078
2.18,-2.037509548835657,0.5474695436462027,-3.4782480080542992,1.9180679509669272,-0.9048972929913166,-2.9798037226546565,-1.887032006193919,2.4902623386579754
2.184,-2.199478014705059,0.7320127905212308,-3.1254988163574,2.1572188020547443,-1.1836194089741925,-3.3074640038994843,-0.7925673769984121,2.7135118358835895
2.188,-4.3777138793843005,-0.11684555810724184,-4.386108629989293,0.7904110039334449,-2.7213967809303727,-4.555675922678593,-0.6282154368670156,1.0126681283769183
2.192,-8.14819948891651,-2.1649731954361675,-7.1542617911092785,-2.038304723450593,-5.417121848928767,-6.2968430358574725,-1.8074536143875837,-2.07838979796377
2.196,-12.287017543238402,-5.036664578068222,-10.486056891806847,-5.374985278956386,-8.528435194631674,-7.79676598612228,-4.042467375777883,-5.420218272683522
2.2,-15.30799923549677,-8.002094927691704,-13.01260094703425,-7.930504596304876,-10.965916233546821,-8.396665509991152,-6.447349877162672,-7.881869122509769
2.204,-16.15693649801412,-10.329942560650169,-13.637969336051562,-8.745392978431255,-11.814553321992433,-7.857341747971947,-7.962369022803552,-8.916712758900822
2.208,-14.685009486483136,-11.59504825394193,-12.111638504047358,-7.651438958415449,-10.796340095135893,-6.458626378393978,-7.8847768364130255,-8.789547079460815
2.212,-11.663036273300353,-11.787465803871283,-9.169035510088875,-5.2890911855931435,-8.422885979725086,-4.816330818665423,-6.236951876765645,-8.338234876138689
2.216,-8.339152973718178,-11.191217511638378,-6.149214277274062,-2.6973484506140615,-5.744708733567092,-3.5256729728263876,-3.78092062368379,-8.428037717033403
2.22,-5.800596519167711,-10.139997120990792,-4.3017427929628465,-0.7408395727911516,-3.8388213205906103,-2.842923703494554,-1.663522688189297,-9.43529932169645
2.224,-4.509500127010649,-8.82843857991512,-4.191385633424483,0.27123537461522584,-3.321233351783457,-2.5895141099265446,-0.8764150113204161,-11.052853645033602
2.228,-4.246691747203581,-7.295504011828784,-5.5220287663000045,0.5812435495694093,-4.144039676018138,-2.311085486835122,-1.8117076571356985,-12.513876915025882
2.232,-4.45624672423799,-5.582088644267769,-7.467524628328941,0.6383202423795042,-5.769733383883672,-1.592829292063954,-4.129488523464355,-13.068902852368417
2.236,-4.732016322241705,-3.9216583203592243,-9.258963385087393,0.6791706042184877,-7.577481969009181,-0.3303876808587707,-6.973529980015224,-12.412328866127385
2.24,-5.107137378184771,-2.7851726777814987,-10.629876509350137,0.5438746682957396,-9.21928944278549,1.2095491363623663,-9.389364703215925,-10.802566140798524
2.244,-5.9811926316254445,-2.7157888991858643,-11.861800893196806,-0.16796389191541117,-10.720190422823416,2.5616275222455567,-10.716140509445822,-8.82204652353495
2.248,-7.739548514071561,-4.0132075406008845,-13.404441537332907,-1.7201306557942302,-12.277972487642845,3.3533740594180923,-10.759098255219968,-6.9605521986294825
2.2520000000000002,-10.348813990847935,-6.467389945007534,-15.379904211674774,-3.9266600086283123,-13.932558074079491,3.5117374353085413,-9.721798274937472,-5.301362660444337
2.2560000000000002,-13.2120509496872,-9.326784556348496,-17.32219777883535,-6.137873221767424,-15.348600762293433,3.278475617586019,-7.990738551008024,-3.506598398056459
2.2600000000000002,-15.394374494767384,-11.555440614545265,-18.345189763301452,-7.557184183296549,-15.885474098701014,3.03701808605889,-5.924322563849665,-1.1186649645340232
2.2640000000000002,-16.10067786467237,-12.278720410799849,-17.663291561549336,-7.697620115414984,-14.93505895043107,3.0708718480937325,-3.7595824119122234,2.025518773449198
2.2680000000000002,-15.101721132611612,-11.182171929912673,-15.1112499452718,-6.675238194583878,-12.31441173966329,3.422901282273207,-1.6373490651999534,5.541865287404994
2.2720000000000002,-12.852460537723537,-8.65375819042496,-11.336991117545226,-5.152885370132023,-8.469503835274464,3.922925052302802,0.31294019249454497,8.5926168567636
2.2760000000000002,-10.231357522518374,-5.591844023479849,-7.516607386801429,-3.951274856010549,-4.342816537709714,4.34483844627018,1.9292973249940282,10.289703762529296
2.2800000000000002,-8.048757733648284,-2.9643651285264143,-4.725333134051047,-3.551022448376582,-0.9486641513973506,4.574029875943355,3.070326899793459,10.179128519378665
2.2840000000000003,-6.62013047404459,-1.3608779977774206,-3.3546122600916974,-3.799233904618312,1.1041709724254867,4.657066278592538,3.7080082582008798,8.523429530420906
2.2880000000000003,-5.642735014082094,-0.7577284433310032,-2.9106703635632245,-3.9963202079641347,1.8778797011744661,4.7113426861890915,3.9807190045308127,6.202871386427064
2.2920000000000003,-4.4454765514666486,-0.6144583749394168,-2.3459607704091665,-3.3229389596118666,2.0051152770113587,4.763896617087688,4.138061529032655,4.293714691249583
2.2960000000000003,-2.4425701635165202,-0.23373290382449508,-0.7333582968634764,-1.3530038830502753,2.2822051159733556,4.656834736100905,4.391143945202359,3.550782581348273
2.3000000000000003,0.49163860252344915,0.8253036868131027,2.1275957696365837,1.6518514354164324,3.1931443128519175,4.1197643543472795,4.771796655002003,4.0729517176935826
2.3040000000000003,3.9423466051455547,2.5014791161809766,5.525312704832704,4.835125500330656,4.635548987258952,2.980221593802754,5.096848136597891,5.332092476065574
2.308,7.201583231768849,4.280885140946856,8.19994489445155,7.175790097907601,5.99142785399878,1.3821629486106546,5.083988965834936,6.518670204571203
2.312,9.66108579331564,5.482504317888738,9.030355791576977,7.996661931535917,6.481073769739121,-0.16384546694357605,4.546684810214634,6.9994915075823165
2.316,11.106178997262184,5.609059981371675,7.650862258964504,7.270577599647064,5.591579359908974,-0.9645879699571664,3.546403896744973,6.631574053440566
2.32,11.74985866168895,4.573455210772856,4.647764365767786,5.570329398668095,3.344610114784352,-0.4889646666414027,2.390952985175458,5.761598210241663
2.324,11.999454684008512,2.680944918706337,1.2195538087369164,3.7045265733032116,0.26518378070601223,1.3080587909831047,1.4622248427437867,4.942781933284824
2.328,12.1413711472924,0.41859253196806634,-1.465611066752671,2.280913449873861,-2.888752728998682,3.892878729644293,0.9867790195226949,4.5654713115156325
2.332,12.145904188691823,-1.8068116419688054,-2.8648162687031813,1.42797458846134,-5.472352734688337,6.362084313777828,0.8874518284326403,4.630234134389255
2.336,11.716349909348672,-3.8206204216268556,-3.266878875567065,0.8183357451029245,-7.177365565526546,7.862212635477498,0.8277740055648652,4.79237137172156
2.34,10.551891763143708,-5.637922116136777,-3.5091851669134035,-0.04077611958129479,-8.03104943062903,7.9975329619255024,0.4314934366688674,4.630562010891717
2.344,8.62991196181421,-7.288280806859265,-4.395724742301424,-1.451460783059733,-8.21655687663236,7.001946041072603,-0.458848221903175,3.9656046558451647
2.348,6.326934163929204,-8.64278316551906,-6.142636087808526,-3.3046858045612852,-7.85311708656983,5.585574340973057,-1.6354666349567784,3.0090239854565097
2.352,4.280126673266464,-9.393086487309667,-8.200560780562128,-5.127807705330298,-6.896159224225826,4.528745325547458,-2.6132807108508493,2.23827187345233
2.356,3.0660891360215405,-9.214440061628734,-9.533176326973482,-6.354998649596888,-5.206124817848616,4.2580776456741525,-2.9041069391623915,2.080911255229163
2.36,2.8994497582201153,-8.016779722754173,-9.177427107510319,-6.644794549783798,-2.727870557338128,4.644246165864805,-2.307181590283765,2.5998765066855696
2.364,3.5321102847228953,-6.11811610788637,-6.779870920248947,-6.06290590130297,0.3414372238630403,5.123759113482233,-1.0434089467357734,3.3843256751660546
2.368,4.443364127775095,-4.176656806747127,-2.784158401942998,-5.004674248918817,3.5360541366818348,5.084259503613536,0.372138250401818,3.739875913366339
2.372,5.175813913962051,-2.9069689192918178,1.7783702599750937,-3.935862157699286,6.260712285403704,4.267236582825412,1.4214710978761396,3.0773813645952037
2.376,5.610147452957797,-2.7239380700532143,5.763916157922324,-3.1133130477748017,8.011360257681792,2.958211596220224,1.8606928689447837,1.2731679318876563
2.38,6.013920401694944,-3.507528832527866,8.403243356085213,-2.4477650907029327,8.566148500075485,1.8602197028228118,1.8120580133299735,-1.2156608549666696
2.384,6.819058187350484,-4.651866366980261,9.534571166352737,-1.6018140862192034,8.042145769820912,1.717674530170769,1.6094890952196848,-3.560055360898982
2.388,8.284626551440722,-5.379352569022467,9.524071640001713,-0.24549065635145428,6.807289766832725,2.909312079179207,1.5117080524698105,-4.986191663848705
2.392,10.246654703680552,-5.161312552492514,8.94511469720249,1.6786521721659855,5.299187435320715,5.228342055933862,1.476130086236286,-5.172423232274375
2.396,12.116032547925407,-4.006397383846226,8.226592519073932,3.845092739175035,3.845259047276568,7.975539840305112,1.1603040903064266,-4.387714025870908
2.4,13.146185359165962,-2.449909250103947,7.472639264253358,5.663353517926844,2.5653768584090524,10.298798767360697,0.17124959015451857,-3.299677902332414
2.404,12.806842105288933,-1.2635760940857805,6.501435237462108,6.553360973021779,1.370150246796874,11.575538700713903,-1.6043783964955454,-2.5622700727065446
2.408,11.050605241395143,-1.0529808985552913,5.049810890572959,6.223939760232562,0.03580907240837217,11.646888476743085,-3.814953906803326,-2.446101597985281
2.412,8.314420864888946,-1.9769281936920073,2.978271384415965,4.784174632846689,-1.692279316369494,10.786583175986253,-5.755206517311162,-2.725542640110766
2.416,5.27580211446946,-3.7267765391670924,0.3716151636861422,2.6480658310539353,-3.98303204963851,9.467134757203752,-6.728903764054527,-2.8727337472551397
2.42,2.529303745580494,-5.744274027697001,-2.4806567894571723,0.3089632245510834,-6.804589333688277,8.082925801944652,-6.448454824656454,-2.4316114314813673
2.424,0.3701549363722556,-7.532809791073367,-5.188988889893093,-1.8823092330808477,-9.846813812542592,6.78616136109246,-5.230056210745793,-1.3307775308730077
2.428,-1.1896709276039652,-8.855303272897526,-7.355533983730112,-3.7909563794747427,-12.509624784519307,5.523811935869395,-3.8346929766403237,0.05763557224226723
2.432,-2.2292049736212918,-9.724709404652913,-8.629038388214136,-5.41265038344452,-14.003977229575927,4.210538609976693,-3.027224327589066,1.1566861770602705
2.436,-2.718251398819298,-10.241404503738876,-8.734071790027127,-6.71584220439297,-13.57827854943967,2.900501854085819,-3.119767439389683,1.565903101484139
2.44,-2.4707447526614112,-10.413337405358746,-7.5071763478014315,-7.539994409803266,-10.815858627046023,1.8322941622526958,-3.7707317542075414,1.3365211175496179
2.444,-1.306999893172832,-10.111918048350978,-4.982146719029957,-7.646282564874795,-5.8881685365409915,1.3077768038405537,-4.180779190431425,0.9582465460326999
2.448,0.7093644860443087,-9.182439343533794,-1.454570730736509,-6.874038869492824,0.38896028462219423,1.4996514975878217,-3.570901561421115,1.052154592835044
2.452,3.142884445628616,-7.626182208689674,2.521479123088338,-5.2966242850809895,6.76019169065287,2.3147048369710523,-1.6698967672456857,1.9598889236951715
2.456,5.290480298044157,-5.717511100889024,6.2514880101274874,-3.25325890360239,11.944549081712161,3.4165685119124,1.0801044675829337,3.48052868971808
2.46,6.504452956596738,-3.9495360254169727,9.119755278913598,-1.2159143608901335,15.083343625844472,4.402715133259182,3.731560793493837,4.920250593227228
2.464,6.545350619923096,-2.8324045975520886,10.798090526113484,0.43403720534860746,16.013726280254506,5.029392756242876,5.322417361883101,5.4466370900022785
2.468,5.743593922732989,-2.657861387749395,11.350997386798246,1.5855419417785068,15.242212991514819,5.34280828836645,5.372354225850559,4.5478367246981755
2.472,4.830086121281801,-3.382949394453477,11.145432228040749,2.3897558373165406,13.618024624688237,5.611941154632047,4.091285377294816,2.335685822855144
2.476,4.517163124814132,-4.690167190768307,10.61518683624584,3.070309924365024,11.892050013363676,6.117197253061672,2.1946988258354785,-0.4679493874011729
2.48,5.080687479691763,-6.163294711429615,10.021924649727088,3.687668404744443,10.397179626733266,6.929929162682402,0.4649312096652356,-2.8515412163287452
2.484,6.191185215966668,-7.4619880374403325,9.334178427408544,4.017639993111677,8.999446553545384,7.821154158189326,-0.668184756945859,-3.962205644658816
2.488,7.122539064999245,-8.380797994391985,8.313982619944138,3.6622812994965437,7.333668618645258,8.38429143716251,-1.2737877410148206,-3.4489985986787857
2.492,7.2015539583980495,-8.805458620593454,6.72677873335402,2.3298484447107404,5.14674671454887,8.287299687427028,-1.734471302844371,-1.5397012947691615
2.496,6.223890307462296,-8.646377148294462,4.546901367706707,0.11232316547916765,2.5341880854653898,7.503905599896194,-2.3841118512854527,1.1437617302717427
2.5,4.591969864954931,-7.832002159948252,2.0348095542900557,-2.4251982745856093,-0.06426603010963561,6.377133570373367,-3.2171993440219033,3.897822836108356
2.504,3.0758084157241816,-6.3993185025019,-0.37593522375198773,-4.445057530751298,-2.1010774382407087,5.449292459519146,-3.869918513580829,6.201174405733191
2.508,2.3634026552773273,-4.5930475988535795,-2.276844766112336,-5.227501618937534,-3.216398082063825,5.1640352992256835,-3.8634119055130447,7.809934024216783
2.512,2.6737557815726336,-2.8636534638232476,-3.4518861485387804,-4.544214800177759,-3.4014040855360284,5.602830784347676,-2.949162470165052,8.694880188958198
2.516,3.6679456964722146,-1.706305138465025,-3.903970912846514,-2.7903868417299247,-2.9269331966206393,6.422480971067097,-1.3139082249792682,8.910163860749924
2.52,4.70856271985905,-1.3919030030972956,-3.727366440293018,-0.7906176574203947,-2.097883712711102,7.037532700991644,0.4963202072837909,8.498787951924065
2.524,5.279720398571707,-1.765394142977522,-2.950898664599646,0.612773278800117,-1.0162971070185778,6.938293570544071,1.8868459968649536,7.498343985001306
2.528,5.301092619111062,-2.2567090621605406,-1.4559026165538524,0.9831012853398953,0.49017052045156806,5.97738015702002,2.565839626836765,6.009245112764121
2.532,5.128328921363455,-2.1565441880149447,0.9318325964382499,0.48209750138188756,2.7013748767965824,4.4451674767215135,2.7026113472090088,4.248714582372647
2.536,5.258996428068308,-1.0234549519830765,4.228696660296734,-0.25832484610187567,5.706200142195685,2.905242356124435,2.7886710923216187,2.5295275481110755
2.54,5.956024332663649,1.0148561349154184,8.105314475399924,-0.4957855793428667,9.17659999700508,1.8877892905115785,3.2925209427645976,1.1516999813893034
2.544,7.031241867527788,3.256157574093316,11.856985952181269,0.22819694020702208,12.368952430299467,1.6122578976099486,4.325350344342568,0.2748223434683734
2.548,7.96582494713819,4.771289631126366,14.627629377205908,1.8935463555288639,14.409499415907252,1.9160491637506647,5.548211257448356,-0.137522666984502
2.552,8.282051230274943,4.916411885250067,15.778204759984014,4.079894254913551,14.71427712701045,2.4021932900307617,6.36450303439382,-0.25984400066316304
2.556,7.911666219862546,3.707168517549939,15.206856745501145,6.243868569753667,13.303220012488127,2.7083911010708173,6.28766994154255,-0.2677399112311001
2.56,7.317416396554785,1.8354693197889658,13.444655062725742,8.020233883082646,10.833520102437237,2.7275796426923984,5.266918962794502,-0.20329693557174533
2.564,7.253637451005414,0.2979103402144134,11.432709758357413,9.365136091738046,8.31524487713488,2.6420586709859775,3.7496213461970744,0.06831633652625779
2.568,8.302343115071166,-0.15655087861155192,10.091589724365916,10.481049970059528,6.646168187055506,2.7679325721047547,2.456607672149798,0.7679491377437344
2.572,10.445942007956763,0.5477869201846342,9.87044430777408,11.577594164211536,6.192304390747854,3.2997324895826607,1.9856361608289745,2.0241234108786497
2.576,12.953751566805076,1.7671911876886308,10.523879711957976,12.640738182209294,6.63789864309028,4.13453528435191,2.488032931893506,3.7200356596473214
2.58,14.673595639115915,2.5060312052240805,11.241952058855317,13.35951480548677,7.167782846442199,4.898197661663161,3.618847012191547,5.472591233668563
2.584,14.576107063302626,1.982220462463778,11.061506232956196,13.242486192594562,6.878652023833342,5.145262454457377,4.766493003408442,6.779346463041392
2.588,12.2783664616524,0.07918049146448602,9.379240055032719,11.88205388138346,5.230702514745694,4.62939330681485,5.429094164367932,7.267634767432922
2.592,8.260885651988094,-2.572458062722238,6.29411670694617,9.20320511669716,2.3172971113282355,3.4667199056876337,5.500922932756068,6.91319434261062
2.596,3.6676611759144775,-4.925802706942046,2.6096440947566943,5.560035274933588,-1.1675152291197133,2.086726069567999,5.300723651855729,6.096266106225732
2.6,-0.19327743803578212,-6.064833567245846,-0.5042904360872065,1.6299038018136265,-4.224259853750587,0.9895257005659424,5.330087265754193,5.434315424504118
2.604,-2.4021951550512184,-5.673384964952059,-2.0446702859879453,-1.8510330661223013,-5.965072966014416,0.4464880875340971,5.913924147875248,5.467886485125657
2.608,-2.7550579451398023,-4.164661469195529,-1.6100506143558206,-4.3579528871149,-5.954452329883281,0.3439948341507726,6.975732498958145,6.366879425804616
2.612,-1.7371143459454161,-2.417725995850756,0.45522655605606754,-5.730340746915546,-4.338580293088519,0.26033405285797695,8.08412140488847,7.816749789700392
2.616,-0.19788635562770862,-1.2797002395968224,3.27288577912587,-6.139409836710006,-1.725505159254526,-0.24731132818880086,8.747461028390305,9.161080622511829
2.62,1.0907292929888603,-1.1071230573667437,5.887405093270063,-5.907198328458135,1.103551933526969,-1.3121588779547118,8.763401555225185,9.725470184122386
2.624,1.7547009256717447,-1.6135817891441555,7.6894207871421205,-5.314123170119278,3.485967797706011,-2.5998253934033517,8.371849416618701,9.141587460068362
2.628,1.8667349542075407,-2.106321893454524,8.581643663570967,-4.522223271173344,5.0192047696181605,-3.446666405127931,8.07584020792551,7.467033976702298
2.632,1.7263721545847026,-1.9808912831051262,8.787799119878326,-3.6693302957875584,5.4998300933235935,-3.2633491809713027,8.194500489979998,5.0261735800122445
2.636,1.5306523489921844,-1.1943197838008741,8.445552174705929,-3.043924132725903,4.73976763697765,-1.9839336928205085,8.412728586260775,2.066631776998393
2.64,1.1328272090039786,-0.4385340439086445,7.265763211818493,-3.1882596757192587,2.4125105306487273,-0.28552820057706985,7.653143980350222,-1.544649820514155
2.644,0.03272189544112192,-0.8866299243868263,4.508906882223982,-4.807083935463991,-1.917503920335418,0.5923871431205296,4.44040847196202,-6.345061654223685
2.648,-2.3573236784995455,-3.5963541711790405,-0.6129685616312139,-8.442075248162386,-8.519360673900529,-0.5791756946605529,-2.3324654173720196,-12.938156805669356
2.652,-6.303183488960205,-8.86242239992464,-8.306714790340997,-14.063726907585192,-17.10641034221245,-4.322563515864919,-12.594825763511784,-21.441957512685086
2.656,-11.407672041564574,-15.848133818836112,-17.689219089371534,-20.81535366422368,-26.557310374288214,-9.990311500798343,-24.686089766151305,-31.029961223043724
2.66,-16.534004364863165,-22.712751445044578,-26.750385334502905,-27.105433948215047,-34.9771495439884,-15.820975385184255,-35.6462499330263,-39.88319359354112
2.664,-20.097669090151534,-27.234818938026898,-32.9394851679933,-31.096959921802352,-40.1855070234843,-19.566396030547583,-42.186862499968115,-45.677471727005255
2.668,-20.628481923634396,-27.66540067721364,-34.14670603929147,-31.397991936052634,-40.47318387846434,-19.421814460483663,-41.949434865970275,-46.45110316127835
2.672,-17.391377437302378,-23.44167357077476,-29.65324104036688,-27.64581549745358,-35.30918273781101,-14.844981999745777,-34.50787883922815,-41.463427090276994
2.676,-10.790994259272399,-15.43960411648993,-20.557556027943743,-20.68795341867053,-25.651290308706567,-6.8580085251291925,-21.636522623131125,-31.62059275963344
2.68,-2.335877797649358,-5.638934844461657,-9.409922770141467,-12.245714660468593,-13.672564801080188,2.3311945861473973,-6.684699476188053,-19.236265500339172
2.684,5.834189416283192,3.622184750746405,0.7752414407125743,-4.232660931370813,-2.0053733268992424,10.20467056992181,6.643335249495928,-7.207078585609149
2.688,11.68422474455392,10.471789656820992,7.6928318030430285,1.9566037144886717,7.168954346641222,14.92253303266477,15.58697981610645,2.026770597980085
2.692,13.982110945989298,14.049214630424721,10.53820906488832,5.837776144918352,12.765879213284503,15.955904134772137,19.160840785093395,7.267873545251493
2.696,12.674541092006127,14.583771330670046,10.075234347666616,7.7685140826223,14.92992168012766,14.104908562096377,18.206833140766935,8.776303299360581
2.7,8.809609183432439,13.05600349025996,8.016963307393288,8.529048367523476,14.6628513970609,10.950710360087223,14.734081016661296,7.874320658958357
2.704,4.056197089215618,10.662274766917353,6.0757393185386865,8.819025252915687,13.197849909981525,8.053935470262227,10.916100104420934,6.200707371673511
2.708,0.06141850891132128,8.370308879358069,5.204951848148411,8.97096788332766,11.471723862899479,6.317873480338463,8.240391020407914,4.99709641813361
2.712,-2.0851481419562763,6.730904554092904,5.371415817656465,8.984452199164277,9.924747018925036,5.782552458738502,7.147452612708118,4.748184556176586
2.716,-2.099711089173646,5.932448084276002,5.89317229543726,8.776266689530413,8.630058807282051,5.875028611307863,7.214201433082908,5.259969646325931
2.72,-0.4289220165156007,5.960323922309245,6.061991480495894,8.413580695467246,7.563326017771229,5.897474990566515,7.676825032815175,6.02172194237824
2.724,2.0348976205039113,6.693026047042937,5.62469507823667,8.129781563365585,6.769552909008533,5.437951799538997,7.9549657431864516,6.592025075855295
2.728,4.307235846218322,7.887157031260063,4.882447496769648,8.12354176477415,6.326227389100378,4.511952266651308,7.912655408345151,6.790010867518352
2.732,5.589510462814173,9.11097044824938,4.38667053171787,8.292273155812106,6.1571020580037725,3.4027185619218265,7.779905151611976,6.637236998967546
2.736,5.436054776090636,9.768208506386106,4.494217248705565,8.148115192886625,5.90189658473217,2.3725433837607097,7.8688018912567825,6.166044730787489
2.74,3.820301037843925,9.284912795913439,5.093987596614186,7.037263574219424,5.002257368576756,1.4615302167124662,8.290797402786012,5.266318323875289
2.744,1.1137741478541083,7.396872678511482,5.663057395356235,4.561913710602426,2.9980068775812416,0.4925739509213267,8.841555709608675,3.701689892354711
2.748,-1.9941409738912212,4.383675099709416,5.622465835435203,0.9650069479164634,-0.11850865475957839,-0.7287998703850713,9.1208406715652,1.2894966031228314
2.7520000000000002,-4.654319412004742,1.0651264547099664,4.726160932575744,-2.8095699609046756,-3.74394954744003,-2.1919191823794746,8.773758312492646,-1.8878028103377433
2.7560000000000002,-6.104088841678703,-1.5010679641821432,3.2302543198695663,-5.479338080334205,-6.849857770662648,-3.5966984813390734,7.703441581287657,-5.385526246271043
2.7600000000000002,-5.936831731492459,-2.493586051426214,1.7462593123336312,-6.04205521686719,-8.451223097809706,-4.471603375478081,6.146702437039835,-8.497190575325595
2.7640000000000002,-4.293816054110966,-1.7401604350201767,0.8533042837931797,-4.328989427540744,-8.121027698817668,-4.442154721779591,4.557718775833531,-10.519889143507628
2.7680000000000002,-1.8538211561406988,0.176220929602819,0.7449366766447858,-1.1542716597586582,-6.245862168806898,-3.4644312741472234,3.3867423413669906,-11.050649266026456
2.7720000000000002,0.40282253513685706,2.18230456024529,1.1167973335120478,2.043848658878507,-3.870254165925893,-1.8907679155998676,2.864215634250311,-10.152535241321237
2.7760000000000002,1.5799373569657358,3.2298679234825878,1.3665381273306936,3.898802518998661,-2.1904669933319414,-0.32197939845069967,2.899268266375058,-8.30612910881067
2.7800000000000002,1.2394953203554895,2.7985694716489857,0.984122702426538,3.7802235401367863,-1.9599303253144718,0.6763641982693682,3.1438730999941225,-6.177384088005037
2.7840000000000003,-0.42954718929847235,1.1113456359803964,-0.1307892220775727,2.0627814612818884,-3.1336016841712437,0.8209251502725169,3.172100505087389,-4.317303896187225
2.7880000000000003,-2.7362155569799294,-1.0373434521923928,-1.5953697330583831,-0.13446711633280728,-4.926488321116272,0.203548271979475,2.696693034704581,-2.946633458377944
2.7920000000000003,-4.844687886387549,-2.738167539363518,-2.7580783133284283,-1.5873581712653948,-6.247822863145993,-0.8127514668494049,1.7171709356769593,-1.932285880064132
2.7960000000000003,-6.180536113859965,-3.4517185076359205,-3.0653893547426723,-1.617946214955193,-6.270256999593316,-1.80923710944736,0.5316932251329156,-0.9507166919355328
2.8000000000000003,-6.671387744843484,-3.2585644516614973,-2.3558318569944774,-0.4058554866780639,-4.830425998834734,-2.513433179174408,-0.39059175324557316,0.25411139978251285
2.8040000000000003,-6.718260432940433,-2.7715462334591585,-0.9375447048570678,1.1786800462964528,-2.4787488159080375,-2.8973805345421404,-0.6302121999221555,1.6592856507635183
2.8080000000000003,-6.916467193847151,-2.7746646289422223,0.5901653855677793,2.107152725906854,-0.17827081465604877,-3.119696027458481,-0.023723733384155565,2.9089193991984814
2.8120000000000003,-7.687118091079398,-3.795095319029734,1.6409177986860293,1.7656809303409666,1.1659719713486218,-3.37893894948391,1.2214215606760153,3.4502692113740725
2.816,-9.024982094529229,-5.83557169242992,1.8981214692544626,0.254996451978986,1.0990214914436507,-3.769979042348388,2.5658100316784944,2.801771055234836
2.82,-10.488349650693904,-8.386340729604198,1.3983236157798622,-1.7212162830115156,-0.2543881887483854,-4.224959970904184,3.3305802661244712,0.8100238519693415
2.824,-11.433504809472911,-10.686877127374494,0.4132070998768147,-3.2895412584416395,-2.345428116218457,-4.569164728789154,2.9439672238034476,-2.226755957740506
2.828,-11.3485973776829,-12.073600302736551,-0.7538225913742256,-3.8794031901090857,-4.5138785022670245,-4.638217713266684,1.1545334688901976,-5.643121671172285
2.832,-10.105021666624548,-12.238172491821771,-1.93123927172743,-3.4635602276865884,-6.28096035186949,-4.392033243991794,-1.8779294336670072,-8.657983883684205
2.836,-7.996639994397823,-11.279573869950465,-3.0978252774805326,-2.445119441227035,-7.471881119571688,-3.948971881648085,-5.638657120105438,-10.666300848719864
2.84,-5.572589450590038,-9.56524990570553,-4.274949318487505,-1.3045881057232873,-8.14771963597944,-3.51965126897804,-9.430513038115674,-11.437989461862353
2.844,-3.3747850437386355,-7.51515835347765,-5.4003865824885064,-0.25783618771729566,-8.438581573564923,-3.291464564468703,-12.584821180728051,-11.12681595842012
2.848,-1.712948015376684,-5.424217283824966,-6.260817915333838,0.8651830983663722,-8.395170762473873,-3.3187353548899403,-14.618940766656618,-10.103331586221724
2.852,-0.5903649060077363,-3.4117872331189667,-6.5607117768042755,2.441527453142128,-7.9645806471393055,-3.4894862510145073,-15.311557886442081,-8.725962305298491
2.856,0.20723750797233714,-1.4988127352429321,-6.091893599476181,4.69812756412677,-7.0941826649354525,-3.5900099125462415,-14.695394621021112,-7.190012435863128
2.86,0.9334760023273545,0.2602800551379738,-4.902456554650665,7.412437518648536,-5.87903100196529,-3.4403704341279475,-13.00941395991572,-5.538831668403069
2.864,1.7110114056373589,1.6814386202902467,-3.3790432738742435,9.867847090772567,-4.650037649801268,-3.0344988695530972,-10.655458445513975,-3.804689152290847
2.868,2.460248577447731,2.4645040525352124,-2.1520140898172935,11.129585719093843,-3.9115200782337567,-2.584361196604525,-8.143427533036473,-2.16827633506957
2.872,2.9381571383139002,2.305551920471534,-1.8676849865223693,10.487408320423391,-4.142106676651292,-2.444472125287083,-6.022352854992059,-1.0085221121382117
2.876,2.8535367619810406,1.055096304956075,-2.914780529990072,7.8246472713255155,-5.548025971391589,-2.932874943282258,-4.7684525776185,-0.7766711970287892
2.88,2.004721318969067,-1.1601047215935985,-5.216010122934874,3.7166558453000693,-7.894758620042829,-4.131648535453769,-4.636453311437251,-1.7439022215777262
2.884,0.3626208997338658,-3.931946244479268,-8.208666598203983,-0.8127760082195814,-10.532141099452437,-5.793917231637375,-5.549873055651252,-3.7734028463913485
2.888,-1.9088509087300114,-6.680558732590933,-11.015355424533501,-4.731704488463702,-12.610100337808753,-7.406623617201895,-7.084614738228309,-6.2792459452072205
2.892,-4.485504993000182,-8.836510113700776,-12.753944804233573,-7.404693187242813,-13.398740596703647,-8.410478130934976,-8.59729369773475,-8.429590871535785
2.896,-6.948857869200937,-10.0179067399337,-12.853945874783314,-8.76196774666009,-12.569896816717106,-8.464720338251917,-9.464241867545438,-9.506626969960712
2.9,-8.858948807937233,-10.1270626783889,-11.247621139981405,-9.168514413829397,-10.308936048552534,-7.614198514518379,-9.327108220671764,-9.235909235456756
2.904,-9.839041377143051,-9.337452326920436,-8.38065200445434,-9.113807079271357,-7.223285491331948,-6.265643376855163,-8.241900811898144,-7.8940091788791324
2.908,-9.653526243426322,-7.980145515377167,-5.026086349637177,-8.907408714921097,-4.096236303845062,-4.966334461497917,-6.634910532131737,-6.133753382611062
2.912,-8.272345669929926,-6.391428323439879,-1.996055291155461,-8.550394110946836,-1.5985047276212525,-4.115400889528235,-5.0851783146992595,-4.616352118006637
2.916,-5.899044424694305,-4.79191159448613,0.13576602015158334,-7.825577441992353,-0.08377934955639044,-3.7642003372884782,-4.039701766101707,-3.655347516299665
2.92,-2.933945564522145,-3.2370737616657763,1.1929102085542946,-6.505212198717205,0.4683806401673404,-3.608870405593717,-3.6074697551700985,-3.0783438979502904
2.924,0.11272272066112254,-1.6579572095186181,1.3653014178639138,-4.535429211889368,0.3664296857187713,-3.1966409918144754,-3.5481636132597574,-2.3793619012920963
2.928,2.749216501061246,0.046137808327984864,1.0486324001402068,-2.0739469601105425,0.04323345885771185,-2.2123748261274523,-3.4571261840531915,-1.0723905828191076
2.932,4.627926820484028,1.9150668519664242,0.6314546899505649,0.6152706040735039,-0.10350546361957846,-0.6758178628429174,-3.0359305933571905,0.9762523088430657
2.936,5.618797883773486,3.873460451917557,0.33593878822714773,3.3161107671288326,0.18276612537901116,1.0650747960702027,-2.2838296579287185,3.4423656013010957
2.94,5.812188503154545,5.738254331899444,0.18803686741153758,5.943970261362461,0.9774330720028215,2.541193317089789,-1.4881227494079492,5.726743478809372
2.944,5.4454500679073945,7.272526349138203,0.08545089040902809,8.485638275571842,2.1786656920245897,3.4375348384307314,-1.0316863090067585,7.329402424206446
2.948,4.791984691176566,8.268090307726878,-0.07882392903865876,10.85515244429635,3.539764575722138,3.7709858144820814,-1.1138654874538076,8.182282207555343
2.952,4.055689589078913,8.625240007413321,-0.3281515817880942,12.77812891539709,4.7251154524622905,3.852109375870386,-1.5700404357701485,8.731503244878564
2.956,3.308862771456499,8.40545328094978,-0.5952087516282996,13.819080024622288,5.395818842560178,4.059238999647898,-1.9120608042892093,9.703830483488133
2.96,2.5033233231243486,7.840985324585386,-0.7769995770245277,13.574027934688234,5.325577633460396,4.574404640256324,-1.5767063436370856,11.67446873784135
2.964,1.5328396557524355,7.276271513881213,-0.8194654625579005,11.912907278988797,4.504434107118389,5.23851917055676,-0.25705405857184305,14.685027166224938
2.968,0.3300693398680774,7.064348373644327,-0.7433021818271053,9.141472335356287,3.1878556156804514,5.63933844908934,1.8948658076727671,18.135080161361195
2.972,-1.0605271930318403,7.437789067297192,-0.6085074713852716,5.954524862102746,1.8403245817549596,5.375352547899718,4.312510218786052,21.020709114992364
2.976,-2.4659762810613044,8.40283755998976,-0.43639170285101514,3.189448943567588,0.9829244932213976,4.340341755202469,6.294359956953347,22.402974948099008
2.98,-3.631518455712612,9.713820766644272,-0.14173880856592014,1.5031857350069622,1.005237277826022,2.848442868352582,7.369164585249614,21.86088811783482
2.984,-4.329981000814719,10.942562378186409,0.445092404897407,1.1218055682133556,2.0151313183450794,1.5023861217405914,7.522410931499438,19.685788861697574
2.988,-4.468073462799889,11.638186707209291,1.4882303195898343,1.8031046844944605,3.8048703013046916,0.8809440068918315,7.1555404018797475,16.7088120856965
2.992,-4.135453746786595,11.518012918806717,3.024804590057231,3.0142583169649484,5.949316341303395,1.2135078430504231,6.801157299404305,13.86284022124381
2.996,-3.561468639583758,10.5986694681342,4.894549285638068,4.2172013613603605,7.983813231094883,2.241689616159306,6.764995948771268,11.719342389941076
3.0,-2.9953493770889548,9.19938134707072,6.769104828716143,5.09636917313006,9.563390105976524,3.34797570738073,6.907276723035157,10.23335618919679
3.004,-2.5800745386531663,7.804663734066555,8.256338907676723,5.615045128241533,10.528054782816444,3.8763408984353562,6.702715335717162,8.839257037306888
