Timestamp,O1,Oz,O2,PO3,PO4,TP7,TP8,Fz
0.0,5.258016244624741e-13,-1.8474111129762605e-13,2.984279490192421e-13,-1.8758328224066645e-12,-2.5153212845907547e-12,2.1032064978498966e-12,5.684341886080802e-14,-2.9558577807620168e-12
0.004,67.53815684513621,53.08389390631059,102.97401391210565,55.42086411723481,35.23289451006966,38.217517639448616,57.39327360205705,-37.68671049125646
0.008,116.86063211544379,91.62448056498934,177.95199234642052,95.29030333989756,60.31282146998044,66.35159961820203,98.5511255625891,-66.13457834624636
0.012,137.79639724262017,107.53786617705009,209.33535001022832,111.03833284042457,69.67925122198189,78.85103119399454,114.45514862034781,-79.99192726879781
0.016,132.16965617516024,102.36635701754864,200.03961934856693,104.48303831881185,64.62103176746423,76.90041811069788,106.85672597530012,-79.75414580058249
0.02,111.71443348660783,85.5920900198989,168.30569045392136,85.95898132238148,52.05997094758992,67.16128348933442,86.41849584160795,-70.8785117436188
0.024,91.38864841378799,69.25737536607062,137.4050932366236,68.45093365833496,40.6903023947673,57.941442133883214,66.7180199718376,-60.66424870333056
0.028,81.8392691377802,61.91699439102783,123.97789178916483,61.0302582016414,36.60693664363651,54.934404452959214,57.45960394689715,-54.643913747733535
0.032,85.07175509707345,65.17269418450839,131.2526514598163,65.14288019947524,40.75777359387827,58.86001688524772,60.53216574425847,-54.40440716760344
0.036000000000000004,95.29428913632928,74.3596321489289,150.22953696373418,75.45668389941339,49.3989477830967,66.10205483940804,70.699716905386,-57.78817687454749
0.04,103.75364181867823,82.41640508310218,167.03848004875584,84.1770291738408,56.90786457688304,71.56586783695339,79.88355657167261,-61.001701673092384
0.044,104.36184319298265,84.3658512456573,171.62527139429616,85.99520253380504,59.144538031490775,71.90675808670088,82.20084891915857,-61.19139705112505
0.048,96.81817010123265,79.7809365106909,162.6885045707986,80.75024905080731,55.43350625283918,67.20409922746148,76.82984022291623,-57.96843509384267
0.052000000000000005,85.88404587272544,72.19797223179245,146.7838359142795,72.66114155865027,48.31941425696756,60.383110876630674,67.49997057416206,-53.22586778829013
0.056,77.85971473078317,66.34925208029321,133.1458765276459,67.1177811459729,41.61257578397263,55.08845120185647,59.501934310972615,-49.669670464255134
0.06,76.67050146568573,65.1364711099378,127.82350763170989,67.2132185099443,38.057604179016714,53.42982992760323,56.31238049966814,-49.10771800453877
0.064,81.91098693970082,68.18761207911162,130.71288431049058,72.13710549665038,38.02508013453983,54.99346440619084,57.881564289946304,-51.523840266842804
0.068,89.66066911670322,72.56800074269665,136.691175327719,78.09893079600492,39.76397969254663,57.482527822302295,61.271761263583166,-55.34614657398917
0.07200000000000001,95.23444830849209,74.93653372585851,139.61421627763883,80.95639012562856,40.839306042689614,58.41789273829658,62.93641489371805,-58.57945960153914
0.076,95.9970735391284,73.6611968173742,136.38751221057328,78.79069247012275,39.74104709000605,56.75067476718141,61.05605438191612,-60.01254267545738
0.08,92.49497810704366,69.55427114653352,128.4755428232636,72.80525241218976,36.63845842202947,53.34034243851781,56.42668618350502,-59.745720051978495
0.084,87.49378528398634,64.98233438841571,120.3032251170341,66.2151690679039,32.97812544656258,50.17382482633954,51.571416296994414,-58.819972672276585
0.088,83.81457661917027,62.11974739467502,115.92215885723078,62.01339889988901,30.34029707776873,48.92199991733488,48.85933218223408,-58.313325539360505
0.092,82.56661378729856,61.62247484194316,116.40790531039036,61.186841890169916,29.42815071849614,49.871861907852335,49.01702541925794,-58.57976617347989
0.096,82.86863696833765,62.53823634762563,119.64566267435717,62.468744710700435,29.835237936381194,51.895811840476206,50.959825381134415,-59.12193894538137
0.1,82.91707888335009,63.26704476521764,122.20306475204634,63.52026130569337,30.56365232124964,53.29179655243403,52.80071082806234,-59.06169278423124
0.10400000000000001,81.47595794183837,62.7856045024486,121.81327326556342,62.62798293114534,30.848090438017252,52.90187744227621,53.21471097361743,-57.787058470686624
0.108,78.67095817690895,61.23188555386052,118.65973360403467,59.72292951911426,30.642815025545143,50.71438372886702,52.17179322051834,-55.331434596291686
0.112,75.7193279306968,59.60928554396344,114.87597486465656,56.23343639381103,30.535939408629634,47.69599462436584,50.718207381543316,-52.308060237763236
0.116,73.98858957280274,58.98602454165507,112.91750125364317,54.075388706949624,31.262016840867812,45.12129072171604,50.14992705030708,-49.52239473102001
0.12,74.0493426501495,59.74215135177614,113.89135581220195,54.44082684835367,33.138801511033805,43.81611607870147,51.13754059519204,-47.533648407563454
0.124,75.3598899303646,61.36071385597896,116.94718733596324,57.15804037712209,35.822155240505964,43.811315085068465,53.36012706760932,-46.42071003562949
0.128,76.66392499174479,62.788006419026374,119.90886551772175,60.881153384468575,38.466550483640034,44.49182392710593,55.7588070039181,-45.8276177278607
0.132,76.81129038082094,63.099976128472534,120.6955764911047,63.92803714255761,40.17743976586269,45.085791524265645,57.20132063881363,-45.23235610670038
0.136,75.46665817887546,62.0525468377893,118.62522537810923,65.22593251643028,40.477324212441864,45.16210485114988,57.12829271117721,-44.26915448741
0.14,73.20553384421746,60.131667493257225,114.67502234983559,64.73410865438846,39.45590965004686,44.76852968180991,55.75422017761161,-42.902498606151475
0.14400000000000002,71.03466608215095,58.16005331540214,110.6876707740899,63.212723711576054,37.59014663906869,44.23273547145802,53.78301130190667,-41.382057922509745
0.148,69.67932899085679,56.73986126679457,108.06626376584552,61.55208530171161,35.37205163428864,43.78685031784025,51.866844648887195,-40.05323774225427
0.152,69.19384093738628,55.95727846466147,106.94591108355725,60.215374499306606,33.04995840294215,43.36209210020535,50.257599155046606,-39.1827494432351
0.156,69.1219370580477,55.51664188450959,106.37234064423353,59.15097691368896,30.647355943142543,42.711017437472,48.86009433551041,-38.89884947062557
0.16,68.9221026741171,55.05635374859915,105.09973619483193,58.04747941843543,28.13117788525937,41.65883039370365,47.48792266826149,-39.1959650737689
0.164,68.31741885762898,54.38921647785151,102.43172577000028,56.690505707204494,25.58142432057216,40.30478975248426,46.08388226156803,-39.93420829504891
0.168,67.31277958762004,53.495842205058786,98.51509585975712,55.11209201075952,23.20417329244391,38.979286536669,44.714515880937796,-40.82000884243766
0.17200000000000001,66.0190493827233,52.41213886655734,94.12685557399013,53.53722307965179,21.24426110038766,38.045440967390995,43.45809262857051,-41.45509903575542
0.176,64.54533742356944,51.21074495415852,90.2885393675372,52.27173299485636,19.927121908320473,37.73337473352663,42.36564967348922,-41.49426660194785
0.18,63.005062752103115,50.06813980475447,87.85135444749005,51.56676640853199,19.44186184069979,38.0501862350264,41.48259023693276,-40.81887838084644
0.184,61.601310444156006,49.338442095962144,87.26468813385566,51.539586662291235,19.971855301405284,38.83192274522237,40.90698255136354,-39.610165282406655
0.188,60.623350051567435,49.47095640942167,88.47769419526284,52.118860769102966,21.676578991348705,39.8292293633916,40.767273770823664,-38.24711650764151
0.192,60.352348596706236,50.798282595623824,91.04748399704687,53.07222972169326,24.623511580395288,40.81310426406857,41.17291630196981,-37.09686065277999
0.196,60.941442279378734,53.32483233245837,94.42348269406088,54.133051141018214,28.70975890290105,41.67250269901365,42.19466746251175,-36.32833444169038
0.2,62.2681221870554,56.58732317022696,98.10644924092838,55.08382102548261,33.554826987304466,42.390814338189124,43.81048021520496,-35.823603597209924
0.20400000000000001,63.88133806469901,59.71143723638464,101.6594108148069,55.78353326549683,38.461892931643064,42.97246822442898,45.8447948676249,-35.24019580780653
0.20800000000000002,65.0968358654284,61.67216370542582,104.57245777855807,56.1212589600194,42.49993853644199,43.34231997834382,47.91996890868875,-34.19036384147373
0.212,65.29441451338285,61.71241454911711,106.24450694707016,56.0148619476752,44.7634925760761,43.34156846607661,49.52654779163231,-32.47923904778706
0.216,64.2861112814974,59.7359860612702,106.21046302899876,55.49081198879085,44.74153925829511,42.85580376493338,50.22140406801344,-30.285773735111714
0.22,62.44542316966126,56.37475313263891,104.33424737545924,54.699975224280536,42.54799887702586,41.9176308808683,49.787665839875274,-28.13382973591447
0.224,60.521869986298064,52.68135117317779,100.87513222362344,53.85571098836187,38.89645097257245,40.75275567115298,48.292133684740804,-26.643916218138298
0.228,59.24709235895506,49.614052273271966,96.3723928802746,53.11644858090144,34.79978906478678,39.707121760293944,46.0318916886329,-26.21274494391484
0.232,59.01110340010041,47.637067061617834,91.48556279171795,52.52982525745661,31.164489682205208,39.12044576334416,43.44984549271725,-26.816126156672794
0.23600000000000002,59.753434029623364,46.61526284049985,86.81416309010393,52.053280401061656,28.462803122458485,39.20012369977509,41.0114354629182,-28.017906495576796
0.24,61.07782620720421,46.012753820544354,82.73335907296867,51.61133999823292,26.61667068559386,39.91880630159663,39.06461175581214,-29.178355256245453
0.244,62.56522649249615,45.3170049035898,79.43554837778777,51.22401815718183,25.185832812302195,41.051432627972716,37.800102733518386,-29.77464040880071
0.248,63.99151438577597,44.3662748407578,76.99553703195963,51.043755728313215,23.691915036577534,42.27508804406516,37.23270668902724,-29.633994720048477
0.252,65.27579074932619,43.360847264322906,75.32833078932633,51.222507475013316,21.87523885365949,43.267726746664295,37.176346117703844,-28.923853565416046
0.256,66.26669333201103,42.61816534082581,74.13977010135235,51.724473056029126,19.788816155620257,43.803178278339956,37.27874335895797,-27.934740225988254
0.26,66.61067449245742,42.30241214027956,73.01815601991912,52.251397180031596,17.74418185561795,43.82247396449574,37.17307817614919,-26.8431259014856
0.264,65.8861418616039,42.35301941165682,71.73045868798812,52.390260636794245,16.199540988184342,43.48533932171925,36.715098331007255,-25.626537700860286
0.268,63.88478827802416,42.58941145785637,70.4477381430099,51.84826025222576,15.623290385310455,43.10966923330163,36.09973787815943,-24.15311557095334
0.272,60.81154963040507,42.86081559752016,69.68192060293735,50.600412550452944,16.363412447547976,42.98551793048016,35.735454580024005,-22.356880785582746
0.276,57.26749232723388,43.14283508168896,69.98225931767544,48.88595695000903,18.563078062293286,43.17103106215483,35.96756597367302,-20.39079047411472
0.28,54.02604272296771,43.53547074064444,71.59546708518508,47.08448554090879,22.13310084942302,43.40709680536752,36.85349797723007,-18.67373448356229
0.28400000000000003,51.74229569369959,44.19717326185298,74.33702987593028,45.57883273701323,26.77997021140883,43.2541376211578,38.158346261114474,-17.782933701082243
0.28800000000000003,50.67473281853772,45.20297108197249,77.61550137795965,44.604982074807324,32.00998201784144,42.33622473763123,39.507357471408035,-18.200667504733723
0.292,50.53352486177865,46.391257873197574,80.53994927477751,44.12800374639007,37.103719195240586,40.54002992627488,40.55009211955429,-20.029189862796954
0.296,50.582351347402636,47.32856892473798,82.14327454244334,43.83632404881225,41.15582548073293,38.07885628938632,41.05097110007503,-22.856788699002472
0.3,49.9961479663136,47.460860399249235,81.71882648668088,43.29992613971332,43.25790964771064,35.404393153029766,40.910222411646174,-25.89827948542132
0.304,48.32139549957231,46.40911053222871,79.19741048258973,42.24808627856655,42.8241704807142,33.039162247014104,40.16153184889969,-28.36271625273509
0.308,45.72488185388876,44.19550286748034,75.25910026207845,40.75201308293756,39.880021155514314,31.366301583254625,38.922742400735515,-29.81315098884589
0.312,42.8660966846661,41.24604151426783,71.03188391360854,39.17825459918312,35.13127109043744,30.463472139900052,37.314936037064214,-30.286676551736985
0.316,40.51485440763675,38.19826318177766,67.55995689941908,37.96866966978342,29.76182171812492,30.089863229286784,35.43868559665226,-30.1239980807172
0.32,39.17726174191491,35.65498123125457,65.36171572855,37.402374711621334,25.03123484342313,29.83707540480861,33.451438109149414,-29.65822359411431
0.324,38.97087000164592,34.028350766809595,64.3574082483712,37.5107277459011,21.863619252797346,29.3907235779034,31.692482542868333,-28.988728358088977
0.328,39.71087327247159,33.46844571730256,64.0580485658203,38.11041972257526,20.562207346428337,28.711436331019762,30.65137346978793,-27.956431882043006
0.332,41.053700633746494,33.827418803538464,63.81807557803251,38.878542322127885,20.74197829214157,28.0194242840166,30.716050124128873,-26.31326952443408
0.336,42.61140153785969,34.67450884829269,63.06076018069011,39.449383215020816,21.52460388244948,27.626062708002102,31.856108927626423,-23.985441859732337
0.34,44.024535375036386,35.40519090675588,61.45943381807899,39.52169785786427,21.933909937880365,27.7377758315046,33.49221757568378,-21.2620338264313
0.34400000000000003,45.04114217010497,35.463578107147676,59.10253711741746,38.98645697798171,21.339005520181484,28.384266955987307,34.72887385502876,-18.77156111869315
0.34800000000000003,45.54758429944461,34.5608303486848,56.47817629018472,37.96363933627448,19.71013047061151,29.447219280496086,34.81455001252488,-17.202079944087373
0.352,45.52497124573642,32.76731972394803,54.22176281528889,36.69777231292086,17.5610715112597,30.714718264057808,33.54178749930948,-16.89949036814856
0.356,44.98930243715168,30.463136510813296,52.789531276379265,35.389397708743935,15.643343003512516,31.923445327264584,31.37495791996841,-17.610448980222593
0.36,43.980524889644435,28.201926823107783,52.271868358424754,34.0932393182172,14.590706306022781,32.78024452233904,29.250960987317846,-18.571719062625768
0.364,42.624273777722564,26.567151445603844,52.494019480480794,32.77466912484087,14.716563888030324,33.00964733299912,28.159512394107924,-18.946018951237768
0.368,41.156014410477106,26.01027144358995,53.224690145289514,31.431681008749962,16.001266934875005,32.40026223323002,28.66615364696809,-18.33330886510975
0.372,39.84866656723219,26.691433645146585,54.304027004705304,30.170627428647904,18.212527991634133,30.849711029978458,30.607321842931555,-17.02233333758784
0.376,38.90001084810785,28.40069261857818,55.652611866693945,29.192846800134717,21.05627178094665,28.410802232604905,33.14234546659355,-15.836218783490578
0.38,38.37610713726559,30.61830880493406,57.21539753474404,28.704216353617227,24.260526566230315,25.319677274627274,35.17125989092068,-15.665662761407736
0.384,38.27467018278895,32.721540222953664,58.95162274673213,28.827588336208088,27.573215101163324,22.010751888944107,35.924575644285284,-16.960450439020867
0.388,38.57826285717458,34.18763062706766,60.77038298287474,29.499724180571405,30.656819552573797,19.0298008804888,35.338496145514895,-19.452098974860807
0.392,39.198718086302506,34.67092803168023,62.37911607404243,30.380429013679226,32.96429426902341,16.843114623100274,33.966527992417426,-22.240598325538095
0.396,39.87876782258589,33.98445831714199,63.195375275009425,30.884180183906977,33.74901414081854,15.658689930335344,32.53615898042824,-24.207837671953918
0.4,40.18150215739772,32.084458453761144,62.47115445793937,30.393346246171337,32.28747818007398,15.369832814739897,31.47729476151232,-24.552943203750942
0.404,39.66738706726673,29.137713321387515,59.68649150824805,28.61475313111443,28.27220070246966,15.688116602560546,30.743759214868206,-23.167381464245736
0.40800000000000003,38.13780445017233,25.588878843040373,54.92433501709921,25.832476101438274,22.13020279219801,16.337713383948206,29.974285268452455,-20.634937612218962
0.41200000000000003,35.76525368784726,22.11504312982243,48.94699459579148,22.85281014769314,15.031788900655357,17.165852548711776,28.82727709197451,-17.86467860881933
0.41600000000000004,33.035876846653885,19.44711463992122,42.924415379360354,20.64664956285172,8.526358958826354,18.123311946972926,27.25669417454285,-15.601836452439768
0.42,30.52859631060423,18.11561535774547,37.9556409515156,19.864265724199882,3.93934078196051,19.145935416557926,25.564662761379747,-14.124366258637163
0.424,28.669735771489194,18.26428275687605,34.67924891633261,20.516363026897135,1.839279844348205,20.083215299123108,24.229497385274072,-13.28464605821502
0.428,27.528709166620743,19.57870035683681,33.0653724190275,21.94296404821849,1.8060705395529322,20.69984680201346,23.5810304508314,-12.799554334450658
0.432,26.746849814030607,21.36498351414508,32.44545983660217,23.08060873708358,2.627015449395632,20.752458772421825,23.512838046949724,-12.540308415773342
0.436,25.690062020391075,22.799911104888345,31.825454224508274,22.93966795101705,2.881043691321562,20.122286059444825,23.469154819219632,-12.612288306839133
0.44,23.77748552121508,23.27174818427536,30.38133576956778,21.077471779066734,1.645736408497652,18.90698878701866,22.762054976957675,-13.206794214797494
0.444,20.86019136909904,22.684652900207276,27.971125365309803,17.871048759934826,-0.9959644649636932,17.43137636515697,21.069618665823324,-14.357538384683846
0.448,17.39137964853336,21.52560732640118,25.30907361377281,14.402534891794275,-3.9302805715401714,16.113328947934125,18.76895974430092,-15.758878842653719
0.452,14.248446350959476,20.616595565898436,23.636740418804617,11.978034592541952,-5.524042267174263,15.2344551911726,16.846573290773215,-16.787647800201704
0.456,12.315281179265142,20.69144487579118,24.081466936243487,11.538304158299816,-4.420671610821171,14.769688012397678,16.418025718340534,-16.761055766610138
0.46,12.075903158576995,22.038858040654723,27.0671959883989,13.278688780423973,-0.20953620765876924,14.395103303084317,18.140024759176264,-15.308157760205544
0.464,13.461247104818643,24.4190666916335,32.13567907426548,16.681658432977954,6.380179431169671,13.712579150271983,21.87553084007545,-12.647905255009308
0.468,15.950010018785289,27.23185572046853,38.15654196193601,20.84518305638595,13.800087658796272,12.526983548781457,26.74104928310083,-9.570753636655466
0.47200000000000003,18.805012635808886,29.794733157321854,43.743508067872064,24.876088098879876,20.325063682255994,10.994233342315203,31.46470599140215,-7.087278215418815
0.47600000000000003,21.314798202334295,31.57691628642108,47.6911621054384,28.14260866986099,24.70086063228066,9.556721723771268,34.87038110083603,-5.942511846054064
0.48,22.966166702164703,32.30759282884478,49.29213490044745,30.314354772532564,26.511054257169153,8.70022933734104,36.284209610399174,-6.272429201024238
0.484,23.54798476935813,31.984856623094984,48.512184397642116,31.285869019804473,26.164251971313803,8.709275635570114,35.72450600139793,-7.598620537982516
0.488,23.141069551508586,30.791834174040304,45.90797156292806,31.052300771395316,24.529656075751312,9.519755802733378,33.77961156140438,-9.133460129112551
0.492,22.00923728071006,28.974527221009353,42.31003237438656,29.622501472810217,22.428667109576843,10.726263422829609,31.244494099832608,-10.193559393936651
0.496,20.466154809880877,26.76718491981847,38.45378817713801,27.041191690385105,20.2572273008701,11.756149343013382,28.730846347860286,-10.491258892099857
0.5,18.7781476954886,24.390650216085866,34.73133035422185,23.49109449448853,17.896958195475296,12.127674515145392,26.45707968621432,-10.179440149026316
0.504,17.15032204493327,22.105610253481053,31.211538555018805,19.41199918854419,14.945078065713425,11.701461663309821,24.3114478974052,-9.665997090158193
0.508,15.720463858962384,20.204351142965354,27.786833183527364,15.480469360679072,11.071275587960589,10.763210134224309,22.06382792483784,-9.310331384845874
0.512,14.517892268523685,18.886614569970067,24.303798324486895,12.397824946135337,6.285710964940785,9.885350194332457,19.55734681108369,-9.17552032135659
0.516,13.45053306128608,18.116647124133735,20.657737553942432,10.613451221199337,1.0161990160447456,9.656099813000107,16.803200703292706,-8.983108258589908
0.52,12.37157093857769,17.58934555604684,16.863383382045757,10.149464791495749,-4.005215830569352,10.39543705555745,13.986915260073348,-8.299278697773904
0.524,11.245662074753907,16.898122245651187,13.17095031737022,10.666342521863204,-7.934145812398052,12.019732492342037,11.450532528330813,-6.849686009332849
0.528,10.271009340812634,15.800952292803952,10.085615515422727,11.686977375645672,-10.033735042521469,14.073067049456453,9.616551477877394,-4.749935488075888
0.532,9.825194450100522,14.401230035510387,8.20212266193346,12.815897284148898,-9.875682154413047,15.887245910549353,8.844950300720964,-2.500072250420775
0.536,10.25438886239731,13.132140405128741,7.940550361231148,13.850782639699656,-7.460371284237372,16.823345738109495,9.28230501680347,-0.7428481809067407
0.54,11.62716755620739,12.538003258370367,9.32423723250469,14.747511419525326,-3.2344123081361573,16.50339763408393,10.76777857844299,0.05549814383473972
0.544,13.648531889973716,12.99758700790834,11.993217219798126,15.53686216213976,2.0290131470645107,14.98403536626843,12.891257904487272,-0.18478540159474477
0.548,15.764100746499563,14.510485060868936,15.380299358321368,16.228450773770305,7.435546391959891,12.759349339697138,15.145717386561463,-1.1439579654243843
0.552,17.385897647253238,16.643913221848837,18.906408510500736,16.742275396062563,12.182562094247999,10.559516569399147,17.080389759037548,-2.2787448075382724
0.556,18.144119633527986,18.69935251752271,22.122010891854377,16.92822959629885,15.7374367197746,9.032001527448928,18.402905391094308,-3.0890324960747098
0.56,18.035323657775816,20.024927744720785,24.741403017910486,16.65258486231308,17.926245840565446,8.450799229825618,18.99678516375136,-3.3529136443698313
0.5640000000000001,17.423258953237394,20.32916347261345,26.636157226215584,15.91700741510282,18.921247100573023,8.630414650571765,18.88999817284811,-3.2236222998105113
0.5680000000000001,16.844369627018416,19.788731813963004,27.745051760313956,14.881776679386753,19.097413759811193,9.065142327893478,18.16746848916931,-3.123713034512061
0.5720000000000001,16.697564282848383,18.870407597352212,27.94861543267006,13.753910430924106,18.808257151443666,9.22239697024679,16.863408473290303,-3.4824592475715015
0.5760000000000001,17.0127735503006,18.000366070421016,27.040763032398154,12.628578729620022,18.19781714887881,8.851021003590354,14.936102903690145,-4.45638356106881
0.58,17.44335368169215,17.301312910983388,24.856237828481348,11.39873042484636,17.144825052618913,8.133265208902458,12.368905368095673,-5.792006339025061
0.584,17.513591735418608,16.583226181098347,21.543840223645212,9.836307319923367,15.396284400599253,7.615246048511908,9.370589318386044,-6.920765434825599
0.588,16.931942864375,15.551839595105974,17.72115743000109,7.770420856800799,12.784143106899055,7.9003987801325835,6.48252126011953,-7.232828890118335
0.592,15.75571349561673,14.063237498489311,14.329459613831212,5.23808232407804,9.390223290267052,9.258301163668804,4.453992268335198,-6.375090484116497
0.596,14.326395704084762,12.251500389160398,12.23594948962098,2.522927002433091,5.573914323127809,11.389932259661801,3.919831492449111,-4.428940545084914
0.6,13.031619747346133,10.443434603856428,11.787030904059552,0.05430871593131892,1.8476571313608026,13.499299175684413,5.046623368109348,-1.9009223956429229
0.604,12.080182399359272,8.944665022438098,12.632882267478125,-1.7459073846456272,-1.3048337053461165,14.684097648076596,7.389547399325393,0.45617596270714555
0.608,11.393974402099401,7.816299770776508,13.873018920591807,-2.6233770199812234,-3.5914865255809767,14.411321060953805,10.037355769998541,1.9298082141281032
0.612,10.654439267077134,6.789022257789462,14.435979760765807,-2.5990570987063935,-4.983963596496219,12.802551686958832,11.97934451837548,2.123296915863457
0.616,9.476363441301109,5.406733449590674,13.538560792092195,-1.960766954682378,-5.659342255508805,10.5617107043165,12.52628870353418,1.0920304042721813
0.62,7.6241800743938475,3.3353441356944873,11.009514914290722,-1.1383024158896538,-5.853098587497889,8.56800169138414,11.585861614181765,-0.722080329024144
0.624,5.196145970217013,0.6834310731822693,7.405802693521354,-0.48429514991276745,-5.675435684396251,7.407633732126927,9.69205353502638,-2.7245524863125525
0.628,2.6495215057952315,-1.9036202520753664,3.817461812332755,-0.10104208594158148,-5.017178779939766,7.087528953631018,7.752637725169766,-4.426387034275808
0.632,0.6351497770965322,-3.4829899187930327,1.4339085152314768,0.1921212450918055,-3.604012786809456,7.088985411759008,6.631629501609939,-5.584561658296307
0.636,-0.2617041766504611,-3.2656715616455028,1.0991094226995344,0.7503824310215288,-1.162459434131144,6.743690018315152,6.786544785175152,-6.182464439274683
0.64,0.24467657812377652,-1.0373392252601854,3.0346138733742354,1.9023502661488159,2.375425147181459,5.684087059417548,8.124388301254143,-6.317381826534466
0.644,2.049878901870024,2.700096993669104,6.860716466842252,3.778870002667933,6.742059108245478,4.112635224365955,10.12627516450443,-6.120678902506014
0.648,4.678092697327779,6.900351534472092,11.762681818712878,6.185505739757786,11.301127605624032,2.6751765011339788,12.067610553450004,-5.779187152817376
0.652,7.36360346303971,10.336336315646193,16.64928540356118,8.546606988457269,15.114116635198734,1.988108981920236,13.174389730306947,-5.6288019360997925
0.656,9.185064343588529,11.974344888753524,20.277553756826677,9.970910671729666,17.104499830271905,2.1121531305950456,12.67811594729599,-6.224207597200339
0.66,9.264233324628448,11.217847731024573,21.414319752368993,9.466604393376436,16.308528414136028,2.3146659327539454,9.866739857283115,-8.27250557020071
0.664,7.054046074290549,8.017397545291171,19.1800204026776,6.327753568919389,12.204687823863544,1.3599282057958741,4.288232789000554,-12.372132273439655
0.668,2.6003410190415406,2.8444510938776975,13.447566307718711,0.5277372302280068,5.001817199435924,-1.8142615517199787,-3.930049210836216,-18.62514625312206
0.672,-3.352554231305076,-3.4141156529958065,5.098288216800636,-7.069041818598175,-4.245536254608836,-7.394163016504216,-13.80331582241844,-26.301994061435572
0.676,-9.491977696345554,-9.586722446547757,-4.041424001215917,-14.808454691439623,-13.781398109107624,-14.353338649993423,-23.47215731026244,-33.79395483943575
0.68,-14.294742423110797,-14.386649691421452,-11.67769774209996,-20.691285513521574,-21.56431412579633,-20.724961395153954,-30.59285732457404,-38.992812075212086
0.684,-16.47984040174845,-16.633278276656036,-15.76679214716707,-23.00689713273673,-25.830879349537344,-24.360606501411016,-33.060070699735334,-40.023910205506496
0.6880000000000001,-15.427070384197904,-15.56974097021711,-15.27132437590277,-20.958713513829014,-25.651618720038634,-23.8522238250266,-29.82760263861234,-36.02755188102694
0.6920000000000001,-11.408174581900198,-11.191665350814278,-10.63116567866048,-15.016992104603718,-21.264825259115412,-19.174169513122944,-21.457757458736097,-27.60532052814092
0.6960000000000001,-5.516396874512401,-4.40299223402124,-3.6630514783969486,-6.8060982183302094,-14.01704199054049,-11.713695739727793,-10.07443999844747,-16.683531251677326
0.7000000000000001,0.6961179016698571,3.15366110394546,3.120549633342048,1.4638215975673785,-5.905453342631086,-3.682720143934575,1.337436379697194,-5.822820620261187
0.704,5.766427531328845,9.640486158030832,7.56569455934728,7.83231123822318,1.1424792996045516,2.8255693098881443,10.045365969584074,2.711406371942345
0.708,8.79597675661861,13.714667714524769,8.761409655861737,11.288683419921838,5.9336427998620636,6.639104651199206,14.560496088096713,7.708679078584154
0.712,9.651365965241348,15.035066864645009,7.30754970834762,12.009790591853294,8.33079460077334,7.797108311672561,15.030650135470713,9.272811973135424
0.716,8.851485438460728,14.331532014847445,4.869587120796545,11.058413491073207,9.113659382012031,7.2466449322474755,12.898973090499638,8.502814647765712
0.72,7.230753812117393,12.981941733955896,3.259844466802318,9.716777892611118,9.459608276765978,6.153325261962283,10.05234968592054,6.799973669676312
0.724,5.59752739285663,12.331629488912325,3.5877821158482535,8.845989403620285,10.335340702704539,5.2606818487531815,7.953759185576289,5.172242720066472
0.728,4.49782510134349,13.069997205503007,5.841080162896942,8.560038808168144,12.074578878934398,4.608669671329853,7.153139207699775,3.8999320625533
0.732,4.121198327996677,14.952384003817084,9.029572179307628,8.334214614693767,14.31412121063947,3.7019543098521135,7.337740894471666,2.6955589173127628
0.736,4.3362466497624705,16.98558953757475,11.762231871998816,7.442543055914211,16.2767769441618,1.982396795717973,7.787834935648077,1.1793338564780225
0.74,4.78974841941198,17.950388418647467,12.911068796041295,5.43909680616016,17.211319078039683,-0.7210298267910856,7.9070674879007,-0.6704269085549703
0.744,5.056387767093456,17.013245961706865,12.097366186571916,2.4544888426754428,16.779221208471906,-3.9997155948019056,7.547540976952492,-2.3949361713629624
0.748,4.778820972112947,14.09657799622187,9.74797922706356,-0.857226598289063,15.178633618357376,-7.055897425511245,6.964793773903303,-3.3232367781200454
0.752,3.7660918991280434,9.848127171149102,6.754022012501459,-3.6656173073641796,12.973140765470959,-9.142395125059481,6.497562925810001,-3.0298224507206095
0.756,2.05596632437178,5.28925592736467,3.985672935488694,-5.3736831701930585,10.761112696692734,-9.961785585255193,6.2424273491810585,-1.6747329882621678
0.76,-0.06951098475855488,1.3630954388312482,1.9234476633485453,-5.8662491889356705,8.882582724323932,-9.789478116833788,5.953047630904226,0.006919500075303731
0.764,-2.117025405295676,-1.3540115158857526,0.6210815141783037,-5.447660237931229,7.349377976113346,-9.221667577277842,5.250996395939026,1.071760759508078
0.768,-3.5171336737369527,-2.710154536863138,-0.11540798498056315,-4.576798353374502,5.980976991899428,-8.748075836808477,3.9711289548420523,0.8843443413040748
0.772,-3.8405794347521223,-2.857128381170752,-0.5101776385495578,-3.5899054952872955,4.632754294740218,-8.428544271159112,2.38273383529221,-0.5068839199315534
0.776,-2.9993903886532536,-2.075491676496653,-0.6942317532953028,-2.5668162165657202,3.364123027702966,-7.880776711554065,1.1238597012068055,-2.3563880095949363
0.78,-1.3302304730420982,-0.6770678779592982,-0.7331759656018757,-1.4056039363287862,2.429298440664263,-6.611668568458969,0.8775676808203094,-3.5955257533155613
0.784,0.5449777656385564,1.0287115843881693,-0.6629458207875962,0.012697369819639093,2.1399236373229202,-4.438414100192951,2.0010148865056405,-3.386356524541961
0.788,1.9996396825067633,2.7166743150292954,-0.5107216083034494,1.66212815194493,2.6662255932471552,-1.7536384271504506,4.300955978096806,-1.5503743972432549
0.792,2.667929577232977,4.0398784103052705,-0.29271119853925787,3.3023825371471314,3.898532985060953,0.5534904008191229,7.068430550161721,1.361319853701703
0.796,2.5623318376819935,4.684008188716522,0.006415691254587186,4.5449435268336575,5.469238023906811,1.5171723581341878,9.364590056006307,4.371444293497946
0.8,1.9732612382288548,4.45444910655281,0.40782210688450427,4.990499297212287,6.910336737334265,0.6111525921555936,10.40209524350044,6.5528385638648325
0.804,1.2535708724138788,3.368596096570643,0.9157404953491257,4.397947418787681,7.879250070996947,-1.9083024243496614,9.874414999662148,7.402303457347257
0.808,0.6121564429983306,1.6786524219827115,1.4831620484869097,2.7946084719563995,8.323139388722689,-5.067006272395864,8.066061639377576,6.9535376114777
0.812,0.030220005590328558,-0.21091861230232567,1.9892915331189809,0.48248098023802566,8.480421760332039,-7.635565306105005,5.69608960049606,5.624819534275131
0.8160000000000001,-0.6551562313855435,-1.8980761685998297,2.272742456737434,-2.049173818994441,8.723344926114198,-8.735842492731482,3.5909820493734506,3.939289702440338
0.8200000000000001,-1.5733618206217663,-3.132977362734157,2.1971105300512566,-4.281461516953708,9.317322484567422,-8.273233639641077,2.3387320393827284,2.3002672490987273
0.8240000000000001,-2.652374557842913,-3.869275759655631,1.762313063089037,-5.8109021179332885,10.245173156084338,-6.928821965081301,2.088897498868789,0.910022000190065
0.8280000000000001,-3.598347037281002,-4.219794332778534,1.1351647080981273,-6.4660512223270565,11.171567714265905,-5.741220571486828,2.5490993241408457,-0.16369780040451376
0.8320000000000001,-4.061126479709609,-4.363791027816388,0.5433069076505799,-6.364102605477783,11.56185066665495,-5.515094491984275,3.150370987943704,-0.8737270225964577
0.836,-3.871852525300973,-4.456311210967187,0.10808281387344998,-5.863688059419069,10.912173665961877,-6.3796292204329745,3.3069500939253302,-1.13941503686945
0.84,-3.2009524069066,-4.586064501030613,-0.2928459718007561,-5.422074633946718,8.976509107624064,-7.756498038931062,2.6568098499394557,-0.8932499581100024
0.844,-2.4828466512644876,-4.758860534492891,-0.964587352519584,-5.361696979946498,5.914803979358181,-8.706669746006641,1.2208255847323697,-0.1903291478475393
0.848,-2.15715469990684,-4.923720323761905,-2.189248238222927,-5.68061250367067,2.2790512863002435,-8.468943039973508,-0.6040272653648626,0.7297965153739914
0.852,-2.3977282384468595,-5.037955001887363,-4.013412139858223,-6.039296172811974,-1.1728972889609928,-6.890193279677502,-2.2288797903449655,1.505160452200954
0.856,-3.0038992752164386,-5.136591953694474,-6.160837780576649,-5.954187653043284,-3.7570179836936495,-4.503607084806944,-3.1582278620546322,1.819212245305022
0.86,-3.5436073983245002,-5.379988199892038,-8.175569982615379,-5.125130230181545,-5.132253658650859,-2.2491579699076896,-3.2553988030713676,1.5669223886760353
0.864,-3.6346219038551,-6.016481579487391,-9.66184450399155,-3.6781127322166514,-5.415896410883856,-0.9705671507953715,-2.822109327580308,0.9038656931966131
0.868,-3.212898731083243,-7.278772569179348,-10.513374110165516,-2.181338319847156,-5.109507956387321,-0.9933366017952217,-2.4686795195918556,0.14250692883078786
0.872,-2.6220210152151413,-9.252926181421174,-10.99419289691824,-1.3961698429536993,-4.871439466616718,-2.0118684347640836,-2.8348546590195447,-0.44469749185614305
0.876,-2.4516818645754537,-11.782280089393412,-11.592202513161597,-1.8709735222431636,-5.230115513037431,-3.320346760494133,-4.297293704034567,-0.7917934973258483
0.88,-3.211136399847642,-14.469105642544292,-12.740768838642413,-3.6148678015792504,-6.3719350416482925,-4.247162532771007,-6.803860806085707,-1.06376503414028
0.884,-4.9925117739168865,-16.76726070152392,-14.51089088049962,-6.027741760309592,-8.073481472559603,-4.5133849662687116,-9.886651199072393,-1.5392975379931677
0.888,-7.3493915351296275,-18.163123894640844,-16.498864281517587,-8.180326011852678,-9.827805752954188,-4.343293838123704,-12.861649531411315,-2.4242064959220677
0.892,-9.47160382552152,-18.373270148854484,-17.99390632470631,-9.30157405979976,-11.089297748516122,-4.277015555186842,-15.113198442293536,-3.6991661649391654
0.896,-10.564664070892984,-17.460228666798102,-18.333328146476028,-9.192470872007839,-11.514211638163724,-4.801412776908654,-16.31535529219901,-5.1039112352839116
0.9,-10.245579351114392,-15.810550721113975,-17.275528686939275,-8.334680600627893,-11.092897063337803,-6.034943167566367,-16.51168766236944,-6.270493984221185
0.904,-8.700472543757378,-13.946977830446631,-15.114483394743813,-7.567966140315211,-10.087188615043782,-7.606385584464796,-16.012091025045162,-6.929027637398949
0.908,-6.555449802421912,-12.289636535740875,-12.51109302836831,-7.544888096200168,-8.844044840822566,-8.813901094761139,-15.195717662653724,-7.0597507079936985
0.912,-4.538002252232323,-10.984463820820773,-10.145945475421726,-8.283986961912454,-7.597976224796477,-8.971595214471142,-14.33104323899329,-6.8881390848865305
0.916,-3.1184145937869663,-9.885448955508249,-8.38929219591755,-9.10064637081051,-6.374397961072216,-7.748389199460449,-13.50239915173705,-6.718422862508616
0.92,-2.338917709483159,-8.713127155304822,-7.2084539563065535,-9.001541022147272,-5.064914107991328,-5.3519756047345135,-12.672863802706182,-6.712344964011479
0.924,-1.8728301915224002,-7.268408229584236,-6.289194020058697,-7.289134717297326,-3.590545910648454,-2.4388853058211653,-11.780748910564302,-6.756445459690032
0.928,-1.2777341793502965,-5.597322065846004,-5.311775066737853,-4.04080334329634,-2.0627281311156533,0.17249647705739157,-10.819597014478706,-6.504725811180045
0.932,-0.2947134402108933,-4.017180372496449,-4.207575109572316,-0.1700054865055005,-0.8355330078258287,1.8388310582598208,-9.86107921317229,-5.5807625876472216
0.936,0.9711187096649834,-2.996735032453703,-3.2326674546235683,2.9896433069895494,-0.3907576216129449,2.3237576716597097,-9.028200845969712,-3.8282175433531016
0.9400000000000001,2.071191648035498,-2.9609848313718743,-2.8454828903448384,4.338472213147213,-1.1173972293307095,1.8067824755847468,-8.459220556904913,-1.4656791242997613
0.9440000000000001,2.4469955857936867,-4.089463471614476,-3.4054673874866364,3.5714080738366043,-3.0765321534124226,0.7346506939632089,-8.251535932141469,0.939040934739424
0.9480000000000001,1.733442218144285,-6.2180482773631995,-4.90511703623706,1.3188706005810102,-5.892860469442318,-0.399235692446676,-8.413759180268706,2.676472131812691
0.9520000000000001,-0.02454656459485438,-8.879127383046242,-6.898312255966543,-1.2067256606198324,-8.844424842352272,-1.2383934014864035,-8.844294654304504,3.1883371604845046
0.9560000000000001,-2.3460106134393746,-11.448227659237073,-8.658106809378921,-2.851361252051575,-11.116236005191087,-1.6319499112911569,-9.338521790544037,2.2978707587566674
0.96,-4.503961601321786,-13.340217085282603,-9.507587673816143,-3.0950763997141255,-12.113519317860952,-1.6092297474397945,-9.642851683912873,0.2737910466493676
0.964,-5.809666769158026,-14.160359653962125,-9.092557967237624,-2.222150454884371,-11.67350630097868,-1.279169245241448,-9.52035433493162,-2.312072632052246
0.968,-5.871977205975792,-13.779580603688999,-7.478777905195027,-1.03325086023559,-10.086237181265012,-0.7534868004917801,-8.831476857883793,-4.840527563832197
0.972,-4.724569828388722,-12.335894398298901,-5.052669891373585,-0.30314995752434193,-7.925998312959445,-0.12975635980391864,-7.609501038729466,-6.879570215019175
0.976,-2.7744438253011054,-10.176023267919806,-2.2980013727504973,-0.3088619119992728,-5.773387466343452,0.49224871578314033,-6.0760355970030915,-8.276083776535827
0.98,-0.6240411894848163,-7.768902375638455,0.38145819937489334,-0.7209038383838431,-3.976252829348137,0.9805407450684234,-4.581951807689478,-9.074534105502831
0.984,1.1821303622273907,-5.5774995786081165,2.760909968681176,-0.8629118421284812,-2.5376884106189928,1.2113627768154176,-3.450648399263983,-9.340401444265904
0.988,2.3672170309002043,-3.9273998728137034,4.766472993480634,-0.17100376552713392,-1.1857104350375343,1.1553218747191423,-2.8070102726002233,-9.00610308616605
0.992,2.9996041547237966,-2.912817717080383,6.37245413700788,1.4325354691546788,0.41877440475971606,0.9536488699931231,-2.492498835866332,-7.84386935899807
0.996,3.4047519261112784,-2.390502710973875,7.51295689764676,3.4680945703174233,2.438785723473617,0.9209931168517214,-2.1270263650691676,-5.596768133581534
1.0,3.9425607286604807,-2.0878635462274477,8.035178071698503,5.142109776996373,4.688199349242246,1.4147388209578242,-1.3268132897430593,-2.2005938087293337
1.004,4.797645468965866,-1.756827653100387,7.778768359993714,5.778329974673988,6.644687886801861,2.6528036276833293,0.062241777211656135,2.020696498187501
1.008,5.872242344917631,-1.3165638949659046,6.696815931557788,5.164481155942479,7.644710246692707,4.558601719926825,1.8315808248927912,6.314627111840144
1.012,6.837097345249543,-0.9119807192420797,4.932668712286162,3.626547114392205,7.1706792503573284,6.733665520919774,3.4704965022615077,9.677505931201319
1.016,7.319822906173495,-0.8428936355670897,2.8073826361889065,1.822279199176899,5.103667952443711,8.599815575876466,4.395708495070188,11.20182942402726
1.02,7.106785614814133,-1.409852611863668,0.6823701759135723,0.37523586232186545,1.7989313119213044,9.624930046212674,4.2233149914489925,10.454760358162236
1.024,6.285111564904911,-2.7273523042499317,-1.1696688818269614,-0.40473875026082595,-2.0394508652117374,9.5579165155962,2.9745310321591614,7.705038299102003
1.028,5.225888739936316,-4.6299215389066735,-2.648394930421743,-0.5967564935238627,-5.646075837193127,8.529698635478283,1.0842279176374134,3.8801113187208083
1.032,4.392517419808961,-6.728513761308495,-3.834712552625957,-0.5455359417553414,-8.51244373792629,6.966202914409225,-0.7938708327675084,0.2458205850118964
1.036,4.078539046814102,-8.584386431864637,-4.916730772771098,-0.638042744668228,-10.56431602160363,5.3743289507658165,-2.0829328690703717,-2.0637717647497285
1.04,4.2105030082295745,-9.918236350180155,-6.106636068900819,-1.1369373486035297,-12.113876967468933,4.104573082777181,-2.5369851345619567,-2.461358245778988
1.044,4.367014450140177,-10.706203918849022,-7.523516523766048,-2.1143003476912288,-13.584455861130248,3.249844359089124,-2.2998402041417503,-1.1054613888672145
1.048,4.009492210485094,-11.113709390102642,-9.103293760686771,-3.477527743677147,-15.16695231061735,2.7028490833609737,-1.756328171217615,1.2008887652943199
1.052,2.8208916229717316,-11.3092324732324,-10.56980225426615,-5.017463693359846,-16.59975292499257,2.3192048834253844,-1.2697112484718693,3.3726026677150855
1.056,0.9680602193701813,-11.278823681976913,-11.47824293960266,-6.426654142096908,-17.203369432447296,2.075139112294069,-0.9606425688919715,4.515904743691789
1.06,-0.900682338677061,-10.787466303929971,-11.373088937515673,-7.318814161633807,-16.19460326359051,2.079048452054142,-0.6662058625627145,4.305244870366916
1.064,-1.9101345726094068,-9.504532144058148,-9.956742030721045,-7.264755291442858,-13.104064982582834,2.4625752082450347,-0.059099753458387694,3.101255935193699
1.068,-1.364440548972595,-7.244409306938882,-7.24171804354967,-5.9141546144165815,-8.093627458453046,3.2114225309628983,1.1285512241414508,1.7604928589458182
1.072,0.8948089588016764,-4.1756874423143495,-3.6175140289283645,-3.1882944135903624,-2.0020623333534093,4.066997889240864,2.908669026428737,1.2313329721613329
1.076,4.382707921055685,-0.8491876118500139,0.22739964953389968,0.5706391748018633,3.928062827605035,4.60686429787817,4.984644744405333,2.1302495448996246
1.08,8.14832181632914,1.9749076348762094,3.4737675490044557,4.58101198393606,8.491589645281792,4.451708811686968,6.838483742120234,4.477965950114439
1.084,11.175955248367305,3.655469461351381,5.440902955040176,7.832113925473443,10.939800102359792,3.5082261081287944,7.94266573843063,7.693408000426977
1.088,12.792088677454183,3.973570460427476,5.82385168291276,9.463576579397365,11.182336869662201,2.0793590813095744,7.9940913441977965,10.836796680840273
1.092,12.876605388867834,3.243146744295732,4.79243659054511,9.145391471572252,9.70821581395298,0.7544308477901636,7.050336743855708,12.984613248451575
1.096,11.801492964693798,2.1652565945254945,2.9144872301454647,7.263346381607326,7.310809212941065,0.1271556991179395,5.515725968043036,13.586742454477882
1.1,10.13540634913494,1.474112004009041,0.8844995935593796,4.7602791728072775,4.754428928703082,0.4586492251225972,3.975750077910056,12.662793887400785
1.104,8.333227580809405,1.5840546932712556,-0.7468923587026324,2.7179314323782995,2.5603249718802896,1.511793918670984,2.9807703738759836,10.762772325197648
1.108,6.579524358255041,2.417865189923404,-1.7307170096080453,1.874539933095959,0.9624454961486046,2.653544293095429,2.8613004797022357,8.735262543466932
1.112,4.832275118315087,3.485940153575036,-2.1123447512411024,2.3049634290792316,-0.022283770072121456,3.1728156155558613,3.6293524377832194,7.396700241820351
1.116,2.9998147762008163,4.163545702420838,-2.0810783799213484,3.435444143260658,-0.49650490135264924,2.650741842002076,4.990309053178617,7.239262378684858
1.12,1.0893599096093076,4.0041307507779145,-1.8292320503245563,4.358586473295473,-0.6391455169891707,1.164655408010308,6.433515865388293,8.297754257642396
1.124,-0.7526921031476965,2.9489180373628705,-1.457257563794041,4.320946199019682,-0.6773345501763401,-0.7626170993331515,7.402928139518462,10.19478227690241
1.1280000000000001,-2.326128214426186,1.3380029105579538,-0.9852682926680147,3.124055673617771,-0.8331424904024791,-2.44580283579708,7.476719623043326,12.319454047137508
1.1320000000000001,-3.4974768412146187,-0.25331942859763945,-0.4277484908690319,1.2373285157979477,-1.2238085619275343,-3.387635296416284,6.5088344699271286,14.053801005536162
1.1360000000000001,-4.255912744027844,-1.2554182004991743,0.1496261906498635,-0.43231948707986945,-1.7553552710240672,-3.503522322155853,4.674807374554868,14.95547844853445
1.1400000000000001,-4.684916181996615,-1.3303421717657447,0.606978900195017,-1.0147587962650446,-2.1116928075057864,-3.12984332045131,2.377809730134361,14.843616254270806
1.1440000000000001,-4.855229969299707,-0.4746575429599318,0.8173199663821125,-0.12357862180022572,-1.8785205687819317,-2.8001502557585534,0.08325989631164177,13.769117563459098
1.1480000000000001,-4.74265194960452,1.0218806082777245,0.7858008126014084,1.9437217591150873,-0.7794311115194379,-2.9421364864203228,-1.8375800026540894,11.925239024489862
1.1520000000000001,-4.250436932600229,2.7205855565043926,0.7110115164421504,4.345055734667529,1.1085745017041155,-3.6677796353205157,-3.191808698123971,9.565555579031738
1.156,-3.3319581499405055,4.21109095201124,0.9303825379484199,6.0998780637482,3.3142136354073024,-4.747026147307327,-3.9404874543792197,6.97691553505544
1.16,-2.1416191129122772,5.2370540688208465,1.7183064277635012,6.5318696275518136,5.151263180116107,-5.783682041702859,-4.116694181136477,4.506293454759152
1.164,-1.0653023055045931,5.752019163865491,3.097174047253496,5.557367259968405,6.06370900019013,-6.455815822181518,-3.735253942364011,2.5753991914410506
1.168,-0.5743393183426235,5.890124612546767,4.760725269565125,3.6759241345704012,5.932745299952529,-6.679621124336322,-2.7699451097115038,1.6271059865582789
1.172,-0.9675224416914965,5.865131282704382,6.1699893361584905,1.6846888015188117,5.138363477551614,-6.610204169152815,-1.215875360876911,1.989492889904536
1.176,-2.1597479070187102,5.834900828687418,6.785575688478591,0.2822520009742533,4.316126431966566,-6.487045184561236,0.79774060511423,3.7139435484602563
1.18,-3.6846472209741226,5.766899823433164,6.269066161867297,-0.26010123832961085,3.9185544557738865,-6.4620739211256515,2.9183387724702676,6.487726066603557
1.184,-4.914325757946125,5.402524166712464,4.606362641988934,-0.1759467901832359,3.8732757278376617,-6.490361894512602,4.617653409744154,9.68328651706842
1.188,-5.39272438616278,4.358234158238226,2.087933555459122,-0.016945995729530594,3.575765794576607,-6.365997496547112,5.387255267429854,12.552158924698322
1.192,-5.080370113028793,2.348405199624981,-0.8196233981819261,-0.30625889582272814,2.268256349260398,-5.873749963484858,4.993065176152417,14.488008980332815
1.196,-4.363162973375709,-0.5820339132366836,-3.6331262119975785,-1.2284891267208584,-0.40165837703832485,-4.955893143884532,3.645048364144299,15.244359012042692
1.2,-3.8399413922944623,-3.9666769308566296,-6.005879209376064,-2.54915366650474,-4.007817709372187,-3.820402280607848,1.9439886615347235,14.999059029927023
1.204,-3.974682558478109,-7.01493480247304,-7.759697892343381,-3.7630757602768314,-7.397280144727267,-2.8839308254225147,0.6404951686938156,14.227064513022547
1.208,-4.83249063936915,-8.895475581346822,-8.834200011193012,-4.390689971679752,-9.194636022411656,-2.5838160825640433,0.3073732156726132,13.446179030416289
1.212,-6.038880441213066,-9.076287204439925,-9.20476497187794,-4.239321068578146,-8.495961516757554,-3.1420496270666565,1.0974895794780428,12.97659598171409
1.216,-6.979257862648169,-7.548587436505932,-8.827892599131395,-3.485157867651832,-5.35808086046716,-4.40437259433069,2.717447141016938,12.840225840128003
1.22,-7.140514653731403,-4.827848278329749,-7.688676972938705,-2.561411128012782,-0.8047933069167172,-5.880609700009446,4.598379243283023,12.84947027391169
1.224,-6.360235794555216,-1.7014177300149256,-5.856113939568997,-1.89632694670813,3.6854025839023397,-6.950428455244361,6.178974759196867,12.801840039555474
1.228,-4.856541260069831,1.1455867129778008,-3.50917964928587,-1.6634708575303145,6.916844800142316,-7.160702937687314,7.1363190823175255,12.650395451037848
1.232,-3.0415830152500933,3.430882450074476,-0.8995100600537835,-1.6834102891168001,8.529255586329707,-6.4581810668027835,7.457683767290343,12.541199453889604
1.236,-1.2497190352369936,5.342553792792855,1.7338486455522615,-1.5197511699897515,9.06515063989514,-5.2210471369755,7.349415156584775,12.709678814306358
1.24,0.4204387852543281,7.325710190194327,4.198870180959233,-0.734542728753226,9.520838653965711,-4.091937373831675,7.051694509992668,13.319048838218794
1.244,2.08196379444954,9.729025563441658,6.3557318006415855,0.8605355370545649,10.677319558306026,-3.647321062561062,6.713901225093507,14.33360069689091
1.248,3.888465512462254,12.523347539246974,8.077395543140216,3.0856532101176573,12.602305648794928,-4.077136205280311,6.395041598280136,15.509479276439466
1.252,5.848842150614738,15.260740596857962,9.214212556894264,5.463548902092573,14.609855670910214,-5.049157643054213,6.1639397940146825,16.511534564234225
1.256,7.7520299910275225,17.285796272441832,9.603257750766627,7.421803220139551,15.66840441586935,-5.844408998790174,6.180278118055497,17.076868541750102
1.26,9.22782639876044,18.055322230503002,9.097417350521692,8.495227436530289,14.978403551036305,-5.736745138286407,6.642513115212148,17.133286252883998
1.264,9.928026472326684,17.411216065810578,7.66194838026213,8.4655098102719,12.406154138646135,-4.392734228861702,7.644399616451906,16.805466814552663
1.268,9.70542120904306,15.650698743189919,5.46890875289054,7.388301373626903,8.537712913058122,-2.0913062070490445,9.024435528856356,16.311864457731524
1.272,8.67827184804638,13.355862079241376,2.913910048622201,5.52322993178575,4.347595846321945,0.36311295547411504,10.334424211344576,15.816313995592852
1.276,7.152463085794247,11.089782751783753,0.5145348907498066,3.2248353451144824,0.7016370781070664,2.021066332705257,10.99547947945943,15.327619114585517
1.28,5.434495690073833,9.107839497938231,-1.327462480359547,0.8225585923286785,-2.033020312891216,2.2453883335831497,10.551276352718498,14.709085064636543
1.284,3.6806268700681533,7.2599849363153375,-2.5384563868237664,-1.4480155754807895,-4.060310615444708,1.026752480371195,8.90435420692695,13.768440414310945
1.288,1.8687119079684955,5.123321321488234,-3.4445674969297473,-3.4681539133995747,-5.915014717273757,-1.032212903404667,6.38571732011593,12.367961441448449
1.292,-0.09788031397296382,2.290330908798845,-4.616912140957627,-5.213878466801338,-8.07349829156239,-3.045484407629863,3.6166350041651665,10.499138747971712
1.296,-2.230365484672163,-1.338515084110866,-6.532578961277185,-6.7003359791374635,-10.628976330300496,-4.294907884450029,1.2329391483590033,8.301641336547481
1.3,-4.374419075298376,-5.430067236358441,-9.260799319414938,-7.940480431856944,-13.209826784720503,-4.583968428488236,-0.3977725683109181,6.0376151082797875
1.304,-6.226532059766113,-9.287023503982324,-12.291772962713448,-8.88580815969025,-15.127315255271387,-4.267182732324247,-1.2875895290586246,4.02744205659028
1.308,-7.451404979121966,-12.078677532147157,-14.642646379303697,-9.392586384988284,-15.661796963716808,-3.9681739563163174,-1.7135447104060662,2.5652241602410797
1.312,-7.820918164927951,-13.121789329463933,-15.216743157149596,-9.237211160015763,-14.341586630036948,-4.157637176677022,-1.9688159563127428,1.8300719713710643
1.316,-7.293450726285174,-12.100623043782916,-13.27261669334424,-8.195026440447204,-11.111570929962173,-4.847725726442533,-2.154291403803099,1.8092385804254465
1.32,-6.041053068355495,-9.183581888037367,-8.838762080003542,-6.196505691002912,-6.374828522155953,-5.61267163414369,-2.160316095628392,2.2793141567468442
1.324,-4.3905158627434835,-4.976569880822076,-2.805655118220179,-3.442781146920881,-0.8928838769239862,-5.87504054918066,-1.811109948420329,2.8746295590467046
1.328,-2.7138379220096214,-0.34593579866711277,3.3529673232187927,-0.41227387515280967,4.405307894417854,-5.281518675764367,-1.0619116964115936,3.2412446487239484
1.332,-1.3203794291988458,3.81976986180677,8.119427968969605,2.2771460442770963,8.648805622231663,-3.9252104667081453,-0.10256840543274226,3.212580614183781
1.336,-0.381856713816616,6.835312162604066,10.493329119036552,4.103872495449919,11.23555505269436,-2.264149247121333,0.7108010872177033,2.9170959977192252
1.34,0.07440046300299485,8.341004331185125,10.269655880665304,4.8343450871739755,11.94897515031816,-0.8253583047320567,1.0306398019366378,2.7385740369837097
1.344,0.14688380885944952,8.331351883452557,7.988287399166758,4.6007895173545705,10.975487237943646,0.1378094128838967,0.7005315933195204,3.104536430561613
1.348,0.03282154265093995,7.102574110291271,4.610527184764318,3.819840163388831,8.816667877665093,0.7919928868391497,-0.1697143303835933,4.199508293235811
1.352,-0.0015283885764110217,5.151374055147826,1.123753632509402,2.997476730190492,6.131158338547259,1.5834327097045273,-1.2645681877106378,5.773368181499675
1.356,0.3270649783647954,3.0582234200327325,-1.7297557784181254,2.5245375284441423,3.565220982408098,2.9090262231653066,-2.197973864322646,7.197748266698043
1.36,1.212806038564449,1.3537995485014702,-3.567826372119476,2.531250416288172,1.6024960515898652,4.784737731010125,-2.6481567028096658,7.7966108652719965
1.364,2.662130917010963,0.4041262197622446,-4.30077714978863,2.886107327244834,0.49224948052139084,6.764870665569285,-2.3922303888452827,7.284790536942819
1.368,4.4420915282455065,0.3168955710813268,-4.022971415332979,3.301711554324924,0.23637647755382396,8.156230094040616,-1.261934003279467,6.046893707113798
1.372,6.110190033235273,0.8814685015426704,-2.9727545861652898,3.461874607898445,0.6016605635756038,8.394724702706547,0.8707723340213147,5.0359466243349775
1.3760000000000001,7.131257022788594,1.57014500345813,-1.5771758402522744,3.0999980280479047,1.141542462797842,7.353934167881464,3.9918279523075473,5.278515291012466
1.3800000000000001,7.00506905918327,1.599852201539587,-0.5572759870424058,1.9750517340923506,1.215544578901591,5.3598583556940556,7.709505042457372,7.2135830313846325
1.3840000000000001,5.39210114937063,0.11814242886428117,-0.8798384064395279,-0.1620425705083326,0.08204791849359383,2.935599337160392,11.060655025437395,10.230087401280375
1.3880000000000001,2.1934134755576356,-3.5092403597791715,-3.487348537438411,-3.5386567474080075,-2.9072583331615895,0.4374777956620033,12.56893951773753,12.708877580092256
1.3920000000000001,-2.4326823415332974,-9.399008705032273,-8.867715723343183,-8.234935157616986,-8.037076003233922,-2.1640734797756194,10.668662653417087,12.632104488776346
1.3960000000000001,-8.091776012436165,-16.955181306898016,-16.650350886813563,-14.000248771647477,-14.973055830531415,-5.196933221965363,4.399117602689419,8.521919567751658
1.4000000000000001,-14.215061026017189,-24.91781563934881,-25.513861053534214,-20.16861725769931,-22.676194365531224,-8.9682425695755,-5.947637592669885,0.26541919555657767
1.4040000000000001,-20.104738707867366,-31.660054109303665,-33.464839295533494,-25.73110150477934,-29.562887972986754,-13.383725324428603,-18.560764330324425,-10.615161793393586
1.408,-24.976134959838333,-35.65341383727345,-38.436794739791466,-29.586584441506037,-33.9156043657491,-17.770070741142522,-30.458856600197024,-21.419209853723803
1.412,-28.026169759471223,-35.93664329307271,-38.97160675018735,-30.886522997846928,-34.41999287857348,-21.037755670776008,-38.40579777130898,-29.26636077878019
1.416,-28.56190607488032,-32.41345437254808,-34.71063510493788,-29.323178526214594,-30.632183263131783,-22.114805471618077,-40.05768338541874,-32.18244173451423
1.42,-26.213473853956526,-25.878921640917792,-26.5477259401858,-25.248290520828945,-23.19956063204554,-20.447855927598546,-34.877841687388496,-29.766834250115256
1.424,-21.133168714228116,-17.7477753910576,-16.334009340017413,-19.538189795279184,-13.708216937541,-16.270567818515833,-24.370319236454428,-23.17768433497043
1.428,-14.092700554767202,-9.610669385022824,-6.286816594255187,-13.285981970579572,-4.210009427456602,-10.523058372144375,-11.517109993792435,-14.508213469270903
1.432,-6.377908055573822,-2.7815030915982035,1.6819784770280304,-7.4507163793245335,3.4157184963741516,-4.467172359718193,0.3486472592668113,-5.896305901847907
1.436,0.5257905223716186,2.0069898986287322,6.487799928668,-2.619585769093897,8.04150401461022,0.7988150831143166,8.740746109538083,1.2132558040475017
1.44,5.3415956982305115,4.655932383448203,8.035375826903621,1.0114571994535102,9.5768141058196,4.662331883196092,12.764782455009541,6.366507965566736
1.444,7.3895494637455705,5.553255396627044,7.066108642291512,3.506260878441714,8.878995891762607,7.063094244691418,13.146960364939334,9.900725391484617
1.448,6.7941942647845766,5.321403089560194,4.775260258242944,5.003384314154911,7.32469738165806,8.318377267747346,11.610294298422108,12.454024164633465
1.452,4.416545013967891,4.570091390890223,2.3552398533033974,5.596465241656923,6.21842647794327,8.862096226351508,9.95345137213484,14.485034162170894
1.456,1.5235091261294862,3.726005309612168,0.6189186666676445,5.332502153045303,6.277055772391874,9.053136885262829,9.279000777287688,16.03961118059594
1.46,-0.6991379719304753,2.9500935862896474,-0.23672183486721998,4.272965315548107,7.374707292079076,9.093290312031268,9.66692425985545,16.83259523922922
1.464,-1.575775139362194,2.1621644383439977,-0.6003105149500927,2.5797468507871892,8.67963408250346,9.06282985196941,10.396028079005623,16.525169922729194
1.468,-1.14115220969419,1.1479125021133036,-1.1708575114541908,0.5520245055137818,9.115858246793277,8.982448384334193,10.518087286862668,14.995624740120064
1.472,-0.033171705015734076,-0.2872436596822072,-2.534436857704102,-1.412893179040919,7.944200561763777,8.845179557701748,9.456155793610435,12.450766118607072
1.476,0.8591113156772865,-2.1674309159140366,-4.775091966080923,-2.917802811322058,5.193553568548268,8.614114159826668,7.325143682364347,9.344112471716263
1.48,0.8032287538519398,-4.2850550021454445,-7.3637328754104905,-3.7060190557727126,1.7055568011750144,8.192567912324922,4.821595826963687,6.172087700364336
1.484,-0.45873080518693987,-6.234583760796934,-9.340899729733781,-3.7442842775664396,-1.2167008670293007,7.456369262236409,2.8202813646110516,3.269376543792605
1.488,-2.6074383266810965,-7.538696376204211,-9.7420867296475,-3.2160066068970057,-2.392994201692262,6.338038062030215,1.9126338764584654,0.7087298859623563
1.492,-4.887051935631501,-7.813594611717757,-8.060159855844937,-2.4208906714508047,-1.2924285669566262,4.916266988345228,2.1503486051264824,-1.652407640841115
1.496,-6.426240808455195,-6.909752520765039,-4.514625896864949,-1.6335902380375584,1.7579958189311946,3.4413452306664603,3.1004899526061767,-4.012937203383404
1.5,-6.624280329680925,-4.984858011683432,-0.03257787698045078,-1.0099150335438325,5.761644972222498,2.222456189665909,4.116636212141298,-6.429972541190183
1.504,-5.4091663684195685,-2.44562588201887,4.127386498302435,-0.5402759404617266,9.542211641442448,1.4656262077297675,4.6976910469626025,-8.689417768628163
1.508,-3.2608667146709562,0.21161889618191143,6.917066516602411,-0.07519600615394051,12.26355392214078,1.1448853456767898,4.733762883995874,-10.31659700842555
1.512,-0.992213709088368,2.5770514668998397,7.936770896659795,0.589884033166908,13.711939347746748,0.9920073797538933,4.515572820632708,-10.736597721639061
1.516,0.6153744769587615,4.436130067101219,7.560505687377868,1.6094994205722468,14.217744679689442,0.632535050446625,4.5250678140493035,-9.525829021979453
1.52,1.1363421829042002,5.748787076281327,6.64216599235201,2.98533609862343,14.289870674215376,-0.21854488906940817,5.113447909874513,-6.643187659437921
1.524,0.6698993195655507,6.5552359120808275,6.025142771453773,4.545411053785168,14.231231902398589,-1.576853923021043,6.272932191487225,-2.5357884730361047
1.528,-0.243590987742288,6.868319027974845,6.100640768766501,5.995210691088271,13.950476588965877,-3.1471702070077385,7.611791768636916,1.9334286199397255
1.532,-0.914864076834631,6.637774291257033,6.655557414950693,7.027710659756483,13.073836948839759,-4.439117543304196,8.549229529339549,5.734946960513003
1.536,-0.8648858683313919,5.8101654685032145,7.071791053611129,7.4477378914455645,11.263060316424472,-4.97378556822134,8.615202535395273,8.017341099217209
1.54,-0.11385066894629725,4.401614346058844,6.683025809220937,7.208246406980405,8.489111531589272,-4.5179435637707535,7.661300422052186,8.408351174781332
1.544,0.7848215689167277,2.545884775193784,5.134464742183153,6.380297949016228,5.108481295743229,-3.198428005022525,5.914344535686556,7.1359353824772995
1.548,0.990956954903954,0.4631556665934926,2.53887310071298,5.074023757213245,1.6903332961664068,-1.4615386503171186,3.846152372802066,4.910092108801997
1.552,-0.2052373576291595,-1.6461399431904071,-0.6317574012245699,3.366008179655404,-1.2868126439631657,0.0991244878630384,1.9404372658224867,2.6153749442094845
1.556,-3.0034158635226484,-3.717457560573112,-3.820880239186454,1.2848235368642422,-3.667936436847823,0.9709392608200402,0.48411564899506265,0.9584970216516817
1.56,-6.967536270415881,-5.882907079877642,-6.689051252502679,-1.155343743500655,-5.657209065095474,0.8842843557553735,-0.540659992954078,0.24020290406911382
1.564,-11.186245170060596,-8.389782360804222,-9.21552970009297,-3.870095165048509,-7.620690120339063,-0.11214677328708389,-1.3954833803435365,0.3316637951432193
1.568,-14.64901362476948,-11.414467547976457,-11.580587195508098,-6.640752075549882,-9.801351511046274,-1.692636130200254,-2.4164818612265497,0.8314083030900945
1.572,-16.64270946021457,-14.868702052580641,-13.91707744554505,-9.117672020356709,-12.12626197095635,-3.3822030381033454,-3.8337477951139736,1.2876410034710422
1.576,-16.98006023055626,-18.311827928364146,-16.099991753068146,-10.907981103671254,-14.218033200780738,-4.715441169419095,-5.67402791561509,1.3667424719294117
1.58,-15.995524869863932,-21.06156061001154,-17.760004399180858,-11.748868080403911,-15.614781254768445,-5.406771833904055,-7.802700311348419,0.9021664477790663
1.584,-14.312516835658046,-22.44227149588132,-18.463178321123785,-11.640611038569018,-16.0249740731885,-5.441936705505837,-10.02797631136901,-0.17011353583963718
1.588,-12.545807623586922,-22.066168322307973,-17.95741149108564,-10.874545479706914,-15.472376313436314,-5.072352852455474,-12.192510329920236,-1.9065750310968328
1.592,-11.088383645468827,-19.997691035029504,-16.323667883430183,-9.919153154270376,-14.251770276586122,-4.71047249325313,-14.181535642959156,-4.385740640095524
1.596,-10.058805817975548,-16.720779188278453,-13.934902707192615,-9.213570911590827,-12.734132460016903,-4.746850753859256,-15.859481411603515,-7.626199112854449
1.6,-9.413292134956789,-12.956275576267894,-11.295039358560812,-8.995258766798486,-11.17775746684289,-5.387472030523392,-17.02759325347278,-11.43424309879884
1.604,-9.072894648965883,-9.391773750209705,-8.803334526982677,-9.20756549486551,-9.641460263730373,-6.543175002316715,-17.433813945963387,-15.299640544911552
1.608,-8.976203512934234,-6.461046781201726,-6.599339576736878,-9.535401951676004,-8.045269947253797,-7.848310634800822,-16.88385649119308,-18.45515465101925
1.612,-9.03645029437563,-4.2679972038965195,-4.571662761174232,-9.547719698397492,-6.3164494654295185,-8.806935189119596,-15.401330817523085,-20.116976311165494
1.616,-9.071229448585354,-2.670662252618219,-2.512052176484592,-8.882887531679035,-4.504676169391072,-8.997550148317782,-13.336365679033179,-19.814026469843526
1.62,-8.830546454596405,-1.4821409714753573,-0.362510157501851,-7.423054078228641,-2.817756000809095,-8.277844583503764,-11.353002709813218,-17.64182180850711
1.624,-8.11803873456894,-0.6467722381820531,1.6481780617382253,-5.357452832662253,-1.5414032370194946,-6.857967739761447,-10.222220167984933,-14.30726697387399
1.6280000000000001,-6.946071680080907,-0.30094898772662626,3.051478952851804,-3.1347005415375095,-0.9102024151851444,-5.213566536097992,-10.49867529877358,-10.911501419284559
1.6320000000000001,-5.605767042347309,-0.695425740026955,3.3503990659296954,-1.3258707937325784,-1.0193227810960752,-3.875216014901522,-12.231979343234647,-8.545227089628119
1.6360000000000001,-4.5691241374111,-2.0240680898372956,2.2877080867770188,-0.4392019002479308,-1.8162233423628655,-3.18198934792866,-14.871940217883681,-7.864587182710062
1.6400000000000001,-4.2680847323742235,-4.279088585570419,-0.02782802927762562,-0.7696236718233762,-3.1785949553132067,-3.1430209157697204,-17.46128339259905,-8.827476143753987
1.6440000000000001,-4.844367692655133,-7.19334725759569,-3.1498800227882677,-2.292498074404876,-4.986268889938396,-3.4456868285120277,-19.027936148971868,-10.721099744860657
1.6480000000000001,-6.049535341822363,-10.307880574063319,-6.478470378934754,-4.651921849218461,-7.142518501593578,-3.624993388696866,-19.00186102975962,-12.48783476030399
1.6520000000000001,-7.371135040676532,-13.12496068358815,-9.48895141574201,-7.249287284112868,-9.524305786816207,-3.303702231330052,-17.44698890009127,-13.19877952801138
1.6560000000000001,-8.334012319754422,-15.27452358649903,-11.892896732267248,-9.420468508961438,-11.909545226912817,-2.3842579662949643,-15.00290057067436,-12.449630079029099
1.6600000000000001,-8.792988023276699,-16.615867296178894,-13.66384811878443,-10.659150290227684,-13.95784207834693,-1.1118376812120938,-12.554580803649651,-10.504915867815386
1.6640000000000001,-9.014000402723186,-17.218429647964907,-14.911799385185933,-10.794373423527697,-15.265304679447173,0.037689901398402226,-10.79558512842802,-8.134966838785527
1.668,-9.485091674924842,-17.260710875159578,-15.729022661527152,-10.057958475914369,-15.490244581737844,0.576857575882918,-9.928523455790094,-6.2209656482050715
1.672,-10.538939753423698,-16.891376198294672,-16.07505675743775,-8.982180023585752,-14.484263692707941,0.2299254047413828,-9.630857285211471,-5.335459991402088
1.676,-12.019118553969875,-16.12398969528693,-15.754447615076286,-8.15483305732736,-12.352100712469497,-0.9379819456741609,-9.285797413487334,-5.508257436912512
1.68,-13.232977457125314,-14.83387659287895,-14.51761819865551,-7.945190074893578,-9.414715095429148,-2.5485082058072077,-8.347004046302137,-6.271396427313782
1.684,-13.272486671807604,-12.875719866122333,-12.246752792372817,-8.344624789691142,-6.114643866363182,-4.086692540343904,-6.653041290092617,-6.938821873319222
1.688,-11.536931587263144,-10.25300313800244,-9.10659790656618,-9.00148111585098,-2.9088022849275883,-5.127657243462764,-4.522521946734798,-6.9683113714902305
1.692,-8.141818650599776,-7.227261560625436,-5.55906471440383,-9.422088783428585,-0.18779836382921616,-5.493146100090513,-2.5748375542888677,-6.2170486538428165
1.696,-3.95325208320799,-4.289860752077624,-2.217479018899252,-9.230316185754734,1.7681695622638722,-5.264673946658505,-1.3806112409677738,-4.969256560833247
1.7,-0.20981773297766537,-2.0125561956424534,0.3653140321379471,-8.36565353754445,2.7945384970028844,-4.670103905870978,-1.1570387087057679,-3.7386131462626455
1.704,2.0687886484278533,-0.8395461678530864,1.866408907858645,-7.115722313308886,2.837005270747497,-3.924276479827217,-1.6821897049127195,-2.958687933624594
1.708,2.5610186256650547,-0.914582382425408,2.2600375647026443,-5.965919973736413,1.9633410015957509,-3.119334430747358,-2.4526753565530512,-2.749051643618415
1.712,1.7570057538973156,-2.016078252877051,1.7832291172039056,-5.340507563508881,0.3909531631333927,-2.2215102482979,-2.973957120386414,-2.880353950545741
1.716,0.6474295900006188,-3.6395578262398054,0.8350392884702251,-5.372673705537418,-1.5123832731701587,-1.1675826637724578,-3.0174447182747626,-2.9410904578546653
1.72,0.15905917110317302,-5.195660410712943,-0.16166801961359312,-5.838219296148084,-3.296633051287005,0.006249403219387717,-2.701033146411982,-2.579174956362746
1.724,0.6530825511455092,-6.233970830847856,-0.9032579813279678,-6.28728804466684,-4.567068790981926,1.090663842199365,-2.372836113767611,-1.6611227526722434
1.728,1.7754438803973986,-6.582190687340514,-1.2888242309269993,-6.282097257544628,-5.124729327327712,1.7589167574657791,-2.370001021295675,-0.2681031608170912
1.732,2.7320351678226,-6.338465030864298,-1.4126630305140182,-5.601045675426828,-5.034281074401322,1.736556131287923,-2.7845578616997777,1.4334529108263556
1.736,2.7996348926686636,-5.745335376676776,-1.4764541064845913,-4.312611798559122,-4.579360650938891,0.9861151362284577,-3.3737687430739616,3.321006440513334
1.74,1.7493709354296385,-5.036405327141239,-1.679862871106688,-2.7053687753821025,-4.121130140431741,-0.21463498097295908,-3.673840031625989,5.360273233352175
1.744,-0.06468182176232773,-4.355282647324534,-2.149255790821398,-1.140127342167629,-3.9217217407298612,-1.368741386451564,-3.260139069943932,7.541725867615901
1.748,-1.9738838705260364,-3.774972626464903,-2.9093894584687203,0.08679698639416777,-4.022215141897331,-1.9919921178538424,-2.0141952622564947,9.75968205944347
1.752,-3.4228437404347707,-3.370416603580697,-3.8771327574316166,0.8130745671909407,-4.231812644933045,-1.8547288874897072,-0.23184683086583924,11.741489413736728
1.756,-4.2727391410425675,-3.255623176616724,-4.85614634136523,1.0208293960136672,-4.224785799446648,-1.0923845355227262,1.4911755146716033,13.096782177693854
1.76,-4.802529254451003,-3.539205677344662,-5.550391723145207,0.8066297814981986,-3.700691904091161,-0.12779277581841164,2.528731079913735,13.481526417182017
1.764,-5.443263511368434,-4.223294681121355,-5.633912149757444,0.34225293380049404,-2.5340958474103665,0.5515948162961699,2.506720346279905,12.778341515064275
1.768,-6.427877701315567,-5.098916984823249,-4.849684591555061,-0.14963817272290303,-0.8329143842613398,0.6474818371349019,1.4718228725974134,11.17720016758616
1.772,-7.575610141929804,-5.724874481409574,-3.100983138712106,-0.409296724428331,1.1202867453155498,0.19640266171408194,-0.12467047475279269,9.092466941441257
1.776,-8.347547549648725,-5.545981753288624,-0.5013554526837165,-0.17090202936003873,2.996593021002253,-0.4657502556395201,-1.6159043053596376,6.9564780662550625
1.78,-8.150199811108411,-4.136368221953046,2.614486417616116,0.7534104248362006,4.536778312468577,-0.9014635091382595,-2.404008577614256,5.030065191572382
1.784,-6.711562936438643,-1.468387787855697,5.708592837268723,2.3441450004854008,5.581478052897369,-0.8217410592310983,-2.234003090973598,3.3420040088835377
1.788,-4.29067440590018,1.9548409686795214,8.124348239798195,4.290376474743651,6.021063435418893,-0.23963041089126924,-1.3285461652210202,1.7769711952454956
1.792,-1.5887682747564424,5.217339874993151,9.252026467019505,6.029815335865678,5.727840697063101,0.5540167588443715,-0.30813141858255433,0.23276334593888826
1.796,0.5791536833581028,7.334242958988602,8.736262590337626,6.929320450449641,4.543658216279354,1.1730548877659375,0.07268600678985049,-1.275559298908414
1.8,1.6532621647938595,7.6709135824014005,6.633081639943704,6.533677879324017,2.3509688406067877,1.3592484474641242,-0.7360429686935648,-2.627023344479803
1.804,1.5326263417183554,6.231571916678517,3.424453666560838,4.760967285319941,-0.8001050389094673,1.1080619031469061,-2.8207498125524113,-3.6955444735808003
1.808,0.5370448434348578,3.6749100330847875,-0.12223242452962557,1.9548571530750938,-4.578002914787399,0.6387704584983882,-5.728912749359551,-4.444117579975032
1.812,-0.8115878734338251,1.039698266927233,-3.204391211929947,-1.234667994828173,-8.361869595926871,0.24074313244407253,-8.6116734134677,-4.928810195778425
1.816,-2.0167466207967526,-0.6783676345615253,-5.22787459849846,-4.07007358805502,-11.372904324193613,0.10834361162898531,-10.524968517760609,-5.191373671877258
1.82,-2.7312639260282676,-0.91795063483023,-5.968771026381299,-5.960288411989463,-12.920389350202875,0.2530835324075329,-10.7832365437914,-5.116271981839112
1.824,-2.762774171981393,0.25267080016290233,-5.6139397782062606,-6.623930374559169,-12.666854552000864,0.5259814126130283,-9.236500709463728,-4.376258781466679
1.828,-2.0192894787144366,2.218117827820424,-4.653115253194754,-6.1276124277138955,-10.787967544011886,0.7225780346431561,-6.340775079653527,-2.5588141045871926
1.832,-0.4876470616915194,4.12146116035811,-3.668987285493833,-4.809924549649797,-7.933823566065243,0.6991821744593661,-2.9725786477739993,0.5616031943149806
1.836,1.7199899620299202,5.240347131426224,-3.1089068555676933,-3.1358625342781794,-4.9869787853824,0.43721917414734235,-0.059244701413349254,4.760881947088339
1.84,4.273157194699202,5.2466090881397545,-3.1522579001078057,-1.5642404615858476,-2.733471431257195,0.02020924849937278,1.8005384012082102,9.284500022549098
1.844,6.581268674851129,4.241218756757866,-3.7233003713460815,-0.4696104081139305,-1.5895057923323135,-0.4409118670437068,2.547987078370642,13.057928581423894
1.848,7.906776230547729,2.5975600566483776,-4.600738067841696,-0.10698212588545886,-1.4964144749967954,-0.8673356092945843,2.6194174280707703,15.1085502935391
1.852,7.636465691847095,0.7298747955216638,-5.538063701078393,-0.581409309236498,-2.0187822449456556,-1.2119727254327683,2.677028371457247,14.986398086817156
1.856,5.609015231996027,-1.0696883725068476,-6.312500670373187,-1.8013767758255077,-2.572731621965149,-1.4053389711885693,3.258272811999683,12.959624086111656
1.86,2.300325789244175,-2.667997395199131,-6.71848395824227,-3.4553367422554286,-2.679700917505925,-1.306126629323455,4.514407864271055,9.872844866213141
1.864,-1.2749231416072822,-4.01799279879208,-6.559843649617584,-5.060968691906563,-2.1399219177218427,-0.7312392130980463,6.143172487721859,6.744065719133095
1.868,-3.9265167079572953,-5.045937858222748,-5.669575251560918,-6.095789100171939,-1.0543971003805748,0.4436314562951784,7.550737162880825,4.310156121898032
1.872,-4.766566569846976,-5.595954050610855,-3.9734960535961923,-6.185977637819213,0.28046047176694877,2.1594762052956833,8.151897141766085,2.735191149939448
1.8760000000000001,-3.5633072474620056,-5.463573022426663,-1.5499448342740823,-5.266766010199287,1.540036760053753,4.114908619074407,7.652968870958274,1.6203161239749866
1.8800000000000001,-0.8035698988576314,-4.495076157989486,1.353019240836952,-3.634141072043883,2.519861884263891,5.837628260333222,6.1783858261522795,0.30563799179152085
1.8840000000000001,2.5462058035323634,-2.6969420125526202,4.358221430244436,-1.8508147464849811,3.1971418850138926,6.86834490276166,4.1842444305928215,-1.6966098266467693
1.8880000000000001,5.46544039190857,-0.2797073560679939,7.068017892058846,-0.5255783716225113,3.697796275732655,6.973781035659705,2.2258104115712483,-4.374883192679076
1.8920000000000001,7.285521784083008,2.402449505675331,9.205353293718897,-0.05519061980640805,4.20868364758964,6.271939451013092,0.7159481189869128,-7.157147936251418
1.8960000000000001,7.89203371204766,4.984269314513409,10.717819617311008,-0.4467166947678409,4.890433369942089,5.193038548102186,-0.20215712264843066,-9.14236473392158
1.9000000000000001,7.640645959599272,7.207856663988103,11.764613976189121,-1.31850008919261,5.809057720749283,4.268281212232253,-0.6260245553626698,-9.505349760915532
1.9040000000000001,7.063098810837653,8.959569818592822,12.572421854105782,-2.09046913985047,6.896785474105804,3.8451921114773087,-0.7602555028379747,-7.875723496547511
1.9080000000000001,6.552194268455945,10.218675056110616,13.252177166948169,-2.2702169906836875,7.953289718382311,3.8875996756733455,-0.7688584095050235,-4.520617938513182
1.9120000000000001,6.1949671254358085,10.96877276098537,13.695089378872911,-1.6881069191040687,8.693426817561576,3.9845068931621452,-0.6880720467586663,-0.2603112105192187
1.9160000000000001,5.833973106876864,11.155533970768438,13.63072309411405,-0.5518545000118902,8.84309592076761,3.5896986843795524,-0.4175104248164283,3.8493155804576475
1.92,5.278752830263379,10.718040290409247,12.80147382533062,0.6896637526602598,8.250045441446987,2.3675136307294595,0.20349982770741626,6.936371434074676
1.924,4.499872455825873,9.655261882487643,11.124464545796464,1.5771402158093135,6.9572904809803315,0.44766727458941613,1.2751392847576044,8.654160752227028
1.928,3.685721143311711,8.08128331302228,8.755425835908557,1.859223564598084,5.205856313868601,-1.557012943794466,2.750859236534752,9.293661743422177
1.932,3.134273753381798,6.221763771533706,6.021884246734795,1.5964625677928677,3.3528816180877223,-2.800136669744048,4.428614730539545,9.609477788817275
1.936,3.0691547849170844,4.34633500275195,3.2761697758317623,1.121842892677865,1.7347802983782663,-2.592625742579709,6.01699978974088,10.424593216707375
1.94,3.4899357623901244,2.6623223486557763,0.7463551527043295,0.8830941448983802,0.5282295273606392,-0.7506271788685219,7.229392354861294,12.194385389247733
1.944,4.141576413745158,1.2238363612785652,-1.532233860947341,1.2421558397407968,-0.31944914002838987,2.2753842197966616,7.847694003411458,14.728976736077469
1.948,4.644907666425949,-0.05989606309551232,-3.6413824347294987,2.342640949205461,-1.0328178467971,5.579075004921425,7.749241670139591,17.224856117748686
1.952,4.71457776362484,-1.314209081287111,-5.605832204939452,4.088722710894543,-1.8422756820279815,8.19275429036667,6.9161390609569775,18.59660352048882
1.956,4.345528668151965,-2.542671622052958,-7.224154252384824,6.223504317121311,-2.7847965049381216,9.504040802574085,5.4426171096226446,17.957786389740924
1.96,3.8505179420516304,-3.53220857994143,-8.038826653484353,8.438865653834009,-3.5964871094005373,9.48282521446377,3.536293880544375,15.02614862708377
1.964,3.713288697104389,-3.901353370420163,-7.505413844720641,10.450877729390031,-3.7847894739806662,8.602436361936098,1.5024919844259332,10.258467610199009
1.968,4.346279681469314,-3.276192186471669,-5.279238034199493,12.035630690041643,-2.850821734770369,7.524840229384528,-0.2950679231947406,4.653934179945303
1.972,5.882556885601613,-1.5105044169695558,-1.4642590978047627,13.039634286194033,-0.5603895194173951,6.732565821983364,-1.4969431432649758,-0.6732462907854462
1.976,8.108217307212612,1.1810982575558069,3.33365993783817,13.395464843725938,2.884556073500754,6.314761792578709,-1.8230725255099713,-4.93584652072033
1.98,10.556366617673618,4.255269835020821,8.177119625054972,13.14008584239654,6.867983352815963,6.00554741317205,-1.1562304927142617,-7.9133654931571265
1.984,12.695768407641737,7.024451122535414,12.111942326979534,12.41317538556077,10.569677787181709,5.423721232316387,0.39261555502071843,-9.885868054608743
1.988,14.110449818985982,8.914547727695547,14.492088021742466,11.41760341720129,13.266089147152123,4.3560291457473435,2.4705450043233106,-11.341481743702138
1.992,14.594488544572432,9.665648752594663,15.165430749033826,10.341703153471164,14.568854952012686,2.906043288650861,4.5415279923247045,-12.656438352038874
1.996,14.15287243933566,9.388161133656238,14.45468291756173,9.28206076307698,14.498723510315115,1.4248997832537578,6.022860430147557,-13.929577101466881
2.0,12.934930007127658,8.45562120511537,12.948549123947764,8.204170790708359,13.378681564791973,0.2731776365341676,6.4536876417546925,-15.027753717442812
2.004,11.147536752387959,7.296755053942649,11.211193617861365,6.965230227977556,11.62656550705113,-0.43378567849821215,5.633974026174212,-15.76341315888862
2.008,9.006481457444373,6.210216415101905,9.565515406915203,5.407027433325755,9.576737922602454,-0.9214556401273479,3.69129919366616,-16.056573137755144
2.012,6.72103101146423,5.288258491817098,8.04013495611678,3.4682918419610806,7.417362389052782,-1.6187570509542928,1.051763002803545,-15.967807061179048
2.016,4.495016947062266,4.468753898812707,6.483890582874841,1.2623885929220071,5.246565696503884,-2.859198282928033,-1.6761982922712044,-15.601975510722637
2.02,2.5015260926624303,3.6460408279338297,4.7360353796582535,-0.930690783866118,3.160348084338181,-4.613759763384969,-3.888217399978531,-14.981202396509712
2.024,0.8202532607090194,2.746850612413776,2.731556546090152,-2.7707806212296244,1.2792707576658913,-6.429233096870153,-5.182850124112209,-14.004879285041461
2.028,-0.6087387678669414,1.7353298460921236,0.5059835978142573,-3.997773607270716,-0.30161028643059673,-7.6280345444108235,-5.489033063110641,-12.550639685445613
2.032,-1.9668412397253698,0.5696545039168219,-1.8663512860280154,-4.53167633624111,-1.5940430940685557,-7.6725625779343645,-5.069723577553599,-10.658793956653
2.036,-3.4405878540193218,-0.8110388426456341,-4.3036207059935,-4.470552063146865,-2.7323340152853763,-6.477705582228179,-4.385372808354884,-8.65419465576343
2.04,-5.0546260673358026,-2.4195748945068942,-6.67423061158143,-3.995721236098941,-3.869590024743622,-4.48927214552208,-3.861090704148632,-7.068352771007688
2.044,-6.5612679157814835,-4.098744795512509,-8.706712395582183,-3.2488489370383133,-5.000185617204526,-2.46594013288422,-3.6678693084511123,-6.3586953741924095
2.048,-7.467490651716823,-5.4296095319240525,-9.927830421002852,-2.2474233880190555,-5.820945283156276,-1.0753563059647657,-3.6184446995185033,-6.587050343664481
2.052,-7.217279466856251,-5.771800359644713,-9.727816611336252,-0.8831988883371726,-5.7593299870668675,-0.5332184920569075,-3.237221203831176,-7.277745970402583
2.056,-5.452108695143554,-4.482138639297198,-7.575686906499233,1.005205225569814,-4.21018659706119,-0.4918758626810744,-1.9899947173565016,-7.5972696814010465
2.06,-2.236148161281525,-1.2546383275304862,-3.332589417325222,3.510793072193992,-0.8961837627927574,-0.2701159065333536,0.40290650548366713,-6.804000766524608
2.064,1.8833905800571307,3.594544288671938,2.504815044712682,6.555435283186397,3.8519125023312086,0.700293678853739,3.72191642644433,-4.7192222723344575
2.068,6.0418830172331415,9.089261318886937,8.815790477914497,9.866923304696886,9.086843711496229,2.4803580627756823,7.226378609503383,-1.93214261035238
2.072,9.391773030728727,13.893536813630272,14.197468120835213,13.044869754829072,13.568787069038098,4.53000996635237,9.916238684498225,0.42881284877419734
2.076,11.451138343480476,16.853279863604826,17.524735138961624,15.685227577677164,16.293114919919706,5.996673648311553,10.977566917408135,1.2782686319420922
2.08,12.277355998516068,17.514690631450414,18.446014348126138,17.49597080511891,16.946566266230246,6.227103288750964,10.196663502072848,0.19739921306643993
2.084,12.363002960126574,16.329626819211292,17.526977569290036,18.34598052079172,16.02399690433046,5.201338373189132,8.110985710270413,-2.26489991900535
2.088,12.305989175828822,14.39887041741703,15.92722247823712,18.229961884339943,14.510779327772363,3.608506320434419,5.769134978183665,-4.831128864215158
2.092,12.421219935306953,12.848467996389555,14.741913618629306,17.170221989729136,13.273266306671747,2.465484815499383,4.167482873374326,-6.20347696572963
2.096,12.504219944344541,12.159861075886969,14.352715202628934,15.116583643977368,12.485123903269589,2.466397647188771,3.6352564476402387,-5.877531777231174
2.1,11.881912573376413,11.826096714776956,14.14357393777529,11.905512020715356,11.420401381082733,3.4296801719227705,3.5053999204400084,-4.586527382018996
2.104,9.72971540226132,10.551881491597833,12.760501477738831,7.311979808301858,8.760371926701515,4.199424559718247,2.299132960559415,-4.070155059948121
2.108,5.511629363349339,6.938043178664003,8.824033522067737,1.1940016881111188,3.2975160240798465,3.1356693930392288,-1.5976265030611285,-6.235873931608099
2.112,-0.662779162374671,0.3227304644710547,1.7521290342957894,-6.30474280753319,-5.296587403276996,-1.0003971531786138,-9.0394439608348,-12.09805085531177
2.116,-7.934328745011079,-8.659259992233075,-7.728278430309937,-14.582931344310605,-16.03566596102608,-8.209106954506701,-19.44556892862404,-21.04371760856148
2.12,-14.899950563897463,-18.121068753528082,-17.67172288220376,-22.543947442162846,-26.75810110400404,-16.943633239128854,-30.72693149948001,-30.835625397089537
2.124,-20.04510494045395,-25.589818958661155,-25.58851996963868,-28.75787127169306,-34.80982676944089,-24.561372791350735,-39.92075858078235,-38.40232034363563
2.128,-22.216197866874097,-28.98816360985972,-29.385591641453757,-31.809095111549965,-37.979779402213694,-28.375670056589733,-44.28782639289949,-41.068224673832624
2.132,-20.957442267554775,-27.460515639253913,-28.13750611843679,-30.742399385816867,-35.2874133806729,-26.824903168926834,-42.39250007421178,-37.66157358604971
2.136,-16.596627447943614,-21.650363809654362,-22.337833279910498,-25.440447779404096,-27.29516107450585,-20.18629456164548,-34.65655200078031,-28.992495783753387
2.14,-10.096212369270285,-13.34083933223516,-13.586415274003292,-16.782488047635766,-15.862873561936855,-10.483442740758122,-23.15182976951741,-17.497094541770704
2.144,-2.768728255256172,-4.684417476349232,-3.9328521075072875,-6.495165986621124,-3.498472617254278,-0.6305453824607676,-10.757242315020282,-6.240868025061251
2.148,4.050353556238232,2.591014985980314,4.808605803672423,3.3003473730584014,7.411085212282931,6.77247019152081,-0.08488860552457167,2.243353125708129
2.152,9.290075149326807,7.646025022163483,11.49140053318715,10.711019785855251,15.201263508146837,10.415526002352745,7.343221197344161,6.760247726205243
2.156,12.352373449988008,10.524931088551,15.728129976608585,14.645523723427747,19.207934263557448,10.601381017636118,11.343798480996522,7.596668056933359
2.16,13.209609900194833,11.792630303220893,17.71436745324685,15.11185722437773,19.709837213752994,8.81847854968579,12.718744430827307,6.0507880954649105
2.164,12.360944838995573,12.074530072811548,17.947126463603553,13.110172484082842,17.63406085196699,6.847296793258575,12.580315521427496,3.663008549464166
2.168,10.651089855196734,11.767317536548157,17.000184982096904,10.163316364739405,14.167731082400696,5.893230071773107,11.750887604066644,1.5493805330264308
2.172,8.978599141682732,11.025129317936514,15.415124640744985,7.675623724342547,10.406370701716945,6.162318367045502,10.523096382930444,0.12388301446073191
2.176,7.985633053095458,9.940813776552769,13.683731192482378,6.403561465962882,7.118941580105732,7.029029906034344,8.836965110313137,-0.754794903461705
2.18,7.831577420214799,8.72571055171817,12.228037788804823,6.244073715148944,4.639883992429489,7.59856851877515,6.65850275936716,-1.4056810379940599
2.184,8.140139942435969,7.722509999927636,11.331582002318843,6.407135303431896,2.8874663060206194,7.28775282245895,4.265023519722661,-1.9858931395789643
2.188,8.181080836185917,7.241116336451565,11.064081630219357,5.88946428062501,1.5071192538588742,6.11067651227694,2.250839061381478,-2.380989150582472
2.192,7.2345971745563595,7.341071893491723,11.270463148303914,4.021059559721095,0.10304006345145522,4.560371832993117,1.2609710683408983,-2.341108696752368
2.196,4.969936144236702,7.721315187467003,11.651288834583385,0.8263701674107322,-1.5263352774118402,3.2255954717566127,1.6306559118717696,-1.7311449798243372
2.2,1.6502376725196366,7.809173511777931,11.894081744039905,-2.9617627137114053,-3.252590746801719,2.4135665427310853,3.1775219048535464,-0.6962609792281609
2.204,-1.9452990425347603,7.020864074066099,11.78329476349817,-6.231508682910944,-4.650505220150221,2.0101391391025514,5.268248433690154,0.3912077925935791
2.208,-4.850887459540964,5.055806676455034,11.238749139232358,-7.9891815662947705,-5.200508810557288,1.6332918377595538,7.132273923315054,1.1597684779247786
2.212,-6.343473824461496,2.0662225367291445,10.27507867851757,-7.787438584966593,-4.572928085574249,0.9467533426733277,8.23597541237793,1.4819725089333797
2.216,-6.246194698483576,-1.3828750000294265,8.948067078176138,-5.887556394631503,-2.8400838661812102,-0.0852410052095145,8.500890527564774,1.5588846828156129
2.22,-4.963961785808547,-4.547319380477423,7.327694938043358,-3.107381546429884,-0.5061933614780934,-1.1748175591585408,8.242049023527416,1.7690145354062174
2.224,-3.2576520367067734,-6.810701981666539,5.507298769997288,-0.4549569099972548,1.676773053773251,-1.925529370623959,7.879841515852434,2.3714465356203136
2.228,-1.8846244344570988,-7.909726002264736,3.633967115900576,1.2660503365883342,3.0300215581067818,-2.1252429491142064,7.618268937228466,3.2447566933142653
2.232,-1.2878337196218537,-7.982461152141736,1.9091028594772563,1.7070393738916771,3.24236355799812,-1.9241001203011425,7.28763137523746,3.8373855795573624
2.236,-1.4674741859224039,-7.431126455642639,0.5471141291107005,1.013659885585156,2.500232098641641,-1.774145368589637,6.4651303722708935,3.39473593268617
2.24,-2.0685405201751994,-6.682055220162336,-0.2940158164182334,-0.3148473146597741,1.3933875271407459,-2.1597750383807877,4.791779846371065,1.364710316354353
2.244,-2.6071725953634743,-5.977260147531676,-0.5722965660908432,-1.6495979391343463,0.6354701466034509,-3.2884336750753813,2.2783673662050936,-2.2413655550052534
2.248,-2.6872957124312977,-5.287931469445066,-0.3553680336903575,-2.424429000916988,0.7418113809590157,-4.928554514008102,-0.5971706737296205,-6.74796705040559
2.2520000000000002,-2.1138018866016344,-4.384356779292486,0.24033692923783612,-2.2535026483023772,1.8097509648107337,-6.501975506517116,-3.0801801715855506,-11.062314686673972
2.2560000000000002,-0.8858236502165244,-3.0102386717328558,1.1277372877122476,-0.9848749031167392,3.4994138308347136,-7.376862306516092,-4.521159886790543,-14.154253529215664
2.2600000000000002,0.8736484113091869,-1.0670169379602847,2.2806755109527646,1.2815315127614948,5.212514259894825,-7.194782984707925,-4.7264012427678965,-15.514064432254091
2.2640000000000002,2.972508997189509,1.2784426283833727,3.682301180279402,4.188068862226945,6.370362692134625,-6.050814295240059,-4.064151770301972,-15.341218287182759
2.2680000000000002,5.161873008288632,3.620678368169569,5.237183876759553,7.149823035470749,6.6636640013914485,-4.435333175214143,-3.245289483360038,-14.365816753386605
2.2720000000000002,7.130240850452626,5.463121660310584,6.71653294748203,9.45627248661997,6.157215789119288,-2.981847284814954,-2.8944916193275976,-13.41708315345674
2.2760000000000002,8.532794528917803,6.415652341879845,7.8012013775999245,10.457735808113497,5.214498591537085,-2.1611187264031106,-3.1582034705849837,-12.989534327348759
2.2800000000000002,9.083512662372012,6.338652743594517,8.2000326726632,9.78733234370657,4.282537957825451,-2.0913596145871693,-3.5984347402679795,-13.053456189503779
2.2840000000000003,8.666144486343416,5.360351139874191,7.767520234969083,7.517541388009591,3.636549990290375,-2.549686688155548,-3.4589425765853985,-13.202613060247835
2.2880000000000003,7.404435628492365,3.7718209722722724,6.555232281667834,4.173379092942703,3.2179277987382413,-3.1479250040339677,-2.159735231011145,-13.027513610778925
2.2920000000000003,5.6462380390264535,1.8693439166496644,4.763153657140371,0.5806731686138664,2.656291377258711,-3.5552693140413965,0.2653704444743541,-12.467863633985786
2.2960000000000003,3.851723572688063,-0.16234536208171946,2.6398911210424028,-2.3923373399178742,1.4811646337704172,-3.638496465486006,3.0637045072796227,-11.913438305326586
2.3000000000000003,2.4427117648235823,-2.2549416684775796,0.408880973998007,-4.092085251314765,-0.5627974186269151,-3.4610716477958494,5.0815351716221855,-11.968580758446738
2.3040000000000003,1.6805885550590718,-4.3644767541182885,-1.7328034494948823,-4.243930471666308,-3.26115206472415,-3.1837304560975537,5.350954604745729,-13.02429206977099
2.308,1.6258237120757681,-6.354851977649876,-3.553887034298298,-2.9719548244674012,-5.8965667107020945,-2.9448011537700447,3.6254884559905127,-14.911226618549804
2.312,2.1745722126066642,-7.954865509503836,-4.753234469767171,-0.703266528053629,-7.495119828883691,-2.7979055903373804,0.5456777603948686,-16.872119358471863
2.316,3.127213473345004,-8.842503265141998,-5.019637931607481,1.9726196278237467,-7.271959497398275,-2.7318026977218954,-2.668695095121331,-17.914304961750332
2.32,4.235186398438751,-8.82919222084972,-4.198898831697975,4.425125859455209,-5.081215065262687,-2.7339752451615444,-4.839382239121017,-17.36216415538538
2.324,5.219293205295363,-8.021617663474588,-2.475229148433297,6.077071331813006,-1.6149764348292464,-2.8289505260349057,-5.434384364750508,-15.286972910306417
2.328,5.790425842705046,-6.842658875667608,-0.4262063500046729,6.496294419318736,1.7911734800785895,-3.0549807831723044,-4.807124017824117,-12.552531834877652
2.332,5.716372141073054,-5.870212916473218,1.1383027404544706,5.504224961931638,3.698449561625358,-3.399955401402202,-3.947833009429993,-10.4196618329117
2.336,4.932161116045747,-5.568642774968544,1.5187613586846433,3.2730675677833756,3.203951129424786,-3.753221488486629,-3.8994408814372994,-9.915100115143211
2.34,3.618283087649024,-6.069932029192681,0.4661928478518007,0.3346572547781621,0.35510466383686357,-3.9351023418602717,-5.187401835240225,-11.313326333514649
2.344,2.172696235373321,-7.138814146904452,-1.683371365547309,-2.5487352793450904,-3.889769941613512,-3.80339142062068,-7.572296054659994,-14.008507616307833
2.348,1.0612567506985466,-8.336943439788998,-4.1693021192972,-4.631081319760367,-8.142195635017643,-3.3727090366651726,-10.24533361075308,-16.843239151235746
2.352,0.5926881853255451,-9.291410359024653,-6.194534235290158,-5.460221606725057,-11.256749348164792,-2.863235926361529,-12.330289486275806,-18.70581137066654
2.356,0.7397027972485907,-9.892446926147915,-7.314415890417596,-5.043609560330935,-12.82776946451983,-2.6152324819797785,-13.363099092157476,-19.059314606788366
2.36,1.125506230914311,-10.2898754127421,-7.600064365459147,-3.8064206107494303,-13.245453038398024,-2.901808121325667,-13.46062299169309,-18.120575126352435
2.364,1.2037865555746121,-10.70699429678655,-7.497825310840796,-2.360442872785862,-13.308880548857223,-3.74618779469915,-13.121687761571568,-16.621670830163794
2.368,0.5428731968039733,-11.215964364116726,-7.492410308072591,-1.212207759708801,-13.647742963151249,-4.854167548031596,-12.827146169755027,-15.33000682950942
2.372,-0.9442994215289602,-11.641736179200617,-7.795953437189233,-0.5704051578589073,-14.311839623070362,-5.7244668394026235,-12.716740696066662,-14.62070096766434
2.376,-2.951797794560278,-11.671157511334302,-8.245976798491931,-0.33761723957254564,-14.77049351761091,-5.883471189886982,-12.539391310560667,-14.338212284454771
2.38,-4.9471042209906475,-11.1078131627699,-8.481913323265243,-0.2764593001463824,-14.31254841570781,-5.119289295739426,-11.905220534552612,-13.991825413932274
2.384,-6.449584983388881,-10.089790107246206,-8.269293315538352,-0.224681498050038,-12.58575131668703,-3.583764848422846,-10.648485982724226,-13.12370952481485
2.388,-7.258804822491909,-9.088904227361596,-7.717058373332097,-0.2041892535609824,-9.913411535193845,-1.7020264351239525,-9.026753538629091,-11.59818961761295
2.392,-7.500601458441847,-8.653210919151814,-7.236055658584619,-0.35973698513158325,-7.179249301063151,0.06109588069047067,-7.609362928878209,-9.635275149258232
2.396,-7.466883869926226,-9.029825806065173,-7.241755143080892,-0.7726812088877333,-5.337066620126484,1.4433536338670234,-6.908559631929672,-7.594451110080378
2.4,-7.368186160409452,-9.912843761158934,-7.80048588735338,-1.3042401607965208,-4.847298599909211,2.4820028958040234,-6.998719935460322,-5.6891554861518205
2.404,-7.172957448510261,-10.520487530800272,-8.481170826936468,-1.6086175167956978,-5.4007646609237305,3.40784090817354,-7.398706876819867,-3.8500069146256144
2.408,-6.639351884598412,-10.001764841061876,-8.535089119956767,-1.3351535660916478,-6.1093271130660245,4.4083132588969285,-7.317528594370669,-1.846831351698281
2.412,-5.516656767767124,-7.958820563985274,-7.3343857204134295,-0.3997916985346963,-6.053633321049973,5.405270894689483,-6.136161004377294,0.4130293096112321
2.416,-3.7709210523162984,-4.767098139732669,-4.796334995902246,0.8699698361516646,-4.846520114497805,6.014767864185196,-3.8293402370422918,2.631958989883967
2.42,-1.6855375499326124,-1.4747252657148193,-1.5261287716520928,1.83883817346012,-2.87110169939022,5.733873980636356,-1.0583305812192565,4.126022790496898
2.424,0.23725403930143796,0.6998308973984111,1.426306796602943,1.8867878940498382,-1.0494825716187233,4.257042950762357,1.138983747245462,4.134785638782328
2.428,1.5400901403318104,1.0200600509593687,3.0967424596710806,0.7918554865832208,-0.27415330422643747,1.745850444437747,1.9163743772608548,2.2908649499481104
2.432,2.0720543855538835,-0.3346806932183932,3.1225028922546136,-1.0633132025467296,-0.8545931819191173,-1.1305999028608182,1.1202536032764079,-1.026993238487264
2.436,2.0871270552271204,-2.3186778038790203,1.9459984824257353,-2.8099032644325317,-2.3178743840630176,-3.4299558378697412,-0.5767908916058004,-4.714757410229243
2.44,2.1165291664244705,-3.5476184739338805,0.5836389333825783,-3.5000373590205225,-3.6837438847762147,-4.3500169788171394,-1.9961528361849434,-7.3755617222880225
2.444,2.67473418847938,-3.0282127344014462,0.07706868513078158,-2.5989235897607887,-4.048864044818505,-3.611935629205381,-2.0612024841843315,-7.960022120490793
2.448,3.9644967928356962,-0.6993410663670061,0.9292481197325966,-0.29557869635060996,-3.1274681281611363,-1.6026875746534417,-0.37020492591429077,-6.281812131579331
2.452,5.738221489632095,2.508150679349586,2.8297547891963806,2.5425004506533257,-1.43204997738319,0.8090397265379821,2.5813134336337704,-3.1192694100581146
2.456,7.403709019230131,5.131693039383197,4.8275136907305685,4.7681206243392324,0.02220092508049243,2.703030249256064,5.648710772640312,0.17287323978167368
2.46,8.315089177092851,5.91199017857616,5.847868526413622,5.500581927938729,0.314854683925039,3.5534852651953326,7.624638528067726,2.347717686776152
2.464,8.106510160729295,4.425381215339126,5.268910909785417,4.547083050950509,-0.8254190162115465,3.465471895012527,7.84467916326173,2.8818542392765694
2.468,6.903522588198197,1.2991716484833562,3.2590651240174915,2.5019478008130385,-2.8175712765117518,3.0856994996542153,6.498387934990132,2.200201857336502
2.472,5.300413399060723,-2.0902584771685815,0.6964413018330298,0.4726351144175993,-4.493345330889927,3.229288863835985,4.497980059623329,1.3943306632189785
2.476,4.106940404428192,-4.261341040660707,-1.2715979724049795,-0.41994734731232164,-4.683875077153356,4.427348767190429,2.9904515340579776,1.5935992285583005
2.48,3.981644556202504,-4.288591259739691,-1.7993170018823141,0.4764671744551805,-2.818597895978397,6.62857349016181,2.7728051366997626,3.331894540244699
2.484,5.115417521771001,-2.176445290163242,-0.7523884288083522,3.091754608744738,0.7726431738596418,9.209532517377413,3.9173331005054575,6.257280526334533
2.488,7.106156833910975,1.2041180549455355,1.2411550882000855,6.6978050260912285,4.993296242732942,11.27680715831521,5.771566954972046,9.323893321669669
2.492,9.089267050897464,4.545711789621985,3.1066273628223975,10.228055451740062,8.467992713554523,12.08864190713275,7.3015007151797935,11.347715035453549
2.496,10.096272581712686,6.683961079157951,3.8503907111313183,12.699794269322581,10.142441468194939,11.395670889075477,7.601362489490495,11.617928132421513
2.5,9.490858355684868,7.055933564836385,3.0310123250550935,13.553621513428977,9.699578459836125,9.536332075460063,6.310773879203312,10.234967064977745
2.504,7.278418766735218,5.846410074958737,0.9412820272730489,12.783718455376262,7.608012773192635,7.249008907671319,3.7402789519728383,8.008683780359252
2.508,4.13497588297154,3.796164993459856,-1.5701648051372477,10.84278387262434,4.819657543987677,5.321012798633938,0.6851866458831157,6.000165587021849
2.512,1.132771043841176,1.8025158266508576,-3.5418769966773738,8.393038362129207,2.2901300607418342,4.251830338984881,-1.9517972441063947,4.971085766878568
2.516,-0.7329583981289716,0.5138153146214268,-4.37205781978744,6.028822963797946,0.5597887308434402,4.089064558500752,-3.5287520055840327,5.041069854127496
2.52,-1.0059911480105068,0.09593008478982767,-4.091100558267813,4.078640219284216,-0.4181687936937557,4.486369312188874,-3.864050487885015,5.716690179337499
2.524,0.023316459929635158,0.26416839854609186,-3.297683568323743,2.5593902246519225,-1.1357721856217404,4.927560234959546,-3.2080344974043102,6.251620175854697
2.528,1.4862158758180906,0.5425769388962891,-2.7933522388466834,1.2882251059973289,-2.171634506681009,4.994923609493301,-2.0325057839760445,6.118429359236181
2.532,2.391967417267774,0.5889062562203593,-3.130605003450934,0.06522726484710173,-3.8200908586195177,4.547327178819579,-0.7879949604367749,5.321021704827048
2.536,2.1585622856111075,0.4170090145957661,-4.301111049433313,-1.1545815150874414,-5.887810371788896,3.7521064282014276,0.25727795832981304,4.386591668059909
2.54,0.9236781387663768,0.3939400634645711,-5.741643065105314,-2.1943103542255233,-7.764340145793005,2.972681806752325,1.043028195071043,4.052812149328027
2.544,-0.5396863614151295,1.009801457069167,-6.655087911423392,-2.7245388386675002,-8.71529971074041,2.5873049565965722,1.6349875825793796,4.839725615459686
2.548,-1.2602606775266567,2.5553683031865613,-6.455535457872906,-2.4286764873172446,-8.240120550024255,2.835046051667182,2.1173017265861924,6.74648644316224
2.552,-0.630260918508228,4.889166777516722,-5.102017853205027,-1.1859594714462802,-6.316657652699252,3.7382483413685765,2.527077013002914,9.228653342873583
2.556,1.2299936766430104,7.44043423364261,-3.1169133683937984,0.8338736723485232,-3.404611115423726,5.119037332324785,2.8682790528748394,11.464846152790551
2.56,3.5183606935711063,9.469742683996802,-1.2788827255085833,3.2152201927001847,-0.22010179745832925,6.683989880134479,3.173565878607641,12.76498636200095
2.564,5.180201092034546,10.451695891244908,-0.17883195638350546,5.453140288612904,2.5851261246249155,8.125328984975676,3.542482360559274,12.892135606203519
2.568,5.485846158671444,10.366326930907011,0.11123278573207607,7.146666191279666,4.671320411563995,9.203706065192986,4.118074164705887,12.13451716985632
2.572,4.427549658111777,9.714173159683453,0.04919106229009351,8.123117171877476,6.059848370369156,9.78600071463134,4.999017110736397,11.104415955192511
2.576,2.7099607766253953,9.232498778554836,0.3101719817434878,8.441023612381384,6.984995536786965,9.851395331472366,6.142934407657446,10.385508002661465
2.58,1.3381033797708586,9.45998754466781,1.3304464223949326,8.277393281966008,7.657430107239697,9.472128074225761,7.329026116265636,10.219011723874903
2.584,1.039108796787401,10.392935672140666,2.9819891446386473,7.779201634397539,8.0917644072901,8.780190997150129,8.215883524478576,10.39989090489454
2.588,1.8495687662132028,11.446213221170911,4.58901507992572,6.9777097459526605,8.102069912830055,7.943915809269868,8.485641842807208,10.436096190997612
2.592,3.0941337690664774,11.757915555700537,5.282013561843705,5.808270334862781,7.453437641268724,7.14395514216463,7.998457095845096,9.877732295235393
2.596,3.7632128428245935,10.681673057695535,4.4932115641081545,4.220389087952956,6.063360000066553,6.5494850427681195,6.87364421723683,8.622908471403928
2.6,3.081976888650958,8.199679053103834,2.3074745104097687,2.3062464965374474,4.116273543200266,6.295160434263246,5.458414523338862,7.032044229516925
2.604,0.9558314500027034,5.018629692352875,-0.5379839021637283,0.35521518321938217,2.0213425245486487,6.458710481700237,4.182671367922515,5.775535508456838
2.608,-1.9383197854607932,2.2822059061031403,-3.0027731821832906,-1.2031745447222697,0.24473924195500985,7.036353435327889,3.3847123885401116,5.487978279048313
2.612,-4.455302888493332,1.0411020480266657,-4.250589654430879,-1.9463514725199103,-0.8830861540432016,7.9249447681950915,3.198992021197016,6.413777265149017
2.616,-5.517416814784357,1.7606775732528548,-4.027342788947707,-1.626335735851105,-1.2645651611755695,8.929593532309905,3.5503799437348174,8.236491890464825
2.62,-4.6180001331688025,4.113913079754024,-2.719676665194162,-0.28861342022179226,-0.9966854831747476,9.785611045898865,4.242192042567949,10.185443803525315
2.624,-2.0501304857334155,7.156197099216028,-1.0847282130825826,1.7073438122885056,-0.24522427645984912,10.205146521442236,5.073742342780675,11.382716707372312
2.628,1.2282119818936104,9.777992948571752,0.17711016723172746,3.7714441750832126,0.8703348581637299,9.945287890442097,5.921099146028684,11.260889670785371
2.632,4.010298254652614,11.196055258214734,0.7546005709294152,5.240836020065412,2.305186591197324,8.878735409482506,6.747955925034923,9.844258404270999
2.636,5.347403196686162,11.248889708513328,0.8108229314835473,5.571443548105791,4.029218122299187,7.054020210735873,7.564046005839349,7.7535603959018315
2.64,4.9195798469508905,10.375702618207765,0.8055814911618486,4.511241913506734,5.944849402658875,4.721441372490399,8.366335899564147,5.920562170545387
2.644,3.131518879618292,9.327831434413547,1.1914896714556495,2.207503595002537,7.859353652272475,2.3076219868772996,9.117833957911623,5.1548572508243975
2.648,0.9204052302166885,8.791611114146082,2.176830195732252,-0.7848152408097588,9.557916549935811,0.3308888900041414,9.776353003872568,5.78003894582387
2.652,-0.6395659007402095,9.103267065368607,3.6559861799486097,-3.6294833184958506,10.920606450892413,-0.7412087876872201,10.333206042035865,7.511267527982724
2.656,-0.7783957395677228,10.166356712387575,5.310505573639477,-5.460404987058436,11.987121668107036,-0.6486800444314335,10.825373068998939,9.617943530335062
2.66,0.6616864791657672,11.565499831550468,6.779669605385619,-5.689445154998852,12.909533479292929,0.5417095788501662,11.294902521428995,11.281787135346859
2.664,3.173632997248901,12.773778873720053,7.778114592066418,-4.258128657223493,13.801610190088999,2.4134368207769543,11.717495625737966,11.966641277578763
2.668,5.8074739740747665,13.357586940226174,8.126916704873075,-1.7035527380931939,14.585922021010873,4.30838510203718,11.956056901263239,11.620793249244558
2.672,7.576259517468873,13.105187110853993,7.727884182163377,1.02547578476198,14.96177307250256,5.546984242907812,11.786913043254057,10.628192908497775
2.676,7.872889368371672,12.059287059431323,6.550947880840971,2.9467554337509503,14.535534936047329,5.680582802545315,11.00145006377991,9.549200741738797
2.68,6.706277103811475,10.472922094685224,4.668899418448239,3.4565155411139847,13.051126419049307,4.65948848802227,9.536300129540177,8.796122457129634
2.684,4.6514510222851895,8.727302746744929,2.32272792230033,2.5858222355184264,10.595337764581107,2.8430388973353957,7.566549734702296,8.43112632447488
2.688,2.5447303110891837,7.234357383106088,-0.04416553088000952,0.9682756992056589,7.6429088470076625,0.8394350291395556,5.504258649084823,8.192561868415975
2.692,1.0815182926530675,6.331849953178763,-1.8605214199056066,-0.4762324804762632,4.890973926861797,-0.7687967043547035,3.8898819805461162,7.728269737116229
2.696,0.5287633087643371,6.194439776818324,-2.6098345217264454,-0.9771050152030751,2.9686311150540123,-1.6748575775370012,3.223496745418018,6.891378644746816
2.7,0.6964980272421644,6.787363487667906,-2.0376455798177417,-0.25254922398713786,2.183871746748066,-1.9540320582055932,3.801969372707756,5.914608875475935
2.704,1.1739361230268055,7.895523878276243,-0.2713001244321118,1.4207415551979827,2.450807732630211,-1.970955509600829,5.620254238931157,5.3479596848884725
2.708,1.6665217692378196,9.21800767439213,2.221886919373331,3.425551618471125,3.427239356722727,-2.135525838737189,8.361935547092724,5.76731202202394
2.712,2.2185943848212704,10.490901226328457,4.82024558691988,5.165950726290443,4.762270102881469,-2.6421375564584153,11.470945173186516,7.412322304654294
2.716,3.176175947785218,11.586631973495903,6.991083835178976,6.364741562602077,6.292803094983431,-3.332425539687925,14.279521800659756,9.957477777988174
2.72,4.906415348728743,12.537558346126739,8.472458795718168,7.141421783788453,8.063806778406239,-3.7583333035636546,16.173997836269862,12.579949127208518
2.724,7.460260079822085,13.470562864131978,9.306238225483696,7.848789873794521,10.17450497639043,-3.4094551504833728,16.75917427143914,14.318265082136236
2.728,10.397961975125067,14.494165122865915,9.72830828492392,8.784355488656937,12.563449666417107,-1.9825425052656294,15.984969612849202,14.550149229310245
2.732,12.89870642130359,15.592230860330194,9.979912283679512,9.953206501324308,14.880194533602868,0.435868699042812,14.176293296792936,13.330254329504196
2.736,14.120945428141429,16.587372302436137,10.145566236612588,11.025050029331826,16.54832381027479,3.3707723995634016,11.928060428002938,11.378446715824824
2.74,13.606571586977584,17.193185327964144,10.097134474514712,11.498307557225061,16.996782573607934,6.140605876431881,9.877766128034132,9.70687543459899
2.744,11.494266100191599,17.132089232988786,9.566560272911142,10.961906557264152,15.927490037206118,8.123649829811672,8.437925047194591,9.079710403527068
2.748,8.425788913473975,16.261479186814814,8.307674151580558,9.300813276978733,13.471748107785334,8.982437717724707,7.616043428602688,9.606572655415327
2.7520000000000002,5.209779681048168,14.646332999749557,6.265303669936255,6.749960910937681,10.147077344039044,8.75834723602177,7.039142266845673,10.717154125611152
2.7560000000000002,2.450885505699718,12.555414110341584,3.6797520290362193,3.796141478178762,6.650271720928776,7.825459231612114,6.20460226644291,11.548707343207443
2.7600000000000002,0.3598857408020225,10.380326810688665,1.0680766269177362,0.9963947923719582,3.5990302955338835,6.72601799378094,4.828079828916945,11.509078102169116
2.7640000000000002,-1.1864797046624627,8.488219201777545,-0.9370211281839713,-1.2012882274140861,1.3305736899130722,5.951766114957187,3.0771831132918073,10.657341510468632
2.7680000000000002,-2.417405532629603,7.067253669134221,-1.8402111689889165,-2.5732593521844116,-0.17318990583637817,5.745626957235861,1.5175803463380357,9.635370398263394
2.7720000000000002,-3.4712863891293946,6.013451238254392,-1.5529111215780926,-3.177391926356983,-1.2453510271393702,5.975706510758288,0.7417403810566969,9.155396316302248
2.7760000000000002,-4.3685423952473625,4.91781557247517,-0.544705585146918,-3.355844329975098,-2.414242558169785,6.1324483956140305,0.8640351072465728,9.347850003131683
2.7800000000000002,-5.145754594999103,3.18516795249488,0.22711243889599286,-3.6753327787834995,-4.2540537158206675,5.471386410279056,1.2028054156557775,9.409426683280525
2.7840000000000003,-6.010887660283952,0.26985004662605316,-0.3583627544884205,-4.780389158336325,-7.205343919739244,3.29253567606339,0.4133976408208091,7.8507784110129535
2.7880000000000003,-7.331426317141402,-4.032166931296954,-3.086231549588765,-7.1377093169028285,-11.368233916434997,-0.714882758198254,-2.876316804262598,3.301068006075446
2.7920000000000003,-9.404967861333786,-9.362001191988748,-7.943146429846237,-10.743401302250199,-16.326782637830092,-6.202497157254188,-9.211429533221796,-4.535375495969067
2.7960000000000003,-12.116417958035516,-14.764945828425214,-13.917105306915646,-14.919790107000718,-21.09087153336806,-12.105292420479365,-17.694671114696572,-14.333794259486236
2.8000000000000003,-14.736259576791374,-18.91116375036637,-19.219407628531645,-18.365802421743858,-24.25878396981977,-16.881901901094995,-26.01467136773153,-23.40612412152395
2.8040000000000003,-16.06496952077707,-20.521549262456446,-21.895079604526522,-19.540337611619176,-24.430320407986315,-19.016429610280703,-31.23255485319332,-28.728649528059407
2.8080000000000003,-14.932001230478686,-18.84788766075099,-20.593031978041076,-17.280028160507523,-20.761415048670806,-17.601400689738423,-31.017578449678076,-28.27286921283782
2.8120000000000003,-10.842032728658161,-14.012538988261827,-15.181615768817018,-11.406335568585977,-13.43301887929587,-12.744991463508077,-24.754972663552188,-21.954708235054433
2.816,-4.393908927873683,-7.0243009292343555,-6.890021031661897,-2.992724623624637,-3.7664742065081556,-5.591573594298499,-13.941240992754594,-11.685896929370733
2.82,2.796983719182104,0.5495076902361826,2.1166101155721604,5.901329158204706,6.133583406513242,2.0766234464411624,-1.622543288041535,-0.4987211349356011
2.824,8.696284966657595,7.125485267846885,9.554884579364522,12.978374385806163,14.106852322331791,8.4964397278262,8.879452377650674,8.809250730821432
2.828,11.705672505909494,11.629599583149764,13.875265049466028,16.614347900351504,18.724820646796445,12.542075454385966,15.33984896523155,14.800747187684237
2.832,11.344109168344467,13.777771343661332,14.764709089494684,16.496151879319193,19.767743062169146,14.022200006482366,17.426392741109176,17.739348030245004
2.836,8.404658195243684,14.00614464865048,13.089918245183087,13.665262013431189,18.155421973105206,13.550944772191176,16.55411738214587,19.03313327001881
2.84,4.510264471786879,13.116414140937351,10.344081713788023,9.932232744179537,15.37289279383947,12.103273407618126,14.928130552638017,20.170213214446527
2.844,1.3161059813070057,11.847922350902483,7.904737554378481,6.969254842232573,12.707479255764884,10.511340354925125,14.321533496559155,21.793195951387908
2.848,-0.22085124128806743,10.592358563523891,6.469051055904696,5.550681180084716,10.696474913070794,9.163877533028858,15.233744777728333,23.411144221561894
2.852,-0.15144076655157845,9.363857877698031,5.9065639420400675,5.326195054098614,9.058868128046115,8.032403696647126,16.835496016416123,23.86171884650443
2.856,0.6934336105911953,7.992959777520776,5.546079057559108,5.217304628073489,7.101571279826435,6.939071025407038,17.65493083675065,22.17882222534674
2.86,1.2976041906918259,6.391213802012415,4.690107582118705,4.19366528516946,4.332563793588552,5.851801505261447,16.56529862933487,18.317003272916367
2.864,1.0564953612427186,4.702084127316001,3.0499377036204462,1.964823256415972,0.8917040408821597,4.996651618968704,13.48545943692299,13.292440587840503
2.868,0.06250668131243575,3.2560732767372933,0.8904338470901507,-0.8037106243030294,-2.4498576047533893,4.720215468427112,9.427538734511149,8.678619010122032
2.872,-1.0402553740870768,2.3759220310871947,-1.147810461747751,-2.8659679908668343,-4.70486646285565,5.201257607647886,5.914131167859432,5.788015548371662
2.876,-1.498166620687886,2.1769872083151522,-2.399364868790186,-3.1254326346359775,-5.225257077703592,6.2235103369587765,4.140836419583662,5.033113712480941
2.88,-0.8944996957350577,2.5079891899629683,-2.4740528338439898,-1.2785577445603988,-4.043225955017585,7.190711650666647,4.383499523319934,5.828623024123873
2.884,0.6430487984969244,3.070771107401002,-1.3542829072103588,1.997654807550561,-1.7964554234623025,7.39878632977042,5.961482934147959,7.052257002590171
2.888,2.5637583602003606,3.6390736600982425,0.7171931221894692,5.419426210205931,0.6996012328582797,6.414184904849201,7.728374682535163,7.746941960661705
2.892,4.228431814247923,4.217983582021541,3.4215566781537285,7.79328549143978,2.9446877627460584,4.332711088699651,8.756112970486901,7.636685883739688
2.896,5.23634924403351,5.0243574493017835,6.477174830168166,8.620158783954238,4.98307318847832,1.7589746607477783,8.798555492357096,7.171019521398458
2.9,5.5684462044594705,6.29282201764569,9.619435362829131,8.260465838419535,7.222763823511552,-0.49454671809449524,8.287161971847159,7.115904734114954
2.904,5.491282159435923,8.021548869301336,12.49507133071744,7.580735672090334,9.965809734809646,-1.82049174911276,7.911361831867426,7.983176650897906
2.908,5.319700840149063,9.84026498676342,14.607123643057935,7.323109836108676,12.967508430427557,-2.106877655059657,8.079559330526628,9.655279952996754
2.912,5.197713349462526,11.105273491948283,15.400565617716893,7.599136321028079,15.339032296987556,-1.7497013537306614,8.599201177729388,11.422554599136317
2.916,5.0185311097617245,11.183865421905839,14.486078472928629,7.815546677168719,15.903778202301588,-1.3963237772505406,8.768343228673928,12.384250621061756
2.92,4.5172486047243785,9.787510752201488,11.882062192649586,7.078314407951735,13.83053918294047,-1.5776047103655886,7.814347605810664,11.957592700711134
2.924,3.454016317312666,7.159734608999677,8.107922275007109,4.820093812420957,9.174600096512822,-2.4338344186905183,5.4002633807130795,10.189806663538489
2.928,1.7787124571866166,4.00373376241297,4.0422828885432445,1.2553927300591938,2.9952348167526566,-3.67676916467006,1.895367592115098,7.708454660858562
2.932,-0.3184527610880523,1.1719250703983555,0.5741800327893611,-2.6324787647019643,-3.055812005801684,-4.792779741038904,-1.7583924838169265,5.3687238850832575
2.936,-2.478871398286833,-0.7123131989257163,-1.7678530433686488,-5.5750910878122095,-7.468193150353735,-5.342153542260137,-4.507187314754563,3.8196449928766474
2.94,-4.314090282371736,-1.5054082696171558,-3.0087393940074496,-6.69464572966071,-9.541889777227706,-5.181199131561497,-5.705469729409534,3.2305728568019827
2.944,-5.541732462816059,-1.5421297996809837,-3.632503935683788,-5.974454207130518,-9.637487041087123,-4.495874627266973,-5.408431350814496,3.3016192565115627
2.948,-6.056352342247291,-1.3945055527184236,-4.243988573995995,-4.241202896471263,-8.876979498423937,-3.6528115192824604,-4.284857247501726,3.509986939123497
2.952,-5.932814828939716,-1.5453771291475533,-5.18953320576186,-2.677677008044437,-8.481326044650148,-2.9855064923960852,-3.2182347068314003,3.4291576386160005
2.956,-5.380748332660912,-2.1537401037008426,-6.356841301614077,-2.1574423680446646,-9.120564186464197,-2.648904769742423,-2.836868397208391,2.9281368917828967
2.96,-4.672984152994989,-3.011616627004256,-7.2596421383934455,-2.7875158670079667,-10.618533680500006,-2.6131470932720884,-3.226724928272837,2.1616288799161554
2.964,-4.079360015814887,-3.692377086237954,-7.354558881414955,-3.915376922049311,-12.146735394097101,-2.7688064015019,-3.974194640119101,1.3911113964187884
2.968,-3.8030676612556267,-3.782951845841933,-6.390454875905354,-4.571740101780324,-12.759917546940226,-3.0490574386021208,-4.485106744965297,0.7658776146345747
2.972,-3.9248603398552824,-3.0730830878027326,-4.587291491721115,-4.068904963823772,-11.946957778371717,-3.486173893933481,-4.383203086767713,0.20765963957222877
2.976,-4.379010719999867,-1.622982557952926,-2.5437168290909895,-2.4008730365517703,-9.891307696905471,-4.167854049793051,-3.756912378116799,-0.5474021955872204
2.98,-4.974188637889979,0.28983799274357747,-0.9296621591668739,-0.22348465625679204,-7.319381769873497,-5.134751787016709,-3.130787435620329,-1.7869799821980954
2.984,-5.459859751418458,2.286272848727922,-0.14764448458557666,1.5501395968071447,-5.063981312782948,-6.295415399418343,-3.169041896987671,-3.6359236147582483
2.988,-5.62163813453088,3.9955606584775545,-0.15429028213633522,2.2783433142718703,-3.6216238972040506,-7.421219352603176,-4.286862517939037,-5.9559527065413
2.992,-5.374916913192492,5.120228190430655,-0.5412239788259381,1.9162715387007685,-2.9685715165931597,-8.236281747763185,-6.407397816546492,-8.381444388354186
2.996,-4.813930493179036,5.463175869182984,-0.8137240657318086,0.9606423214832658,-2.720774856346276,-8.541907321366358,-8.985268274877932,-10.468782973584167
3.0,-4.189389356683751,4.942866000750537,-0.6912794831178535,0.07746363091210551,-2.50579237576195,-8.309971795611585,-11.283281366147206,-11.879463695982466
3.004,-3.815720153566614,3.6113375280059077,-0.2550793222836516,-0.3354968268781915,-2.293440566783123,-7.699067455088869,-12.74463138928819,-12.509579143930637
3.008,-3.9424311186290706,1.671827949679904,0.1427167754962393,-0.37130495927646323,-2.456683274291903,-6.984475957437013,-13.241233123065655,-12.50373936530502
3.012,-4.654009510432987,-0.5484286417910473,0.11619993871579348,-0.5144538332430928,-3.5293413830594877,-6.454712005336134,-13.084293244728338,-12.164074835316313
3.016,-5.831255229673344,-2.684772285858215,-0.5206586543174707,-1.2969210666728512,-5.812400831248585,-6.320132645252733,-12.791038446825274,-11.80102050014519
3.02,-7.192701642725102,-4.4555148505414595,-1.666551101494091,-2.941430494902489,-9.083440282828317,-6.670841058765538,-12.755640295170128,-11.600602801496224
3.024,-8.396000529033634,-5.762084121383682,-3.0427739775867195,-5.222306183918977,-12.612863236143928,-7.478576533621047,-13.022741684291391,-11.572976965912344
