Timestamp,O1,Oz,O2,PO3,PO4,TP7,TP8,Fz
0.0,-1.1937117960769683e-12,-2.2737367544323206e-13,5.115907697472721e-13,4.718003765447065e-12,3.979039320256561e-13,-1.3642420526593924e-12,9.549694368615746e-12,4.774847184307873e-12
0.004,74.14259205325175,60.98906188298588,123.21024037322707,70.63959008483664,44.12157406373353,58.08281472176304,68.14838038728061,-24.51823101102275
0.008,128.3151663832192,105.50734156333789,212.44950447176717,122.62712767875144,75.36882824730907,100.76186333199416,117.55114855742067,-42.78701004121422
0.012,151.54879472390928,124.62148184318619,249.04964657279402,145.76516337310755,86.98124579002535,119.43216228496829,138.00154306533744,-51.063704119276736
0.016,146.23712729945822,120.55750584552197,237.10710209077598,142.39073492446568,81.22925456100035,115.60194449716528,131.94940343463435,-49.43845938844686
0.02,125.72993012448245,104.61364693007278,199.43321798465848,125.06150043001094,67.64827650914083,99.10768271330062,112.16360059393094,-41.40452565973817
0.024,106.74131460081696,90.72751603860473,164.6849843116467,109.37812312862872,57.71148357371834,82.46949716578968,94.47013275766182,-31.986412234558998
0.028,100.86637296206496,88.34328042342139,152.91578148966084,106.0080151126055,58.93251876260962,74.58098354840865,89.66814493626248,-25.453345779713004
0.032,109.79099038482784,98.45940972301582,167.3218579292726,116.24697423176417,71.5980211807032,77.1602352304086,99.00704593154848,-23.76323679919426
0.036000000000000004,126.37071195635417,114.66739594158463,195.94155024040305,133.1572120941812,89.6699112706633,85.54958644523356,115.3020397894224,-26.372325328945067
0.04,140.2492019585127,127.99820851208796,221.069172509807,146.94608608348966,104.906167007943,92.78015715635138,128.38634189711217,-31.222003569982462
0.044,144.28941109445208,132.39474036943423,230.17636487329662,151.038436836507,111.59459580654948,94.16331156695458,131.332778634046,-36.12320376978596
0.048,138.09219326575928,127.6375656809299,222.00407823708503,145.29597585590932,109.20247837896522,89.66500251547416,123.85265929481517,-39.74020908203772
0.052000000000000005,127.0809999365215,118.46679542563072,205.21657402441673,135.0026763520952,101.79397700669017,83.06952955838256,111.41592254248667,-41.798069760904696
0.056,118.38274884999026,110.99905371207802,191.62372369670044,126.86028627457227,95.02034210755517,78.97892596439868,101.2419851948186,-42.680750873638544
0.06,116.34953210220638,108.89466611669292,188.66298773343908,124.74626824876907,92.67918208448367,79.74375033391419,97.89844487338604,-42.86708871015583
0.064,120.39024745357915,111.55339949933074,195.64401594863364,127.78389473992252,94.84520905002626,84.23226030649323,101.09550360824392,-42.59381868111416
0.068,126.04360934218215,115.11599091365011,205.37425905356793,131.5554285074787,98.39011935318081,88.92983099112405,106.61738547935317,-41.88148918231445
0.07200000000000001,128.2629265654711,115.34121999602942,209.51984662872678,131.38154366580503,99.30022979155524,90.42295440975863,109.44665262209986,-40.78483646953384
0.076,124.66417233141706,110.39809271698962,204.0188162990665,125.43668441328043,95.22893768257313,87.57024432897646,106.9557834340365,-39.58989281065118
0.08,116.70783456724882,101.82800046851119,191.14835128007007,115.73509255122843,86.73181271143886,81.96341206701788,100.198539418996,-38.75994976497384
0.084,108.31270464276037,93.27242849235742,177.37827676733832,106.5754301935992,76.63951209296832,76.57212027665616,92.74649881019616,-38.65951300565081
0.088,103.06059322542848,87.99340383039944,168.81853434084178,101.63886500300552,68.17405173884387,73.60992425609851,88.10080433651319,-39.28027276832165
0.092,101.96044557315145,86.9054141370712,167.48288295682806,101.74028022147235,63.12787083569762,73.13874293089356,87.51709059875225,-40.2249654438271
0.096,103.16492735514154,88.32265376804628,170.66874890465286,104.6207350369119,61.19967275648784,73.30614508358008,89.57275958156123,-40.98552136098448
0.1,103.55174408938896,89.33931237833795,173.330077536361,106.65515035778955,60.64648253747853,71.851959601852,91.47099628238203,-41.29265651582057
0.10400000000000001,100.91758160133367,87.7582592228836,171.51909329017124,105.19124555987028,59.61915524685125,67.77859393271405,91.00121260330485,-41.25821088586309
0.108,95.30935462272706,83.29644936139175,164.57197171905574,99.98840328161185,57.25162528601655,62.03012479547027,87.82383858881403,-41.209955780078076
0.112,88.82862822105676,77.49076452022948,155.00579616394234,93.06484620625801,53.96148371517981,56.856862223278426,83.44486709535047,-41.365945438066376
0.116,84.26931033444541,72.59984713598018,146.6554640291879,87.30921071188084,50.990516466259635,54.413008165381086,80.13300117936407,-41.61741653579503
0.12,83.49952277256781,70.27280280275158,142.37262905597981,84.78882059131459,49.572491773547085,55.466665756226234,79.53526311115144,-41.58985414898024
0.124,86.54288026645443,70.78699186423512,142.69418170058844,85.76510048621358,50.27878292425768,59.01507173557587,81.82045597805273,-40.91270468979201
0.128,91.76921097462218,73.1725558474576,146.0093935727134,88.84521842706599,52.84629197788007,62.92129481020038,85.73428173178468,-39.4988591576012
0.132,96.9747306269318,76.02220176846976,149.91098578526822,92.04310456066091,56.50393172782097,65.15384355133881,89.44099222960716,-37.646152155981156
0.136,100.6500905935294,78.41215956502953,152.7729593059425,94.02598767459594,60.50959844232773,64.89805171280199,91.58693173490798,-35.88490413665568
0.14,102.61875199253012,80.30134621556431,154.45388063716655,94.71644193973935,64.47470757638939,62.8470021363612,91.90062981226242,-34.66723696602304
0.14400000000000002,103.75134449450718,82.22328821735368,155.8367903005826,94.9776116585067,68.30868084888743,60.608725334161875,91.04219874085379,-34.09834097080477
0.148,105.07108175167639,84.58981000564171,157.70412796072173,95.7136497056876,71.89241649559511,59.64297589225032,89.91242311714433,-33.91107589873576
0.152,106.93750034517925,87.18092157618872,159.9301348926328,97.10419304200633,74.82329885123505,60.445420504763604,88.98952438634569,-33.73176174086706
0.156,108.83358751487702,89.18530346735989,161.57928620707133,98.48983929484797,76.47289167201671,62.434112509794886,88.1258293373171,-33.46039607811241
0.16,109.76016646309799,89.68760690153226,161.6266826178089,98.85115019471368,76.30124394812009,64.42871842883187,86.80684604925369,-33.446282531419115
0.164,108.86162549102897,88.21602633006012,159.6724226667834,97.46032524069614,74.20337229923109,65.3541493670449,84.5984281571919,-34.26610358552307
0.168,105.88612170836169,84.99821505635873,156.12658908224864,94.26253341028684,70.64843162132468,64.72185242845114,81.47943252444242,-36.202529725942554
0.17200000000000001,101.31724582168175,80.85487568621511,151.92942532177983,89.85739834362289,66.56273560500375,62.746563631746994,77.95193618783452,-38.80661904409317
0.176,96.19679371627524,76.85585976157347,148.1203844076706,85.18693509102093,63.0163354430793,60.165071748201285,74.9100760108413,-40.911028921683055
0.18,91.69804417558419,73.87592221536659,145.39542170363114,81.07536749355938,60.77735364479378,57.82858966305503,73.26665535827527,-41.16427207039544
0.184,88.60367613119644,72.20936391154845,143.7950156497556,77.83943375004117,59.90834347338148,56.27781845798063,73.42601878647963,-38.82717359905109
0.188,86.89196729784544,71.37667683523591,142.5643356953815,75.11722658240797,59.58200994896589,55.428391778606056,74.82762154607292,-34.39070226299998
0.192,85.70887709364393,70.27467044057329,140.37126503611057,72.06245639370178,58.31151228708575,54.55359002496516,75.91039596999258,-29.640732323254838
0.196,83.80614528361309,67.65941476741898,135.9070627332909,67.84389212727018,54.59679720777456,52.63221051821756,74.64931195820031,-27.055494683511597
0.2,80.19401725734156,62.72428894354806,128.5206225972205,62.131691069243004,47.67465544815707,48.84565546190095,69.44746252366497,-28.750485546076675
0.20400000000000001,74.67779937252868,55.520370651293604,118.61170337781141,55.32743333401555,38.03368929389006,43.0350830453317,59.97209644018233,-35.436332357737
0.20800000000000002,68.02295351224103,47.04354372841851,107.59263443624582,48.435557902078585,27.417764087358307,35.89344966032172,47.53574392673397,-45.91477583312201
0.212,61.74590144483585,39.01044468957667,97.55006033538837,42.73673951975587,18.328155380356463,28.85941006063092,34.866210519300466,-57.410610885669826
0.216,57.63528712106432,33.41125948785918,90.7568879087745,39.44902734747768,13.2341809586311,23.746662880377016,25.317030734544687,-66.60609784943847
0.22,57.11453123100313,31.897935106521516,88.99126989673312,39.40551926603473,13.732260131349108,22.130738565636875,21.71968027880041,-70.88071229580305
0.224,60.66568169294072,35.18968500406572,92.84633556191386,42.813534998370415,19.978970069126262,24.729175822114144,25.299749049725847,-69.16767149878024
0.228,67.56856217379993,42.74303611016086,101.3603249501225,49.157489866312176,30.626928979695776,31.034352999980797,35.15135545313785,-62.12450408077075
0.232,76.1188034324635,52.878925308766156,112.25769628803437,57.31059909144949,43.3050348372318,39.429507614609065,48.55197485282622,-51.658275280455996
0.23600000000000002,84.19282541970927,63.298190940133054,122.67715019979823,65.7863659242571,55.401719250522774,47.743707084284665,61.94087200681372,-40.09263185165673
0.24,89.92448067826376,71.79089638850769,130.11266098462147,73.06005203929533,64.82017148747093,53.99722086813699,72.14833011584085,-29.412435587326854
0.244,92.3001306555102,76.93229038095984,133.31605738634778,77.96429006333994,70.50051123141509,57.094853029092064,77.43423795056901,-20.878579498860063
0.248,91.38729221452542,78.43751830515652,132.6444422359907,79.9749755176274,72.51428381469054,57.11532431722071,77.87024166393417,-15.015579964427843
0.252,88.08471549240119,77.00733159697052,129.61683614191043,79.2389208576908,71.73226469183817,55.04447059089853,74.9187492621113,-11.776854965477241
0.256,83.59605574198685,73.81977928880201,125.9947006426878,76.3948664798346,69.30187570587043,52.16037630476694,70.52799005086956,-10.705407485297883
0.26,78.96012718846526,70.0020303112002,122.97376437772118,72.33136173075786,66.21753302199227,49.443052695067536,66.27958263437415,-11.046538832669285
0.264,74.84569675911052,66.33656803125791,120.90982418287251,67.9848709874426,63.14015675546602,47.303326266029444,62.96728178635135,-11.875384022851904
0.268,71.54336912078497,63.20635383937986,119.49508211830914,64.13611018989354,60.39764240548118,45.628771139246965,60.635577697403164,-12.305489494998028
0.272,69.01802618905208,60.66740125261515,118.10099833553988,61.19263841957911,58.0420298103229,44.00922519779556,58.88637007110799,-11.759621146758718
0.276,66.98210861559727,58.56851877757663,116.1176447487261,59.076274182992734,55.93097877196249,42.01673134474572,57.24762621809907,-10.208015454296628
0.28,65.04949852168136,56.695689763906216,113.24412328406333,57.349004323274016,53.85325570382565,39.43504065309253,55.48729578346604,-8.236922772795424
0.28400000000000003,62.95990128766391,54.9095195414684,109.67206694275637,55.559361809042684,51.68940617124781,36.39005368319022,53.768155230722186,-6.8314169493169175
0.28800000000000003,60.734009639663725,53.19597305301056,106.00648092707706,53.57442099198215,49.5153341008554,33.309173872153224,52.538145772926555,-6.888194637879906
0.292,58.64880598640855,51.60848542459212,102.89869149188314,51.667975077276196,47.561762562688955,30.71350775851215,52.20261251138106,-8.667980690775039
0.296,57.07777580268305,50.193414907367355,100.64625453711756,50.34806841103568,46.066046826963884,28.97399230958763,52.79298454629247,-11.522738565669897
0.3,56.32661354266884,48.99849668933848,99.08080356591381,50.07220077881266,45.1367544210168,28.181336648175602,53.87149928895519,-14.14240745531697
0.304,56.5483982564931,48.15754885690342,97.83141479777964,51.03199476541056,44.73386112690582,28.188453242576998,54.757768905074045,-15.239529002187965
0.308,57.69516940444896,47.91355296531697,96.66471166762028,53.05464436143461,44.733476203405985,28.722371088177397,54.88563060071374,-14.280129919666706
0.312,59.46691070680811,48.48382931315268,95.59817606015895,55.61973647367233,45.00815059524996,29.467422781581945,54.042502553543954,-11.804939787195508
0.316,61.32129689512817,49.84893604583954,94.77427564171455,58.01401240550399,45.48896584691056,30.125472998389796,52.39612565370794,-9.147632919649823
0.32,62.63821061837086,51.65838730966766,94.30406416592359,59.61476633860411,46.204458643905696,30.495819423754938,50.36084940996784,-7.718738018513477
0.324,63.01814475878825,53.37003419562177,94.2514168487902,60.20053562323051,47.27816281596722,30.58782638889761,48.42707659402413,-8.260684463427651
0.328,62.50036975534124,54.51577917502675,94.65677959932236,60.053189125331755,48.821232739881,30.639135942343955,46.98508562849952,-10.486797542062732
0.332,61.515267265497755,54.90276248836051,95.46264268055188,59.73512015171582,50.74095706383639,30.96082201172976,46.145158876306596,-13.28460585023663
0.336,60.61608583811483,54.65938597289835,96.41079270627074,59.69954618762813,52.616715648343074,31.70035492852253,45.67645306587315,-15.352478336432796
0.34,60.17673480946564,54.13671154880092,97.06152750785623,60.0004160428233,53.779957035499706,32.6867594458065,45.15340988885305,-15.917744089259713
0.34400000000000003,60.23749705697696,53.735935495682384,96.99824447117521,60.30304880790254,53.62177029577049,33.4937056264846,44.2607311775098,-15.109798933870934
0.34800000000000003,60.51653791191325,53.705597956319934,96.02039965364713,60.1246570727543,51.931801968424224,33.66089735642527,43.00381448271821,-13.779483665764019
0.352,60.51514461950501,53.96843553196982,94.151030257392,59.104324095953984,49.03920432152472,32.9206747164385,41.67877243403166,-12.883353620123216
0.356,59.69382941756976,54.096454675053565,91.52264995355927,57.169594195608624,45.674689905249124,31.327123407093495,40.63967681061558,-12.84449065403237
0.36,57.712354721468955,53.50744985878896,88.31022099112147,54.56418622787737,42.64027451989796,29.23120520437601,40.04197574450063,-13.323269222518775
0.364,54.651951700592235,51.80858823668257,84.79585269068434,51.763812099086635,40.479884096613205,27.13988288178507,39.760425228964095,-13.528335040909951
0.368,51.038837785086,49.04266502565599,81.37947506715705,49.25992301528163,39.265728370440456,25.47845360197107,39.475085466062865,-12.846076090686438
0.372,47.61272685036283,45.668199232727375,78.40710799557496,47.298800322784246,38.5890424883994,24.358001227628847,38.83650836261495,-11.331764782097025
0.376,44.97263691761623,42.30805725541006,75.92994591033948,45.748522183642194,37.77438554786613,23.50805974971945,37.62184557694923,-9.747374885016598
0.38,43.31768835359526,39.45207077303985,73.62341540145553,44.20558728746619,36.23579297931087,22.441236025235412,35.84381500896143,-9.153638042946795
0.384,42.45005653208,37.3132785292031,71.01373356848853,42.320710320023636,33.827664382978355,20.79728257580723,33.78990279781419,-10.289178283782348
0.388,41.96643044847178,35.84532845779745,67.81588313137627,40.08771182363512,30.960066972782215,18.61323806875771,31.91062878685989,-13.102755510535644
0.392,41.46999366782677,34.84245153064296,64.12535974568186,37.87223312508115,28.392904447042838,16.30998600948351,30.56921185225974,-16.703290581773217
0.396,40.723302715163754,34.06793588516564,60.394733523287414,36.18960771676825,26.84153573392905,14.427176007632625,29.81459228723611,-19.754032021908188
0.4,39.721215529253186,33.37307158378178,57.27261585176302,35.39774808884545,26.622832429344044,13.289084670702096,29.346652339263983,-21.112394970081823
0.404,38.69338192717453,32.77953676446873,55.42484546826563,35.52125478324342,27.554649323989906,12.849210510835519,28.74747370444834,-20.372073126284704
0.40800000000000003,37.98761526461044,32.454608516370854,55.30400902766155,36.25289655849315,29.101041972455732,12.765217194247953,27.783528269544377,-18.001903369989577
0.41200000000000003,37.837248835058176,32.55111711880545,56.8647863898168,37.06614912934492,30.616409915915483,12.606961889010108,26.509112124133026,-15.040367041689933
0.41600000000000004,38.14696957746162,33.02461162253985,59.41751717634634,37.390780768906325,31.567220466376057,12.08315379651367,25.141278174476383,-12.561166814769877
0.42,38.466563091291164,33.56486001263363,61.803803883102546,36.80293157826304,31.65619369049182,11.173985602810717,23.835819145065216,-11.24031802907075
0.424,38.20305519384124,33.70379155584328,62.888570141072705,35.17942374513882,30.83696945869474,10.128598913272072,22.543126073660005,-11.231772030936554
0.428,36.934309254830055,33.019591038513,62.06589294066771,32.72202099243873,29.22887120827636,9.298674881327543,21.017338385628364,-12.322903372411929
0.432,34.6077977847666,31.29316391054988,59.44775284386765,29.816050243675818,26.9826528227195,8.885164598149004,18.959816499150747,-14.17410845230961
0.436,31.548442049949244,28.57031170177902,55.699170900833906,26.84448923328455,24.211400175656536,8.780676234195198,16.253904347737034,-16.45999030265466
0.44,28.324306763870027,25.15802640654647,51.70261877836742,24.086368652733427,21.04505466535602,8.6154338307756,13.186748588622095,-18.877822268465934
0.444,25.56569497556484,21.576351568900463,48.27625457405111,21.756870341043395,17.77351843398219,8.009777994836895,10.509870169670876,-21.074924011273197
0.448,23.758562642122115,18.42309513001237,45.972124674699444,20.06124349652191,14.902456397943752,6.824964143348552,9.192283721712784,-22.621022708777218
0.452,23.052846818333023,16.143584458100804,44.917455812328626,19.144965634171058,12.996494937167427,5.237446395078223,9.919710721108686,-23.097150470811357
0.456,23.174521022924637,14.810903865913588,44.761807168805035,18.972973179669225,12.37597774453252,3.6200365181825873,12.620149111206729,-22.289973051335892
0.46,23.54490800545807,14.080448948264348,44.8167766581455,19.287179763149197,12.865957875641698,2.33608650997121,16.36908766559327,-20.387607885836132
0.464,23.590523209154412,13.389901515000929,44.38568315535622,19.74896518734522,13.801004854211897,1.6244391216782788,19.80223548777235,-18.01572546486659
0.468,23.047594266108035,12.290766639639514,43.070979899172244,20.17483134748568,14.307582797235227,1.5941825050304033,21.80400709812261,-16.0217676935099
0.47200000000000003,22.06807143562537,10.71073793526648,40.862203151606764,20.688028821560238,13.716500263606804,2.2591113698190384,22.03869089784189,-15.072566215317238
0.47600000000000003,21.09720376016469,9.019305809764091,38.03545707444982,21.680665202032742,11.906480890100738,3.5737878946497403,21.027941559743113,-15.285546853837786
0.48,20.627336817654964,7.870643541195022,35.00445569251792,23.587904897142153,9.390663695380454,5.43698715960727,19.75100816454119,-16.1418061145323
0.484,20.968989592898197,7.906130502027736,32.243695214745685,26.589978482718607,7.09271687406158,7.686754614724123,19.03323854986934,-16.756416402025025
0.488,22.112333564846494,9.42894306923074,30.214670950725804,30.375078886649362,5.884997542384326,10.080027290226553,19.052087215473193,-16.356489650089316
0.492,23.695105623510017,12.186206240892375,29.206667742551645,34.09785314797409,6.10690783821974,12.273726847214675,19.237655181744913,-14.685179247012002
0.496,25.101335571143863,15.403399677217749,29.182465222138035,36.63779264280538,7.363105356927008,13.8707540178209,18.658164704573437,-12.097840365966931
0.5,25.709935530680355,18.11525253621903,29.784367947876262,37.115179128734326,8.764331604197423,14.557895048375713,16.723665968993828,-9.316227492482085
0.504,25.21623344613272,19.652918256867906,30.565768082357863,35.43044566615231,9.511693075931362,14.278874814193387,13.76845403306038,-7.004077010759829
0.508,23.834417832304666,19.99123026749487,31.263309972188154,32.45944355617053,9.441147521026323,13.29606581415942,11.06979655493592,-5.408943797143365
0.512,22.218044072646308,19.71715803474899,31.885962119468104,29.684996505698564,9.145767134860762,12.06139699372261,10.21232522583,-4.269766489817357
0.516,21.14059707046738,19.651167840772587,32.60022123640147,28.435841886022672,9.588060416251437,10.969915660631159,12.151374957580174,-3.0461369800705143
0.52,21.132054969612454,20.37275688607076,33.53704838514227,29.171366810844802,11.434536683849501,10.155328297979395,16.56412480530389,-1.3357314102354394
0.524,22.262265158869923,21.933241678210948,34.68698974432186,31.246883439440467,14.54132258588902,9.485235730199975,21.919219437317906,0.7973563213013222
0.528,24.134552526049106,23.885043832418773,35.89015217529072,33.27880655567117,17.90306837853018,8.72793505874074,26.220627655096678,2.8031874343857908
0.532,26.03917209805911,25.551817236580746,36.86071212625052,33.88407730246604,20.105899871310157,7.755680589051963,27.977202315494196,3.9705726959618914
0.536,27.21082214184537,26.369100452874363,37.26183979068787,32.40144373242367,20.05653821271858,6.669663130417348,26.858265977073188,3.8954538296004557
0.54,27.11977277658525,26.12310484059583,36.841621457979045,29.22216014180458,17.58399745432098,5.782531756706248,23.72006810444873,2.770842158271762
0.544,25.7014930048457,24.983230312627597,35.60221642751617,25.578256587122155,13.582340790500211,5.495119034186018,20.040694002100736,1.3075759466792078
0.548,23.3835949030306,23.312105015367706,33.82930232165086,22.871626657013053,9.552556695870635,6.090037263934846,17.09453807258251,0.3230087126332819
0.552,20.86102157229277,21.37563235046082,31.89605534830207,21.898587904840838,6.778586862499765,7.532782410696882,15.325827358819879,0.2646521727756408
0.556,18.746610583482948,19.168113730102846,29.985621389671223,22.427635613129837,5.632760408453123,9.414050017421005,14.257119653555264,0.9587558833000003
0.56,17.3064372954766,16.492230901335915,27.961357746856265,23.390773880104007,5.430365405623775,11.0835477245746,12.966114218216944,1.7253986781677213
0.5640000000000001,16.42418294209267,13.246265461717599,25.5272920886498,23.58308661592082,4.935759180950072,11.943942822262898,10.807733079775971,1.7872312694794346
0.5680000000000001,15.760625095271621,9.688437814937743,22.530740658190552,22.410785726448466,3.1876530198461523,11.729318227244448,7.891822251262965,0.7312399198185631
0.5720000000000001,14.975036279410233,6.452960213636288,19.16975684904378,20.2143899972599,0.13453989814786382,10.611672959360021,5.030491369529273,-1.231017261630086
0.5760000000000001,13.892257372883137,4.284356027343392,15.985924685229065,17.99822467953436,-3.2877910639019774,9.100192483357432,3.25257122701737,-3.357443615376951
0.58,12.56245294487519,3.6614487106456863,13.668458898529025,16.76497864491205,-5.663607722403071,7.794538954413838,3.2417102962833724,-4.784973750438667
0.584,11.218779326948606,4.5606847620789495,12.814554581896118,16.899952351153615,-5.8552164059518645,7.144211013078348,5.058683648927172,-5.000806051984
0.588,10.142849776181947,6.481347771775518,13.703742266484255,17.945800175814497,-3.5930510917474976,7.281629475484124,8.238765625435008,-4.10109387210241
0.592,9.486754324255116,8.690891665062622,16.140192652555243,18.855334866108592,0.3966666146799298,7.96485980294392,12.074361420968216,-2.694963487949508
0.596,9.166229489240322,10.553996126103016,19.465227746842743,18.574804270702316,4.7716977498306505,8.667679407143396,15.852868138163103,-1.5324844517583642
0.6,8.918385329806597,11.775752925508868,22.772989922839542,16.63105652154252,8.222167159265723,8.791711318837542,18.94632207110749,-1.1102488562898998
0.604,8.524532786878353,12.46399987835116,25.29047488582205,13.42335330301114,10.048312629688553,7.9589873991587865,20.8136938271266,-1.478796294171616
0.608,8.01921979699307,12.968384536631675,26.680472577592923,10.030156485717498,10.346148565229555,6.228801072849137,21.02626343955626,-2.338750952281316
0.612,7.722305972189929,13.594200828303656,27.073567527029013,7.636077851750997,9.745358655228074,4.113892455149653,19.39491411160759,-3.2934198363959695
0.616,8.060067422721772,14.376207825699339,26.85576107880661,6.91911541075433,8.926823548351194,2.3819153338918113,16.172800731709003,-4.076518986214751
0.62,9.278987813755919,15.05273072486682,26.375350633823587,7.742797414366123,8.229407737842507,1.7200243086215323,12.168646430443687,-4.649396685683314
0.624,11.240989754368286,15.256166228633333,25.77634191196023,9.323559157921522,7.566131966265289,2.4414027696479934,8.607464415689606,-5.136877534092491
0.628,13.405074281473958,14.761179209235706,24.98265470512638,10.714792777173102,6.615544124450821,4.346379078144537,6.674514002806745,-5.674845361099187
0.632,14.99976925750974,13.60661426648744,23.76672693820001,11.28400540061773,5.09614665947538,6.788727373804022,6.897124256395955,-6.279723623615382
0.636,15.32189970091298,12.033311528051513,21.86558347283892,10.940229517430225,2.942691969662519,8.942027609427896,8.757380867275515,-6.816587032019925
0.64,14.057041240648175,10.32816153970623,19.134871003002786,10.051198428256953,0.322898268744666,10.164239805401621,10.867104278727993,-7.076207229085185
0.644,11.472406974978753,8.70367550953631,15.717166325921767,9.168574693998835,-2.4457867107425955,10.309685611570103,11.701392989376131,-6.889515715339485
0.648,8.353295816410764,7.274976810151202,12.10822030031045,8.727531129597537,-4.994427703237875,9.80154746543235,10.494632522129677,-6.189591752079423
0.652,5.662759075758686,6.099357063523485,9.021751557644393,8.85309732342023,-6.971546635959385,9.398947262140155,7.729652310980782,-4.987034935836618
0.656,4.09454173245075,5.219234635071757,7.106411386675973,9.346254280846551,-8.081822238680388,9.785524179679442,4.897913825672845,-3.3073753074820615
0.66,3.763601452775731,4.674493231000724,6.679578337975954,9.8318225235613,-8.12046773964505,11.18702983003027,3.6432681720312985,-1.183614093906499
0.664,4.223996038692803,4.491653992579813,7.650286706999395,9.99334203283388,-7.015207724673132,13.260031615205662,4.7992392740889045,1.2775040853466635
0.668,4.776651872304001,4.655711682111132,9.619875912838893,9.732910439992452,-4.891342056474059,15.286675976772699,7.885841322427268,3.812204031172314
0.672,4.859095495596478,5.086278376624762,12.060942273194314,9.165976266830171,-2.1169575566622143,16.536989131375776,11.355295309877874,5.99234398517865
0.676,4.3116364302138095,5.6634530019616705,14.497723448302509,8.494820516329924,0.748410705248034,16.604590897506455,13.457291354746872,7.341494503317335
0.68,3.411493663778856,6.310195864711943,16.639530143174966,7.875480386178083,3.1327737472257695,15.552903200690253,13.24246960800599,7.523379381566201
0.684,2.6860072218671007,7.0769387772439245,18.45115120099115,7.381063238896672,4.691609464422186,13.83511866127867,11.115081459575322,6.50104156473401
0.6880000000000001,2.607045983521232,8.144690324218004,20.098932449615404,7.0516928246578345,5.468340627978364,12.040733502501894,8.590327372692855,4.581344454262535
0.6920000000000001,3.3143290031972015,9.693767430645892,21.761902383649954,6.945800084106168,5.8547886689913184,10.61648301819821,7.384142183899826,2.321215489115957
0.6960000000000001,4.525045818524063,11.712758267527988,23.433918365258364,7.144566118396028,6.363230765550838,9.714604509646392,8.377261638046434,0.336041849293224
0.7000000000000001,5.684050161827656,13.892502519094762,24.863646029089978,7.704332941232678,7.351472516150125,9.224238324746011,11.094540179214846,-0.9050368745984088
0.704,6.289196409533417,15.716782471544605,25.7157149718023,8.61615672913706,8.87321366985043,8.961974286059785,14.024381097748574,-1.206754601757666
0.708,6.174423783478801,16.703157978073364,25.81428055958645,9.773895404142763,10.705188748081014,8.84609084396368,15.54724923342269,-0.6546083028354133
0.712,5.555491860873758,16.626616914625515,25.256473576028952,10.95004921046916,12.483096198749422,8.901628114917116,14.870868878475449,0.47273491038993143
0.716,4.838192819110134,15.604379010766479,24.316545264946626,11.813407622794614,13.842818237441634,9.128068020026376,12.424997498661696,1.8236636920431692
0.72,4.327653410572509,13.996221473280855,23.208302159373716,12.001431159454455,14.485581502484251,9.361084488722668,9.523281213463747,3.067163081759759
0.724,4.042987204838369,12.195103562820634,21.905854582535312,11.25866614787219,14.178449304342564,9.28027294275114,7.543234024726303,3.947373089741859
0.728,3.743901334058762,10.426799984009222,20.11900344028686,9.563086406206025,12.735172805706384,8.58528337570226,7.130114951492601,4.328383366239677
0.732,3.1283402569738428,8.66743635012648,17.443791881183415,7.159731984494442,10.047111129824032,7.229690063196244,7.874620109952048,4.252833467215737
0.736,2.076074499310721,6.730149634475708,13.63965255049061,4.496265444593689,6.198914062290328,5.5495268377823095,8.639610358401342,3.9915495142114423
0.74,0.7790110539103239,4.463202479958738,8.881599491565112,2.083074415596343,1.5944906493203348,4.1671589290943984,8.316005415224254,4.007404045934436
0.744,-0.31983564908091466,1.9351490841054897,3.865067448882769,0.3519112970789706,-3.0055941102158954,3.7130647771881513,6.537977506576112,4.78445576557408
0.748,-0.7783236015605439,-0.5397910308199698,-0.37455760892021317,-0.47004163100865526,-6.648715289368226,4.481002399655154,3.911682531510678,6.561970266138928
0.752,-0.462324880532492,-2.5719441897252864,-2.901543629267337,-0.4406556744351633,-8.548491023904262,6.209423618641267,1.6152591390530233,9.113224874191246
0.756,0.2903365713402195,-3.9441366790597385,-3.343945169877827,0.1019988032298329,-8.46013763792422,8.155432969883691,0.6343674572573264,11.71822734728687
0.76,0.7834418142953155,-4.752316556333938,-2.1030312990217226,0.6479177538169552,-6.845896774694552,9.434596350450647,1.1273270874318086,13.385411278843321
0.764,0.36117329548392263,-5.301709502783922,-0.12043963301357508,0.7388046696233346,-4.666236093657176,9.484275145740753,2.320671220489203,13.271656137752075
0.768,-1.1346131665806638,-5.822785467545714,1.6572851750767086,0.20713238109266285,-2.882466769011387,8.375628086602092,2.9978863738440396,11.123522315379773
0.772,-3.162009073146976,-6.225067288536252,2.771570420543128,-0.7223863703860616,-1.9538325798356482,6.759152930585856,2.267282339671169,7.508293985726482
0.776,-4.680185396736817,-6.076738192918583,3.425414623017673,-1.5243444858604676,-1.6090995916237034,5.479890087047465,0.12438266137462506,3.692945474453836
0.78,-4.679915705401356,-4.867483935167513,4.230497655214833,-1.6381004170900155,-1.0535245464451464,5.084027136989334,-2.5226727968667433,1.1597819311547255
0.784,-2.7562719734447683,-2.4087173220651152,5.721504828130037,-0.7653930299596823,0.5083109128148067,5.534804571670861,-4.362147799382456,0.9560690000565728
0.788,0.5819111649502133,0.8806635730915673,7.921910774396679,0.9350795767510363,3.324587034869978,6.282741359430474,-4.430804916400405,3.186684610783118
0.792,4.047889607446933,4.0084926364765465,10.207260290792476,2.8557859509075456,6.8405839237804,6.642681123025227,-2.692693392360809,6.91422604044385
0.796,6.143462993912664,5.822800008830939,11.586361243295016,4.19137752154279,9.92509130561433,6.264027305437821,-0.10124387789625189,10.544684318266263
0.8,5.894445360443797,5.617940593354376,11.26914344231443,4.329086671025209,11.471402385773672,5.39396199091766,1.9213157919486434,12.529751990449085
0.804,3.383511908312016,3.596912978752755,9.211022134448001,3.1942375915410253,11.031069944250874,4.781769268785979,2.2671254214049554,12.046681279897484
0.808,-0.22643127333472535,0.878218359683899,6.265135382126516,1.3431146339562474,9.090350358719093,5.255049110374557,0.7485384768844483,9.332319109482569
0.812,-3.2451145668748893,-1.043734139126741,3.7646802142495517,-0.3079756975795931,6.77831979298071,7.190599890437511,-1.8440750282396152,5.51907077778651
0.8160000000000001,-4.3164195851646525,-1.1324704950241085,2.7345204123501503,-0.9976929276266446,5.155180243853351,10.19806871319895,-4.254988683921795,2.0632895561989244
0.8200000000000001,-3.1314256961236993,0.5260669236382682,3.1854702616487884,-0.5937343133189756,4.497174080901516,13.207099982750037,-5.533308323073925,0.04457998534644503
0.8240000000000001,-0.5973134879523343,2.647357924768869,3.963747113997613,0.26976691817043275,4.03351028319878,14.953470902014033,-5.58660097415634,-0.3223307576654406
0.8280000000000001,1.6475449724880775,3.378652262466005,3.302323868050678,0.5132832311242623,2.355398878798212,14.607480251140714,-5.174739108692165,0.30200864580797315
0.8320000000000001,2.1050069818714405,1.3233659543546992,-0.20466831348448977,-0.7698250556392168,-1.6968908520096875,12.20337298744937,-5.363625379402777,0.8562328999756801
0.836,0.21838042487971165,-3.579240725551074,-6.713094024887994,-3.7263730176625245,-8.15400859461954,8.647456604416902,-6.768497771022851,0.5744984606681101
0.84,-3.31390186443042,-9.81325844662581,-14.82366101896946,-7.527960566850481,-15.571983946292562,5.292165121259018,-9.046262728030058,-0.4983412789679278
0.844,-6.87850773445453,-14.879569745850915,-22.05309879499407,-10.68914904314073,-21.488909796197504,3.3129756377288686,-10.987913708329472,-1.4976807549012392
0.848,-8.77241658233035,-16.481483341673197,-25.91066687475768,-11.803097371922831,-23.529454670143423,3.1816339531636686,-11.196319740588535,-1.2794008805490193
0.852,-8.098721909100277,-13.725914287610436,-25.08304798521135,-10.335819396305453,-20.623125744552794,4.47214095988636,-8.993823162427816,0.778575741267673
0.856,-5.280997284527302,-7.725873174401613,-20.136523149506957,-7.0521156109782055,-13.704192501201533,6.068099685311381,-5.083249881132701,4.164690892533599
0.86,-1.9208356559434208,-1.2483837565029035,-13.356075449611922,-3.7984268843004543,-5.480816329344634,6.6348156797254205,-1.5015209540523529,7.190133126207229
0.864,-0.04244604771938043,2.4861141533502575,-7.723495939544932,-2.6763745654602076,0.6935829032038896,5.171776034190998,-0.7704042657189802,7.640020940050874
0.868,-1.112362302095221,1.2823482001041384,-5.553652228854105,-5.018995457074311,2.3085488556704377,1.400133512487571,-4.636241481509387,3.8358175199920765
0.872,-5.320021930288419,-4.985583024612907,-7.467736940511145,-10.69141958205941,-1.1752904947404659,-4.151971708692258,-13.036049026897047,-4.399013940992688
0.876,-11.464829231284028,-14.279272288493956,-12.198449217066582,-18.08483699036742,-8.10377024723715,-10.350546606223475,-23.856122124178,-15.38003777259786
0.88,-17.483058771768043,-23.286462202379056,-17.29659320168406,-24.807554311187857,-15.409913786877894,-15.835202115550999,-33.65742354813267,-26.055906525756427
0.884,-21.31306579442881,-28.836909441092644,-20.30313132611292,-28.698704716489033,-19.97761065746127,-19.402179549355424,-39.03582923063067,-33.16939146569035
0.888,-21.696140638310567,-29.18333467954318,-19.819045362213046,-28.679917733524746,-19.940081074295676,-20.3027381138549,-38.006001274654125,-34.559452757269185
0.892,-18.583729101349576,-24.591474205246868,-16.005938119035704,-25.065317566651714,-15.336251699695254,-18.39826221880446,-30.794524020939264,-29.988741528393916
0.896,-13.02729823266742,-17.026804124982903,-10.334379189810534,-19.23667676490834,-7.884210621826412,-14.15041738627923,-19.68675538666423,-21.112148665419113
0.9,-6.664225354279694,-9.168509047096137,-4.795635261073187,-12.921687639096945,-0.08726594570276802,-8.478109709891214,-8.033909583631441,-10.65278845963826
0.904,-1.051022309531362,-3.249680204457718,-0.9874389377986859,-7.447394652347839,5.853546203563781,-2.4849464929504848,1.0990501272266897,-1.2221223457706856
0.908,2.8579574552301494,-0.27130376817081014,0.4614864495313782,-3.330620882080666,8.791579557825798,2.8579962533658545,6.034055171914929,5.636123999909842
0.912,4.872516764601869,0.09464562267731935,-0.12156082177421013,-0.36143253979037127,8.763592775364032,6.957945285979804,6.850649994025844,9.777317578208567
0.916,5.382498137432663,-1.007248620097016,-1.941041325939409,1.9694462733687033,6.583948080104676,9.696455179250847,4.967727507325662,12.115489331893059
0.92,5.0034587699529425,-2.365222611997069,-4.334825136473569,4.008343419054768,3.239298061166437,11.337010986625046,2.2432881601464487,13.887672560007331
0.924,4.265990655082078,-3.2665205466880707,-7.087021521825477,5.724117344117417,-0.5358853334533933,12.310246789939356,0.09240827094731685,15.95163601712602
0.928,3.474847368226392,-3.6317482904098597,-10.306478574903053,6.818696312715133,-4.3245367065710525,12.971828428799881,-0.9631934490961385,18.456561457806174
0.932,2.7448296812967214,-3.753634876044771,-14.019516804495652,7.027732485596232,-7.807097282348536,13.440467547713979,-1.2010660950926422,20.965214271788
0.936,2.1316099036143896,-3.8902866205463056,-17.787710202912194,6.386171143604656,-10.504072944109112,13.59899269360028,-1.2341854435990172,22.86230923350115
0.9400000000000001,1.7299387921759717,-4.004306982288313,-20.65487844633401,5.2693182764229505,-11.733441063339683,13.22190003530136,-1.5135877764937504,23.740935349781466
0.9440000000000001,1.67350955529173,-3.79458647541486,-21.472289553351402,4.20491407145073,-10.841765570696452,12.15890321126028,-2.053153404885734,23.54621965873025
0.9480000000000001,2.057473280845386,-2.9524560040551364,-19.44283999305526,3.5911620826371973,-7.575622532189982,10.460045223117504,-2.4676519721656405,22.462844336392664
0.9520000000000001,2.824326408458603,-1.4527403659429865,-14.602319222785354,3.4863553071591014,-2.3566936184454335,8.355219104583284,-2.2913490916666888,20.69620519498335
0.9560000000000001,3.7124313397442847,0.342312357757919,-7.951474128971313,3.598049836497694,3.740148680925927,6.1290033346172095,-1.315745894290103,18.349239726946735
0.96,4.310722534978481,1.844529750336278,-1.1458938006156814,3.453468991295381,9.328876409085069,3.971779162776784,0.2478588325261626,15.475062422901829
0.964,4.228554165338039,2.5893722435483824,4.1541231698053025,2.6725788853142376,13.239202706674405,1.937226096316408,1.8796597284190284,12.249161858259413
0.968,3.3002901239313474,2.541469408350167,6.945597682762809,1.1811379168880194,14.952526145461661,0.030244871222294023,3.038234863620687,9.094662628028345
0.972,1.7001827946307912,2.1414209749449356,7.209281652272352,-0.7608864939534214,14.718643619960972,-1.6512900618135973,3.426123350718285,6.624383571421731
0.976,-0.11643048855125926,2.034351218343545,5.749478676815443,-2.7114185366458514,13.29942922899636,-2.84216284149943,3.08761410221814,5.4007715602106146
0.98,-1.6190796487348962,2.6302892307761567,3.65315035935123,-4.276773075977417,11.487667834872468,-3.188076125497446,2.293600339613704,5.64245169483047
0.984,-2.442673238530574,3.7765016027403817,1.7107022762842234,-5.27408524352802,9.68850222459264,-2.4292024316960124,1.3219711485116932,7.054591163276655
0.988,-2.5363444972605294,4.7545391988056735,0.10140701422801612,-5.742836274892852,7.785935558817982,-0.5874856193026972,0.28996850974408517,8.902983802134258
0.992,-2.1572609583548683,4.6242279314947154,-1.5313710377201915,-5.838419045680553,5.331256964911063,1.9656921741707265,-0.8787470816650966,10.317579259241029
0.996,-1.7125379050507945,2.736216375203526,-3.7094589662701765,-5.694227905366233,1.9227975645333117,4.635357348810885,-2.3349324148912274,10.681154620917368
1.0,-1.538110285338803,-0.869172801550576,-6.71281789547993,-5.346750874722261,-2.456725892362556,6.852598355795635,-4.125953808433906,9.901002487356891
1.004,-1.7236493690124917,-5.404161956952521,-10.346991738993665,-4.749063163718347,-7.3269380837687095,8.327770243385658,-6.065096509818886,8.420126061974315
1.008,-2.082617267219689,-9.668797429941833,-14.011039509890452,-3.858898995951222,-11.88505714650023,9.138975605512769,-7.737161564080225,6.969969634495101
1.012,-2.278070548004962,-12.610780293395464,-17.016138317328114,-2.7319032447380778,-15.36185098926444,9.59652592907105,-8.66503551586925,6.205200704443541
1.016,-2.049824726028419,-13.818306257471704,-18.95829526954185,-1.5611138844028574,-17.347962412999323,9.968124482869825,-8.55302915232619,6.412377725374881
1.02,-1.3993475050396,-13.674124241343634,-19.919528450493544,-0.6299903900192021,-17.909559483350677,10.233350062014324,-7.473746756406399,7.41481713115445
1.024,-0.6051912703763946,-13.070663213509079,-20.345003185775795,-0.17768602534351885,-17.426011216785582,10.058595050269787,-5.876543852766645,8.689802761635747
1.028,-0.05036030552162174,-12.841917676872981,-20.6763978953295,-0.24932755031591114,-16.259093775922338,9.0166978728289,-4.396793349123072,9.60913682011369
1.032,0.04222623410032611,-13.22679778205179,-20.977740000052563,-0.6231435882523328,-14.457459978529641,6.917454948925297,-3.542391120417733,9.688934029615666
1.036,-0.20427722315560004,-13.689449418353433,-20.803144846278883,-0.8854193674328599,-11.699536543122122,4.033184654177603,-3.4337983641025858,8.74131721928643
1.04,-0.3526411381079697,-13.221529688177952,-19.426117552164897,-0.6461301237263797,-7.544190373421316,1.0374027336347353,-3.750862961291432,6.886796161448274
1.044,0.10620067934371491,-10.959004949099153,-16.28896220804154,0.22332845975051896,-1.8426563562443334,-1.3173003445690483,-3.895777315798341,4.44564767335487
1.048,1.411367247750377,-6.780130974548001,-11.427769340180475,1.4483290718017088,4.918645667333067,-2.6076720662595108,-3.3281116740931793,1.7745602888981011
1.052,3.275327692336191,-1.5504386623263144,-5.642935673624379,2.3982810649536077,11.558741918033775,-2.985088817916221,-1.9004961369118973,-0.8857563267288242
1.056,4.876894370378068,3.147416897280891,-0.29827472689635215,2.3336274389178016,16.512054129207627,-3.0911666153633632,-0.02321828189315056,-3.484170948936935
1.06,5.144478962638914,5.686454488583649,3.1607187422150673,0.7426584571130661,18.389933921007696,-3.6912968790743435,1.4454982176976046,-6.129592570630848
1.064,3.2430077244582662,5.151043609316048,3.77735350282137,-2.3623854585634945,16.55729174469957,-5.2055830007716395,1.5571293198004241,-8.970169507495939
1.068,-0.9515477795466722,1.7988059469773816,1.4755173098940304,-6.342438017201857,11.443327145955664,-7.411847986229986,-0.2646019324633926,-12.035967023191006
1.072,-6.648149465206188,-3.0234836073670976,-2.926691057011112,-10.10901751642541,4.409483077530467,-9.508934389011301,-3.9001405602252817,-15.118734939031128
1.076,-12.3481229620686,-7.482388368786133,-8.082508021408557,-12.529470273856987,-2.7787252039440773,-10.514980960958837,-8.539033320633735,-17.750650147877877
1.08,-16.42073210792819,-10.099149392304525,-12.719983926269833,-12.909433399354839,-8.66587078118937,-9.808878915706373,-13.040476978243078,-19.342922500717577
1.084,-17.78258758660263,-10.397585106547012,-16.15328353275345,-11.297191013770089,-12.654118504546886,-7.488850884802105,-16.458699824072937,-19.43511951122491
1.088,-16.35173228804524,-9.037267034646447,-18.458531022233274,-8.454261675966336,-15.126216857249801,-4.352548761057278,-18.450839098931738,-17.952217584184382
1.092,-13.073254496257505,-7.398341952376313,-20.27247599932707,-5.508160656594782,-17.099616996413715,-1.526078379862156,-19.361031841961903,-15.330693737608271
1.096,-9.497093290400244,-6.854935556978717,-22.344951937961923,-3.448417260576207,-19.590817915263415,0.0556801447005455,-19.917215709528136,-12.406348128009085
1.1,-7.107479673913076,-8.122474721909157,-25.114020725235605,-2.727640003391116,-23.035176727280486,0.03175786741394404,-20.744314801264863,-10.091059442271217
1.104,-6.70072570113598,-10.978506549702388,-28.467475281613133,-3.132732501526789,-27.019772563330662,-1.3040559605192357,-21.942273497804763,-8.971349867294066
1.108,-8.099365374799845,-14.454502968194447,-31.785341683008028,-3.975331665280464,-30.458989818402642,-3.2363214773058644,-22.984924331422462,-9.0422151333064
1.112,-10.335208902499971,-17.361465076491413,-34.22197981835643,-4.499447345570616,-32.11464236865413,-5.010956469416669,-23.008539440690583,-9.726446901742293
1.116,-12.19544686623135,-18.843974032325832,-35.065205974218316,-4.283177023837197,-31.180894705357787,-6.1465678928711895,-21.337505292489368,-10.17716706992178
1.12,-12.853145918389146,-18.68578481083796,-34.010272537034325,-3.4344675804413782,-27.644141865791426,-6.5517364204247315,-17.943391959739074,-9.716166403082298
1.124,-12.253589579474692,-17.248821970254085,-31.21070422402272,-2.4846369857705213,-22.240821535945543,-6.428206215745831,-13.550897377784167,-8.184657383051217
1.1280000000000001,-11.049851914654255,-15.135725847634149,-27.116373134501828,-2.0488645878131138,-16.059880910733682,-6.064479451395982,-9.305847701125913,-6.01871737723377
1.1320000000000001,-10.149888625803442,-12.817928670978745,-22.235893250666777,-2.4631667814346656,-10.032652737708304,-5.675353366228592,-6.187807233247895,-4.011898565714546
1.1360000000000001,-10.151815841419875,-10.455759844825025,-16.974604577139417,-3.6064901479153377,-4.591168864271822,-5.371532619531536,-4.515274442186183,-2.895412174141711
1.1400000000000001,-10.984233005434817,-7.989651368643081,-11.648640508051358,-5.003677125516333,0.3203255146349875,-5.245172362120684,-3.8446154411421958,-2.9717559174741837
1.1440000000000001,-11.947978929038754,-5.392351835934733,-6.595575300762903,-6.1203384073246525,4.936467629963772,-5.450049645389299,-3.318220360790747,-3.9941480435054473
1.1480000000000001,-12.117705644139505,-2.8688595961166357,-2.24841334869825,-6.662435439665387,9.282000658273773,-6.17299740810904,-2.2375224810180043,-5.3446229553555895
1.1520000000000001,-10.890496725638286,-0.862455257903548,0.9044473121607552,-6.710970880871628,12.950756251972052,-7.494321765811037,-0.5228595360154031,-6.38734613577526
1.156,-8.384496628005536,0.13267754005437382,2.474634845201763,-6.627747597808593,15.199711470776947,-9.230447683807142,1.2163352203569957,-6.776327835223128
1.16,-5.445981615224355,-0.16136257385824138,2.345079778247964,-6.799356495544998,15.313618666933507,-10.88924456109271,2.0487162006274957,-6.550973571013856
1.164,-3.2439260779258348,-1.6259427284803678,0.7643438243953824,-7.367062118820741,13.039251039688224,-11.793466453960718,1.31749471702733,-5.9974829784541726
1.168,-2.6487355509646022,-3.754719896852748,-1.6886963153533543,-8.088628855703519,8.841461416765014,-11.339463110015458,-0.8904410032591841,-5.401520113686274
1.172,-3.7390005688205292,-5.842640430001666,-4.277919099002702,-8.417201924879919,3.8254366288751953,-9.273030782254864,-3.6911731326240442,-4.857008613716971
1.176,-5.713111277074859,-7.252676025629171,-6.349358344974007,-7.758779455225522,-0.6562628948454403,-5.8296141219125275,-5.8235792111750015,-4.244014296074965
1.18,-7.282599137112584,-7.634860440960438,-7.5474344106241915,-5.7822010006261735,-3.5431565170561043,-1.6833856762568757,-6.313880587323638,-3.3689526270918577
1.184,-7.329092531628248,-6.9901107551077075,-7.883137962166529,-2.598040712979582,-4.477041592876958,2.3011502174049383,-4.988222513510209,-2.141826790543746
1.188,-5.48062805236259,-5.591141649340443,-7.645500577847088,1.270448650284834,-3.898701186452854,5.392081995351873,-2.5358759825157904,-0.668519087864297
1.192,-2.3005633495313305,-3.84531206480915,-7.236891315220873,5.0986507946008714,-2.805148005719275,7.231068807765951,-0.09351256220179494,0.801834662789588
1.196,1.0058877027290691,-2.1852450343317287,-7.024635815686906,8.238927977401545,-2.2942041198189145,7.891213806440646,1.392051318843187,2.0436969022302947
1.2,3.1860797951799213,-1.0245555545402567,-7.291082237320097,10.305976232615194,-3.112855537498035,7.726489099324681,1.645847877005508,3.0119035384168455
1.204,3.532592081081475,-0.7120332945837617,-8.217544776417526,11.215048509584904,-5.370333797533021,7.136002680596903,1.14850115324316,3.8797342724319606
1.208,2.188650387285179,-1.428144892889577,-9.83122534899212,11.102995144291071,-8.497408207953413,6.377373136028837,0.8027334157013684,4.929071687788564
1.212,0.01644183093094398,-3.0425166463164715,-11.910257188250398,10.200468326899681,-11.43427170970881,5.514758738374439,1.3996787470350682,6.365749475880875
1.216,-1.8994969040304568,-5.035480655426909,-13.924956547303736,8.720874988897776,-12.978609519817383,4.493860839676017,3.188490275060758,8.172505230432762
1.22,-2.8453472952019183,-6.605615127548845,-15.13756309908058,6.7962201552441,-12.203737801090028,3.2437495796120857,5.762042998807374,10.079663828759294
1.224,-2.8261587943475206,-6.966892208860827,-14.85616031547579,4.4947822218964575,-8.807428790284575,1.7636007259279722,8.302552321161784,11.656812469743272
1.228,-2.4751582741973834,-5.7168583286575085,-12.762437815958037,1.894904484116978,-3.279704556656725,0.1512253622731805,10.015052900520459,12.460826014938903
1.232,-2.606595049066982,-3.087618656980794,-9.147327286999825,-0.8500098422573501,3.181591253883198,-1.4354938349879376,10.48948539824596,12.173698423733185
1.236,-3.669294753442955,0.09292483812714636,-4.895545731306811,-3.4852257783604728,9.015562266495635,-2.8325021949522124,9.819089641440769,10.700412926776153
1.24,-5.414153135667675,2.755536854827369,-1.1940271728381049,-5.686770176538175,12.80511104723746,-3.9041493336999338,8.442875627430112,8.220232300035605
1.244,-6.965243197958898,4.110956090511081,0.966404865765071,-7.129236973177285,13.777240672905464,-4.53169927187264,6.863928561905595,5.194565464640618
1.248,-7.255527537170565,4.057340350598224,1.2493673771814429,-7.571206837642876,12.073548191194277,-4.597609350818857,5.4394008552462765,2.3002661217306013
1.252,-5.597602470965285,3.2299437607407526,0.1300761928259817,-6.934809243096879,8.651193745933597,-4.001880552332295,4.321680617445054,0.267460991547523
1.256,-2.0912077858847624,2.6414727059755023,-1.3665811288065015,-5.3603979146641905,4.831097849723847,-2.7269060537619225,3.5149276851852846,-0.36100620851175336
1.26,2.3356144235458487,3.0829640990159533,-2.2665766688833173,-3.235739840905808,1.673304635713066,-0.9509015879821163,2.9412607298372677,0.5128323699200337
1.264,6.30382917603356,4.642755828343979,-2.223882284031788,-1.136386200335437,-0.4927514019946102,0.9007851877613575,2.4590850978411254,2.3965220271484213
1.268,8.597540715842115,6.6388823015577145,-1.7270916810566632,0.3402488197943967,-2.1307774492770477,2.2398092784669643,1.8532201946536588,4.295272494490746
1.272,8.709669220582782,8.013707075323055,-1.8057122260925098,0.7955249787291905,-4.117715522423168,2.532944189313639,0.856862276405991,5.063183206680151
1.276,7.029526089052979,7.947014522344034,-3.4074249661707654,0.20089593388547655,-7.137312632177782,1.5652394853022997,-0.7421977334870462,3.9124531907509663
1.28,4.578754241843853,6.3145234497233105,-6.82998610913819,-1.0894248687063737,-11.208930618180602,-0.4032928274382357,-2.9491193014982855,0.8518816923278791
1.284,2.436020130194265,3.7139937250785806,-11.528308437597843,-2.517244450803446,-15.63439724033924,-2.6829396575976716,-5.446530761238137,-3.2057781675321166
1.288,1.1721399039538483,1.0581345702830731,-16.393360431273322,-3.6104331198930595,-19.38932977811055,-4.413175828738531,-7.61216273393984,-6.7710401495660335
1.292,0.5851154731612951,-1.0117755770706935,-20.340158461101055,-4.251327023232989,-21.72586384040642,-4.938136014458905,-8.724491482334997,-8.415045915036899
1.296,-0.13612582583209587,-2.5091574467242026,-22.844897169300566,-4.76913213996886,-22.595832273492306,-4.112205977538906,-8.27819851698041,-7.407773125592939
1.3,-1.918234277951342,-4.034447662212642,-24.129674072695707,-5.791006163826751,-22.629248594124874,-2.4020467020964134,-6.25435160485722,-4.034772830287693
1.304,-5.2371479110925065,-6.2824800462503845,-24.86669793492183,-7.885664664285287,-22.653170458344903,-0.6976308547746157,-3.170926410283755,0.5699273466270824
1.308,-9.770517027270216,-9.424098916542789,-25.580628506430912,-11.164887307704703,-23.033701069472954,0.08970331243290275,0.13706721304788516,4.974450428573618
1.312,-14.447803121796824,-12.767548933290527,-26.140109852425667,-15.064482798682548,-23.27440621277674,-0.5422817194630625,2.89764954509792,8.085825527050474
1.316,-17.88515513370794,-14.95979049269863,-25.69362042337616,-18.46337952756585,-22.168542114309275,-2.439357628851212,4.747331477588887,9.547916734867613
1.32,-19.015195949724784,-14.674492871821712,-23.159413153442074,-20.15051778327779,-18.493497508557084,-4.876354592417556,5.82149164045768,9.718882440320158
1.324,-17.57644161084818,-11.392841725055405,-17.96286442708697,-19.402616684158602,-11.851790482344768,-6.90391578940762,6.5534353690673015,9.298726638682638
1.328,-14.201166817373178,-5.794635336072133,-10.558898999664052,-16.35980252040372,-3.1390064160468683,-7.77397193712568,7.3357097378166145,8.856371112908164
1.332,-10.077874297631752,0.48504095270709513,-2.401215763727123,-11.995020990661942,5.6765781863250595,-7.241145258651159,8.25872923442239,8.537080002210132
1.336,-6.38070037470834,5.615625961822843,4.657587045643595,-7.672320616076831,12.390843676313125,-5.6022499195241835,9.076821818153803,8.104401720216629
1.34,-3.773191372594283,8.427274411293183,9.189645866545106,-4.525962837476982,15.572875998349446,-3.493486207267779,9.407271307651172,7.241956669779029
1.344,-2.221951544487638,8.902044281816416,10.814230504670377,-2.966737365338304,15.207942293728593,-1.5544009836376063,9.039617037925382,5.88913913540091
1.348,-1.1676617825719404,8.055922691231899,10.293066368232758,-2.554397635076384,12.634289886555052,-0.13904686644855246,8.155844434129904,4.37994115402762
1.352,0.0709429663861556,7.297931677458109,9.053814099755982,-2.299677804815474,9.816791552264476,0.783840001677163,7.302889203271661,3.2972141793416085
1.356,1.8807614628735791,7.635640002438777,8.408976117109887,-1.2381627137419855,8.353078363190434,1.5137564041524456,7.119755725351752,3.1481764150412346
1.36,4.137954108070517,9.168274232620206,8.879275563024748,1.0209376349430386,8.749541061654782,2.3566875294163765,7.962461559957774,4.080504862638918
1.364,6.310833733201434,11.144245394150857,10.020460449657548,4.088364655642181,10.351300721449661,3.4073650410009577,9.663789903659563,5.821533502487
1.368,7.794355579500916,12.496332779765908,10.81573392610062,7.026311999654354,11.888459016995512,4.493401666859427,11.5812794234389,7.853321032916938
1.372,8.256002734076901,12.496492399413,10.353970054776255,8.859942275555113,12.258314101221004,5.28402219284726,12.91507674694003,9.68696671075486
1.3760000000000001,7.790478886604433,11.13612913470115,8.378022817038982,9.079439259532592,11.075093834102518,5.480367631847912,13.118010660100481,11.06551333319294
1.3800000000000001,6.788136753195431,9.018492230890843,5.363158812811889,7.835999141287175,8.689065129137816,4.957048466560082,12.133235560473622,11.981822796215056
1.3840000000000001,5.631494312729046,6.886991560086244,2.144557046843147,5.759928996058989,5.757575901415294,3.7984648234723863,10.369259628638247,12.525302133335572
1.3880000000000001,4.441846110507868,5.133067031036262,-0.6253171115440637,3.5570700650187064,2.718274223825574,2.2360762719654304,8.46165262613431,12.691587135086593
1.3920000000000001,3.041068820503824,3.601533337505316,-2.8358108124120918,1.636028754354811,-0.4598871806110765,0.5447994663227291,6.9493452566093765,12.310384065987819
1.3960000000000001,1.158631821869676,1.810430651351453,-4.8608830940529515,-0.004532531510449189,-4.074757868127563,-1.0206472803220095,6.064182896012426,11.17046591790313
1.4000000000000001,-1.261119345912448,-0.5879509884834988,-7.173666601516743,-1.5990628821327846,-8.212211938793189,-2.254527378874627,5.732501170559772,9.258886383511708
1.4040000000000001,-3.848114940915366,-3.4061418274532116,-9.864474010333652,-3.273028515751321,-12.33517827104879,-2.9998798669730604,5.756478687053459,6.942584238411655
1.408,-5.840525729661749,-5.851311092011201,-12.381186663176777,-4.775977503422837,-15.271693827215131,-3.158763510087738,6.040614743926199,4.930998793857725
1.412,-6.385750417073723,-6.863286351974239,-13.693335735746587,-5.491618182246384,-15.679286928165311,-2.743104489403777,6.684619947689498,3.992876681557391
1.416,-4.94986641792093,-5.667127801846618,-12.806636981433257,-4.742379565494957,-12.744133069657437,-1.9220784475837718,7.8754358757032605,4.570321144350601
1.42,-1.6151534770087892,-2.2245814878624515,-9.366065583359159,-2.227768825019666,-6.72026816392372,-1.03066459580441,9.649516712015611,6.515142990359891
1.424,2.9260656085880328,2.6921677701948283,-3.961662802979845,1.697058608631778,1.0408494537005026,-0.46059781257645227,11.70297190335441,9.11764055731328
1.428,7.710750944880601,7.8660955578170615,2.070328236111891,6.101797061260186,8.630809167572806,-0.4552083327744185,13.41398539830152,11.42562913060101
1.432,11.974497659179178,12.218892554546983,7.249634125708326,9.895495547743849,14.411125814534898,-0.9380091670791444,14.109264469414484,12.693647339032395
1.436,15.471423359975233,15.280589068364861,10.631280417983362,12.356894009723874,17.688076998518227,-1.4866185943337769,13.43348297830562,12.73101210760069
1.44,18.444522096515357,17.271841184012374,12.155729113399502,13.456329062690202,18.870388830092452,-1.5291958133730077,11.58467739972184,11.955601518362528
1.444,21.27078696056651,18.778399821363564,12.507429545979903,13.781275283817195,19.054548442337364,-0.6771769604565634,9.266681617507857,11.118466576737774
1.448,24.012539979337816,20.242116306232674,12.597237801222946,14.111827664886732,19.305708402947857,0.9929700442808098,7.358765669698187,10.845377068895687
1.452,26.17571921472063,21.596008696091303,12.984714793274179,14.887653332111768,20.041067711086725,2.887921950486998,6.478600147213001,11.256191489905177
1.456,26.849612924515895,22.252627237897286,13.562927926970588,15.868954503904206,20.83452560023943,4.137087255367078,6.675020497821606,11.882158984408306
1.46,25.16864834725675,21.43542028903812,13.643431727496136,16.18348894133578,20.704044934971535,3.9987219163049303,7.422739087940499,11.940316888185407
1.464,20.853634789234093,18.66742254595374,12.408120295231129,14.763462667306158,18.69850235066224,2.236023864032177,7.9385538139613345,10.810293010275927
1.468,14.546123601629006,14.138475632557856,9.472885207718718,10.964041612266556,14.455263976076822,-0.7389651366320322,7.651837481043913,8.443426451063715
1.472,7.684549311189585,8.716385864556287,5.2169983641524595,5.010463046869518,8.425174328102003,-4.054224745943429,6.551355606708967,5.460331737798697
1.476,1.9515872870315434,3.5889657020497907,0.6810676453715132,-1.9749684323996917,1.676440561956042,-6.784740563862215,5.187189958476665,2.8728161306717084
1.48,-1.4502525935595258,-0.28019746075915464,-2.939275434569936,-8.405651385777674,-4.5915982220049045,-8.376297468332268,4.310269930057984,1.5737097058827203
1.484,-2.3082692136522382,-2.5741845591182937,-4.891585679970376,-12.890351132835349,-9.535706119129827,-8.83987114892625,4.3685107868350315,1.8621413682412822
1.488,-1.4231696181332154,-3.687381458076743,-5.207292435570707,-14.77862077476675,-12.911570397651303,-8.62722479036529,5.185631207383267,3.2582688269376376
1.492,-0.142468392248702,-4.409761696488204,-4.601332951186123,-14.334353516325791,-14.982790492776985,-8.2945770708684,6.024865987688827,4.721023931102536
1.496,0.34845473913992464,-5.416690059043503,-4.004955926937328,-12.470292575519125,-16.191588038140253,-8.154708010169998,6.021372597773734,5.1796945350615715
1.5,-0.3958780363682308,-6.858519665413041,-4.03285863421479,-10.21933988254932,-16.809665635966667,-8.131065784791645,4.7336475680385774,4.0970107765188
1.504,-1.925289247073124,-8.268261560195242,-4.661442694059588,-8.229395125257724,-16.753842741969493,-7.8680813220234995,2.482022921567477,1.7691165466585517
1.508,-3.198070871172604,-8.821153402814161,-5.27932340971347,-6.528987114863412,-15.649120832187691,-6.9990926822138135,0.2649009979395487,-0.807174399460564
1.512,-3.1517985186856095,-7.788864346480295,-5.060869401502714,-4.651108581096196,-13.074122649342826,-5.389403366505576,-0.7325317494542105,-2.4347760517830466
1.516,-1.247933298280259,-4.945553947294684,-3.4412027061134722,-2.023041072210617,-8.850081327400403,-3.214651131673236,0.22873254134174204,-2.3155541722662747
1.52,2.2704362916383616,-0.7182682847806063,-0.44962252691038884,1.597995037698638,-3.2331559817721427,-0.8691226422997715,3.0148379664278764,-0.4280245658919739
1.524,6.506329674335575,3.985335181274422,3.291776454198043,5.891974686141111,3.096253693314793,1.2289225361164426,6.655780514964135,2.4964495943240763
1.528,10.334028094172027,8.178478686623748,6.902851903254486,10.075954740947054,9.253514437346894,2.8202665148892265,9.850813424221997,5.369801640561491
1.532,12.88226862776628,11.20146482220207,9.7025331492423,13.264745966771443,14.464575721372967,3.8748509190463665,11.665082159477606,7.291011652821908
1.536,13.819884958817966,12.91110875719005,11.506175410244396,14.870558648644874,18.31722000265654,4.53152985520137,11.994535698082473,7.9380660564420396
1.54,13.321267140112468,13.56333700653704,12.568032537992622,14.806357629455306,20.815230238404183,4.948501966247932,11.51914998562097,7.606600706349127
1.544,11.804863123994437,13.502418938242045,13.260188768592343,13.416899768923031,22.229458698166127,5.189312783833884,11.19505283763283,6.911329638711322
1.548,9.642249473357879,12.873654367385825,13.727812587781955,11.218092670920669,22.839694513486393,5.188595505125704,11.595615272970463,6.349030201283313
1.552,7.003204336811905,11.54149000553116,13.745897814633281,8.611239400619525,22.711525692619034,4.7900357598482515,12.504673805142374,5.998261352702684
1.556,3.914855686483861,9.269053214607993,12.880610247264485,5.756190707474161,21.641843520279508,3.83341500079041,13.032051159274488,5.554315255551046
1.56,0.4527619191649137,6.0221998266843,10.820531726532863,2.648598593485076,19.299142111109177,2.23684975258584,12.188686873892948,4.666394018415303
1.564,-3.071097238645052,2.203162017807699,7.691297155424763,-0.6576536400571058,15.498238969117665,0.08099323175702011,9.59168008306915,3.3492473958758637
1.568,-6.069738263381623,-1.3676256474718684,4.132360351910393,-3.852642493971871,10.445648449356668,-2.3304130999003974,5.862733607171322,2.1632734281483863
1.572,-7.867602327683926,-3.7841035159090097,1.0245147359564726,-6.386224395733734,4.776533189282418,-4.481097427902569,2.426853447486792,1.9809442431287607
1.576,-8.037510499114433,-4.552812027372056,-1.0020192238844174,-7.734430183749282,-0.6724890551668068,-5.759223072789609,0.7601340191631607,3.4398645827459404
1.58,-6.729250611453608,-3.990652355756538,-2.031370051085105,-7.800966124224942,-5.269302233442431,-5.717709988406568,1.4612374530952366,6.379957930195815
1.584,-4.777926773527724,-3.2499550292122876,-2.9682797800924163,-7.181833907279724,-8.929408042566138,-4.375106434876216,3.682618917671789,9.613160792170675
1.588,-3.4516753830621383,-3.87121074487186,-5.140297284555345,-7.056670838042919,-12.164498523365182,-2.3918023629521485,5.306642690899025,11.227188755401585
1.592,-3.9026787788079673,-7.027841017103128,-9.550132059071984,-8.685738105805285,-15.751694461901934,-0.9682150492426445,3.853050704461566,9.342634275908495
1.596,-6.574779041134434,-12.831425463301912,-16.169273153775066,-12.73309128139681,-20.166845997419387,-1.4197938938823427,-2.309092414682709,2.9817698472861593
1.6,-10.875598135165546,-20.076651153060993,-23.692361818805693,-18.78403348017673,-25.099545258980925,-4.586912140469394,-13.04925150433428,-7.374260840926581
1.604,-15.297677453636425,-26.587372004796634,-29.898495884082877,-25.33365717094057,-29.32906127595561,-10.32063096642014,-26.31305463055105,-19.823400973586104
1.608,-17.97109641897623,-30.034930614403493,-32.486447527682685,-30.29969208793591,-31.091743155615404,-17.33454665282261,-38.79751963411945,-31.674543757097126
1.612,-17.418176992556255,-28.86198657073328,-30.003949099505917,-31.845096757722786,-28.815488284277308,-23.57061824873017,-47.15404521647724,-40.37903978287068
1.616,-13.176559455721872,-22.895129766540776,-22.44358674353498,-29.129172762459348,-21.879250896636222,-26.959984050834464,-49.1836495794596,-44.332130694972875
1.62,-6.016524192116776,-13.392808083321142,-11.274606232531369,-22.64623051516537,-11.03965557425181,-26.270862957400823,-44.53346942877033,-43.23271735991875
1.624,2.360049997702845,-2.523490105665587,1.1185544221207238,-13.98974923458809,1.7182099148594716,-21.618016368945973,-34.64175718336264,-37.93115198757005
1.6280000000000001,10.012511842706772,7.471275706366214,12.326176605969522,-5.172266338518966,13.863593975069307,-14.37808892565954,-22.03384581564933,-29.937408190977294
1.6320000000000001,15.505453027431031,15.02168657490347,20.70227456210705,2.1264526341874443,23.214342641185794,-6.558548027587676,-9.370559929684532,-20.888470497295202
1.6360000000000001,18.344647762300156,19.560165059512656,25.707643994323007,7.012200280669276,28.63471451676378,0.05422097019982175,1.32547538590552,-12.18546402910215
1.6400000000000001,18.93328095576362,21.361011790271732,27.713152836684458,9.359014456858858,30.23274367470549,4.51585730052102,9.002344188329516,-4.855136514070182
1.6440000000000001,18.12991044854334,21.075341657591707,27.48302303746459,9.45114887508862,29.03330288970028,6.851176284973917,13.476242106564314,0.4513849440809281
1.6480000000000001,16.691548767974382,19.266666334327965,25.673545408430073,7.58392873455341,26.341896567178992,7.694201406946377,15.115111818287915,3.4418860229998245
1.6520000000000001,14.918580513603047,16.19209132287324,22.600440713569697,3.897636349020104,23.13046647361989,7.716919758349832,14.533601086301132,4.213671400873864
1.6560000000000001,12.652273308633085,11.87721842119845,18.308811056997,-1.4866815157438396,19.72122832860623,7.204738913053006,12.40304364344047,3.2856394711598114
1.6600000000000001,9.569107714230995,6.369862473817193,12.836728062065959,-8.1770030100015,15.867296409744085,6.005396498621849,9.392338143143206,1.4978948243297054
1.6640000000000001,5.568963686105235,-0.02205489313473663,6.465420886199354,-15.31386936537092,11.13165415684125,3.844250976879266,6.150212530908902,-0.25085661630146205
1.668,1.0052180220000082,-6.670721168577984,-0.23012558639311465,-21.66596138811292,5.323468404103551,0.7551421665921225,3.2403474071652454,-1.3416372872998181
1.672,-3.3573024602656005,-12.755540880298213,-6.521026660251664,-25.99663583382062,-1.2261473996532004,-2.679722081957152,1.0417581005822285,-1.6834626695563202
1.676,-6.612807208751292,-17.482360541763228,-11.730298210562978,-27.503196657320586,-7.6576950210237555,-5.458756628084302,-0.3171599766392319,-1.696170964223711
1.68,-8.058094925059777,-20.27513268433995,-15.387241849086422,-26.089062195678707,-12.83223329187058,-6.605153896838601,-0.9454686699573358,-2.0062188696574594
1.684,-7.455871950982328,-20.88857348878082,-17.301460068854794,-22.34631275929314,-15.730880443668866,-5.693663105748783,-1.1133265858516097,-3.0121459198126104
1.688,-5.092073811827504,-19.414971049135602,-17.523322553339312,-17.259541093035295,-15.812833281772328,-3.126257187235751,-1.1314110281346075,-4.577367461681206
1.692,-1.6327675011943938,-16.221106505597163,-16.247502952986906,-11.81501066308374,-13.185928272530873,0.009685552913651918,-1.2338275448364584,-6.058304302627221
1.696,2.125376865895305,-11.857809686238397,-13.720060953828579,-6.71316181866132,-8.525481081163889,2.4439513399611315,-1.5141987018796499,-6.662217778582999
1.7,5.480653305172382,-6.969990261637577,-10.201492357824463,-2.3095085798013315,-2.802122483666608,3.3089530170273065,-1.9254023106550449,-5.926089401955323
1.704,7.937056947283054,-2.2135488982039533,-6.006763040437363,1.235258582086317,3.0349229220209963,2.4758185438258806,-2.324163919662169,-4.01285066147102
1.708,9.222246552344586,1.8388666775463207,-1.5217517177934496,3.778103371467296,8.305941650822206,0.5003598906441766,-2.5163596916281676,-1.6377617322214064
1.712,9.277501084466167,4.8059312012210285,2.8546355619400856,5.14400849249887,12.686174499673143,-1.7623603624997486,-2.2845996985724923,0.3317306529424968
1.716,8.244914600311859,6.567344499931096,6.812454771792545,5.219995011482752,16.107967804513464,-3.634254131837224,-1.4319435420402442,1.349158601682575
1.72,6.431568499034256,7.238695107588683,10.190883599387234,4.084289038202769,18.554733366945584,-4.9227604425977916,0.13125724793644622,1.4441393576253176
1.724,4.2130725078277464,7.048645902717908,12.912297343074897,2.0236520227699657,19.87409620066319,-5.926227740168542,2.2677394968759472,1.1210002438765514
1.728,1.9052603138625273,6.202478301139308,14.855708257688093,-0.5904352584475419,19.74663153549045,-7.147405570725823,4.5399348226092116,0.9769604398825322
1.732,-0.3244791023307698,4.829181586505911,15.7882076941587,-3.4769268894087872,17.856471373357635,-8.900434959985432,6.294287278224147,1.2954479080508463
1.736,-2.4542079818593265,3.0467100451205624,15.44238016656891,-6.53156713415683,14.181553756512585,-11.038255831088463,6.9208725306307315,1.8851106592828728
1.74,-4.519665576264742,1.0796062267927482,13.708809401738108,-9.752855532935428,9.223927633711355,-12.962624421430519,6.165772269829176,2.2711725580920756
1.744,-6.493633935431717,-0.6879030993877677,10.801530572802221,-13.055547774389197,3.9935155359908094,-13.914847677959187,4.3155058197444305,2.113629694304109
1.748,-8.208337354215473,-1.7991155279960367,7.28732330031562,-16.097839355586984,-0.3028745966421411,-13.370371252818586,2.135353192654293,1.549331954047375
1.752,-9.392274882338825,-1.9347759704560303,3.9194376857121824,-18.272436992569965,-2.7420106656700227,-11.32098155046151,0.5469222996325698,1.1977233574871207
1.756,-9.800932423211634,-1.118560582711325,1.3416724901326234,-18.900615862229643,-3.09249960685338,-8.281549219087537,0.18646659065052518,1.7986137299776601
1.76,-9.36309437766613,0.22513789050390187,-0.19356139265619277,-17.541928826335607,-1.923794477022966,-5.027058215564466,1.0829128699424473,3.700103325301825
1.764,-8.272730740681254,1.4142607103021874,-0.9607667270593083,-14.264093553655584,-0.3449783003570701,-2.240457984062232,2.6124512014484935,6.53176195067681
1.768,-6.919829560718426,1.832332928901451,-1.6017894850228913,-9.672481309430623,0.5339777182507532,-0.23961536512433668,3.7794325328140985,9.296352863335414
1.772,-5.671678133369824,1.269365916762581,-2.7273455972954253,-4.663469668639664,0.1513977510849145,1.0800603266034159,3.7032086008657643,10.853519495167347
1.776,-4.630102377559524,0.07666805579901848,-4.4842566268107475,-0.03676040286973148,-1.2231105611763269,2.0814813733777555,2.0595970809408755,10.526004314937381
1.78,-3.5381609965816097,-0.9770946012104105,-6.356576014679376,3.7973444514545918,-2.6287204549762464,3.09604797490465,-0.7560060239502491,8.478055630730523
1.784,-1.9441507430701677,-1.111646705122439,-7.383772209654126,6.8254804028429135,-2.9254025416403238,4.164022735893013,-3.844006797849943,5.635913001264271
1.788,0.44905643121546746,0.017944483615792706,-6.679438653856778,9.176994344348714,-1.408228602546842,4.969746950800982,-6.2481485600728774,3.1707354640602716
1.792,3.4625396530900616,2.095990572372102,-3.9577415298863343,10.812429650243757,1.799047159824113,5.008514103741618,-7.383593975659096,1.8496034588551993
1.796,6.366229214334453,4.281601383285306,0.24486606353639218,11.389561890352525,5.773802162226275,3.9068335693555127,-7.233285376825734,1.6289520629907202
1.8,8.113318509286728,5.612747738492544,4.766472733563205,10.396272967402183,9.19497585377394,1.7007330774067668,-6.257771146027153,1.707146709009976
1.804,7.782056683769042,5.446855687760944,8.307840603897603,7.470610537428001,10.892291933936576,-1.1033458956844697,-5.126831178855355,1.0181240693636937
1.808,5.024313916808751,3.721230040330738,9.983709728062422,2.7209292597308377,10.288468127118904,-3.7184999686141964,-4.428093859618457,-1.125294522909826
1.812,0.27661117439129157,0.9132782021624735,9.654105100451488,-3.1725019895066,7.548538537639615,-5.428069700690685,-4.4883081983298325,-4.612386151868122
1.816,-5.382203493696579,-2.240168514058496,7.888650192623572,-9.147602248197472,3.425208705982186,-5.906738309175125,-5.339288911492986,-8.564822214098967
1.82,-10.651131823417018,-5.075681901123971,5.615801753634514,-14.139203488530256,-1.0621327581839068,-5.354780682351702,-6.763574191047155,-11.774727619978876
1.824,-14.517981627341214,-7.221668279955338,3.6410969483968074,-17.46170109759987,-4.955262914197192,-4.378111649815764,-8.391009832808777,-13.28917570122212
1.828,-16.592143072060935,-8.605902831516687,2.32705220248954,-18.982496569370596,-7.563059396050448,-3.6681919198454125,-9.78082955935497,-12.835005118475237
1.832,-17.09192925241223,-9.300651953843953,1.5840727187714947,-19.004725233947283,-8.521181558600802,-3.6542083602089406,-10.466279029195903,-10.881364876222506
1.836,-16.538348558827238,-9.35206206881594,1.1206745606550612,-17.966739148941997,-7.769185474627193,-4.294725528225172,-10.050019729621454,-8.348678535168801
1.84,-15.371942079611472,-8.72996547459752,0.7386912368965568,-16.169838758614787,-5.531065583071722,-5.123627309667427,-8.369141500777005,-6.16315661804947
1.844,-13.749024608065156,-7.437538782313823,0.4345320360371261,-13.709578588072873,-2.334818472030747,-5.5334189929271815,-5.674714336271791,-4.890505719533394
1.848,-11.602010770365268,-5.662310881185476,0.2861206115303503,-10.60613478238156,1.0061359149340205,-5.123390302967891,-2.685508003058203,-4.617813964889137
1.852,-8.891338307942533,-3.825591874560814,0.2426933044616817,-7.00125159500476,3.5250954578414166,-3.9247043870291236,-0.40805658185399807,-5.08680524268857
1.856,-5.840650108390037,-2.4529733657618635,0.015572894707474916,-3.245362833117724,4.369709302409319,-2.3716835049945075,0.2487065717432415,-5.934347868487748
1.86,-2.975934159463577,-1.9215669098484796,-0.8165137941932699,0.2001508500898126,3.1216363830772025,-1.045266853812791,-1.0958369594654869,-6.8779529655676015
1.864,-0.9324801959605793,-2.2481018378575754,-2.5532495679608473,2.9713291417529035,0.007307656739612867,-0.3476381761574885,-4.058205938150422,-7.7388545812300436
1.868,-0.13275270045778598,-3.050609550914487,-5.099276792425371,4.98364381889678,-4.119556457510953,-0.27991317098531,-7.599101253712433,-8.3498061487644
1.872,-0.5258097389469185,-3.716625644095984,-7.866982988512973,6.451791322907411,-8.05528889420384,-0.4428303991044231,-10.453486294927643,-8.468801400878874
1.8760000000000001,-1.5698004078849408,-3.690996219941553,-9.939480656194064,7.720464102663755,-10.669621180456488,-0.25625407700681535,-11.676839684892911,-7.798362638273829
1.8800000000000001,-2.4944574252112943,-2.7221107018176554,-10.434694404307265,9.000640083171675,-11.29688163371793,0.7176051568785624,-11.023758600971632,-6.12721064427933
1.8840000000000001,-2.7317579585883323,-0.9563553929783666,-8.923627216803652,10.154503628293241,-9.939338891054831,2.504977583725122,-8.987877787702928,-3.5054071845133876
1.8880000000000001,-2.2615838539804827,1.1634937310000169,-5.651484956391869,10.67616939934851,-7.193241352158111,4.655268086440628,-6.476706398139868,-0.3369380758940679
1.8920000000000001,-1.6532773380195067,3.121746560120755,-1.4382493910607081,9.904308092402971,-3.9599353477597106,6.408688232932036,-4.295942212525915,2.687532734365959
1.8960000000000001,-1.7621798213222064,4.547615514318295,2.696768202101339,7.368852766275268,-1.0888442113828205,7.028094461791625,-2.7306912712992926,4.809816858552949
1.9000000000000001,-3.2396233756985566,5.315240855441971,5.97043252880394,3.085996069081375,0.8848199370422662,6.135395890194559,-1.4640236148061376,5.4758742928952415
1.9040000000000001,-6.138335627479137,5.483396032772816,8.07897262709048,-2.3617475858809485,1.8117723159211891,3.884450684339754,0.11839839623280568,4.5377847781437595
1.9080000000000001,-9.81179189554041,5.174791844648098,9.187579388693848,-7.965780691311011,1.8478414068831626,0.929619980629468,2.4480996578668055,2.3004373809089884
1.9120000000000001,-13.152102107726023,4.499476792047972,9.719969381377268,-12.57810217523729,1.3120641967816482,-1.7928301105921491,5.399352994187211,-0.6085828090381256
1.9160000000000001,-15.045829854168005,3.571313226299935,10.103066109350038,-15.218253206528061,0.5768238300515804,-3.3738460681597644,8.255543732404476,-3.468970432324568
1.92,-14.831800672237023,2.57180726400793,10.597159988361454,-15.31378517306166,0.011811955923803907,-3.2247185210535463,10.040057583092675,-5.694393077059431
1.924,-12.561376523883155,1.7628545087759449,11.23422091917746,-12.84545924833219,-0.06377907329897425,-1.2792005416395114,10.015851060416026,-6.96844797113863
1.928,-8.948878726077055,1.4077167908453703,11.86648643780336,-8.364630437667074,0.551990035703966,1.9725289264424646,8.08562346546205,-7.267044395459379
1.932,-5.0714612080737425,1.6180298272033724,12.248634531427342,-2.8905468465000013,1.8362854415645415,5.622794830608655,4.872259775650491,-6.813217550356967
1.936,-1.9721326021358436,2.2284690056981162,12.115922043852152,2.3169895208220623,3.4550663563804846,8.631759131322724,1.4448112548561767,-5.994327046440048
1.94,-0.33612351184774525,2.798222114712189,11.235747769729642,6.078492964315046,4.771233876441329,10.173132298593373,-1.1725454273428113,-5.271242337998046
1.944,-0.35905386749891477,2.7637809153579838,9.430844072602667,7.631272710759276,4.9923566881179795,9.908251961051064,-2.4572208275976664,-5.071989470465269
1.948,-1.7947755379223054,1.6963348180079265,6.639337468175654,6.885075034948841,3.4504556624369798,8.096510055816907,-2.5721969496626116,-5.680446509045396
1.952,-4.110932392937684,-0.4668133118711921,3.0041043413111765,4.472590561177185,-0.09165324978584977,5.478614765756902,-2.1878263584503657,-7.146460395651047
1.956,-6.643776610408622,-3.3304541226430047,-1.0490420183396054,1.552252613926612,-5.235359000346762,2.97516970824654,-2.0538610091389273,-9.25102175824486
1.96,-8.715923436151115,-6.148090668183158,-4.828797297266647,-0.5993593347830029,-10.962677927548157,1.3160155572768417,-2.562063344726994,-11.560059973207899
1.964,-9.754790103408595,-8.108215636016666,-7.5648795625829734,-1.0826453618456071,-15.918760546082922,0.7460853982720437,-3.543768770801762,-13.557562766021874
1.968,-9.411118297112807,-8.65100012125231,-8.675075057597496,0.27214950741972643,-18.85721483621137,0.9648721573839794,-4.389803142719757,-14.821477240689092
1.972,-7.6627205159816185,-7.671083710533367,-7.985608479388247,2.8595662632678795,-19.07087653617691,1.328271474912981,-4.40855992275101,-15.167950042342454
1.976,-4.855489227965791,-5.524081744762043,-5.776439257269885,5.592755174865033,-16.625214680709178,1.2089349975658479,-3.2183138650980254,-14.693758099961087
1.98,-1.6391275703617794,-2.8516631354677884,-2.630826327640534,7.400100324903178,-12.303456907925465,0.3173646027662471,-0.9708404454177071,-13.692680982877391
1.984,1.2039077424810785,-0.3268100663494806,0.8083302573559195,7.6799738929857995,-7.292321328227445,-1.1903076153776055,1.7002822161193762,-12.484470578578112
1.988,3.0172186838663038,1.5861212096692725,4.0748797856167585,6.526600291639625,-2.726538800261096,-2.8452652026317082,3.9897752374427,-11.248274795560064
1.992,3.5210416085169527,2.7676291145544383,6.991177878221606,4.64480443658158,0.7171919325546696,-4.1567725256481936,5.3169062969318475,-9.960020668463585
1.996,2.928071127730618,3.437507290728263,9.61498792496559,3.012792870704743,3.0109824602736808,-4.877259556500576,5.597315943547983,-8.475111154532897
2.0,1.8537774902242745,4.022929273744012,12.070819598583967,2.4613353049803663,4.672739996190103,-5.086609774665703,5.255429273380287,-6.702293052621826
2.004,1.0171244784041846,4.925613213860743,14.34191977303999,3.3237314578482255,6.404368600466569,-5.078134931294699,4.951179923959899,-4.75530078410884
2.008,0.8883178269838936,6.299420566335812,16.185478296148176,5.3129304871163185,8.666527441702783,-5.123696364457828,5.186013782247301,-2.9795312350006498
2.012,1.467315973046425,7.945455541719184,17.227785052610216,7.66094143386772,11.394200783060114,-5.283766676436244,6.012582339306391,-1.8173309090443581
2.016,2.304634221546621,9.371871053833274,17.173681496751215,9.439536173350461,13.989418217714046,-5.381952521573112,6.998427172733955,-1.5744496096422154
2.02,2.7638581200717454,10.000987246847217,15.998632241785344,9.922637472189763,15.590653828333416,-5.153213724978741,7.462660987609979,-2.2177263475177824
2.024,2.3778744874607582,9.430871788733839,13.96843854822282,8.842711246692033,15.477198259130091,-4.466818766389224,6.841929866434839,-3.3133133911851473
2.028,1.106102702005046,7.630779253699075,11.476861396688037,6.460924016260378,13.404397345224424,-3.4484776565841457,4.989891952540347,-4.175357143017209
2.032,-0.6492002895490714,4.960872881380055,8.796929936680044,3.438249302992972,9.695111712465405,-2.4232188361274893,2.242887452422565,-4.178742847801004
2.036,-2.2674486386972603,2.0042531510380286,5.916339464002249,0.5740147390720267,5.061169593982868,-1.7131800469496739,-0.7524901696760935,-3.0760182122321567
2.04,-3.254048106056871,-0.7067854404372156,2.5751266855063477,-1.4914164658580376,0.2687168047814339,-1.4268258390875417,-3.3454486892392197,-1.1543803783879412
2.044,-3.5100195180023093,-2.9226436714061492,-1.5034367793546153,-2.4985779752710187,-4.155288169311461,-1.401069539980199,-5.1518037022106,0.8816936125413122
2.048,-3.3519930929933253,-4.718739140447269,-6.287246094606871,-2.6180119994205597,-8.005396058575116,-1.3362356297020597,-6.124616930635057,2.245845168336018
2.052,-3.257514953307691,-6.307385915978784,-11.199896804441778,-2.2965633593885286,-11.22438015484613,-1.0275807630159761,-6.411767629270798,2.4671852834489982
2.056,-3.4862181142250392,-7.730637309453186,-15.139010472303653,-1.9688411372972041,-13.609036046213077,-0.5270580303013048,-6.108169632634144,1.6532183778253966
2.06,-3.813714996807903,-8.649128805085638,-16.802841718183117,-1.787536171402735,-14.632154064333918,-0.1177603786909458,-5.100246746740595,0.4632638949860848
2.064,-3.5907355066406126,-8.419074756550799,-15.240624059324546,-1.5362995134673838,-13.563400877881577,-0.12425322214539847,-3.1532641997100654,-0.2018233047765534
2.068,-2.1123413062132386,-6.441514597172272,-10.338928165643665,-0.7630267453673696,-9.851520366224122,-0.6671877525868695,-0.17867978206049884,0.3486649595242852
2.072,0.9006351195343996,-2.594346260059865,-2.9840565571621482,0.9319990481653804,-3.5563224354641534,-1.5372532989404135,3.505433952811927,2.2361697116189134
2.076,5.003333219560773,2.5270539780826766,5.211351127278704,3.6204743308289835,4.446388337037661,-2.2707860229725156,7.125485311984448,4.93218878864991
2.08,9.107327025194763,7.745116404724058,12.500033868657738,6.937964351315259,12.662936879738027,-2.3923716408371547,9.699165521598388,7.4969931181481115
2.084,11.921889365353081,11.77093793353879,17.610361271879356,10.197188242675566,19.515574693186863,-1.6929016397998566,10.470896257899312,9.02824314296322
2.088,12.56026277064825,13.788744325131347,20.12061021740965,12.688732986613786,23.962887838755705,-0.3509802429721276,9.306047829521049,9.098852493421873
2.092,10.977577564634885,13.819000053906393,20.43876723041876,13.997616027104414,25.868749953920997,1.1697808086732948,6.807854321839841,7.955092656813122
2.096,8.000798899395704,12.648220121181566,19.445187012375754,14.160939965542639,25.915363144209095,2.382376014003057,4.0587798451833805,6.3844483846787625
2.1,4.941200417228401,11.363051695979493,18.020538130831937,13.591884158194262,25.11728142783886,3.036351602346258,2.112621255778322,5.333129857836411
2.104,2.9586229676265248,10.727646750859776,16.663549313458134,12.788750207715566,24.191240714371133,3.1876297212638747,1.4959887741588318,5.4633263632922535
2.108,2.5330654070439778,10.778394181207204,15.38858033724182,12.023912071945688,23.159307267555505,3.07014020206816,1.9978218685382672,6.866630564370098
2.112,3.316473704053351,10.855317388415187,13.877828141990449,11.194491431006782,21.391259688385617,2.8731095157331765,2.8652429205208136,9.054170325503037
2.116,4.403946784155551,10.034054235512713,11.745582803333946,9.919198851629972,18.03554491668865,2.5803157819477747,3.2699455555184613,11.202292192985624
2.12,4.867669567328221,7.700512625483043,8.754295586753415,7.83491122452233,12.586871684306516,2.0005983668384033,2.7899897770093958,12.526111887201296
2.124,4.232586108530995,3.9136679858390835,4.864832187161937,4.89574234074621,5.245134132139128,0.9667898383368083,1.6284665282155402,12.605537967043801
2.128,2.6629365240112293,-0.6229009960065923,0.19597701842758397,1.5142487919088126,-3.099311083482462,-0.42951377158260584,0.4679182515028515,11.528587686855644
2.132,0.8033317308045298,-4.9271991516257,-5.000039627684373,-1.5364416998984325,-11.204192639167104,-1.745338231088681,0.08250687142617608,9.811278673116249
2.136,-0.5962555579212676,-8.196233797515106,-10.280774857685628,-3.4147981978358075,-17.907734819225197,-2.3237541793409946,0.9510875766266054,8.158097683227425
2.14,-1.0437559350737047,-10.080056295984605,-14.918672560278992,-3.5424263126237747,-22.409828966727673,-1.6092527746709493,3.0749266097443524,7.176327434520772
2.144,-0.4885292436836153,-10.653559019455997,-17.931065081298584,-1.8261860274310493,-24.31253570416402,0.5142737469277563,6.057163861494928,7.16271414982748
2.148,0.7479625744419991,-10.150496957642417,-18.30708168255819,1.3319306257101289,-23.48743622225743,3.5857440426602807,9.357449384248412,8.030668852171857
2.152,2.202991074223064,-8.678902937169369,-15.396183037542869,5.226594196771202,-19.941570494340567,6.722544742960963,12.537285139088453,9.38553821579444
2.156,3.510015589568866,-6.127239486088683,-9.286809560903293,9.137072236557742,-13.826228228156651,9.005952457027888,15.3532742221837,10.69512915474752
2.16,4.5266019305692,-2.3219447496908288,-0.9520982561639357,12.565138615694195,-5.58976438654804,9.903638010971918,17.67392235685452,11.480675500882626
2.164,5.305620851904905,2.6804395076619585,7.963092769485229,15.31666235355874,3.876831029214145,9.49251423778469,19.3270013287638,11.477196810943497
2.168,5.9719584869540085,8.388083618769315,15.678633212041632,17.42330835601433,13.284280298484191,8.380689091105523,20.041238774118256,10.706069203057268
2.172,6.58982884159218,13.902643701997363,20.890721774644135,18.963938139062066,21.230867450878122,7.368702608802778,19.52407480556485,9.432971524859113
2.176,7.090554229793497,18.18858120033883,23.170542123404857,19.89317215429469,26.621334081421537,7.039073807074146,17.64375003556688,8.040204150791851
2.18,7.278642307047676,20.434476940733248,22.957616204680335,19.968691034024687,28.997018818256038,7.483670329058668,14.591083354051534,6.865317970752358
2.184,6.87998870266847,20.30209342150954,21.15258685446497,18.803974999923412,28.582529034761137,8.286979071194992,10.875139214451792,6.085494283982371
2.188,5.629256293491608,17.961838196314375,18.583383297215278,16.048684920009464,26.037063935592187,8.775436191373046,7.144779029645633,5.698123664010609
2.192,3.3783555024170937,13.929216344965766,15.636066784441482,11.614996891412261,22.06274526349057,8.382032964086193,3.9347133946237136,5.5897687898127515
2.196,0.2015748110871982,8.832087640245163,12.237477584533735,5.849892501695763,17.108209181321172,6.947543812495951,1.464459534366597,5.64702612389101
2.2,-3.540718042681874,3.2428457938431166,8.135419713781403,-0.44234458236905994,11.312696200379264,4.819947678248127,-0.3962934163337195,5.827225770281984
2.204,-7.23659668559776,-2.3736749666243213,3.2329816614669653,-6.1749800549343945,4.680051959202956,2.7052494840368126,-1.9987737444330378,6.151355459451679
2.208,-10.166608230763018,-7.611255310477645,-2.2336254720253237,-10.288607196651355,-2.662648426326541,1.3658239344574667,-3.703053901911062,6.62515336362344
2.212,-11.730967000761325,-12.068237035017319,-7.780423693999751,-12.084049243228833,-10.321138427182177,1.3041714828741533,-5.685561694743683,7.144223639850225
2.216,-11.673922486690344,-15.363032591980527,-12.932126106752548,-11.441381048642597,-17.70478941517888,2.5731012615997315,-7.863954766288771,7.459044286576045
2.22,-10.196129582684534,-17.222988583803726,-17.43898899910255,-8.825330405403292,-24.245335099452177,4.778238514138138,-9.94216207977206,7.2428935079485655
2.224,-7.901598336915754,-17.599330661605222,-21.315185202983912,-5.09299367506469,-29.60193420516066,7.23301151945725,-11.564686631879454,6.234924260992557
2.228,-5.569704553488236,-16.71421320715524,-24.650444277403153,-1.1758205915600684,-33.6834948412253,9.204430008002419,-12.459272940237497,4.379006421958593
2.232,-3.859699276787353,-15.00484116857183,-27.34712019344738,2.2142616609575043,-36.482380435640835,10.140943368991202,-12.525347294627409,1.8627444363949053
2.236,-3.0742418217733984,-12.965654852849411,-28.97182905070133,4.7441644778259615,-37.83761247367784,9.817199648916358,-11.834570350762078,-0.9593886329373618
2.24,-3.0792493571652813,-10.950211813539227,-28.84085769925423,6.444177545222601,-37.31867280319966,8.368702957477126,-10.554650065818123,-3.712701029721302
2.244,-3.42967878142764,-9.046056659648059,-26.345467975619727,7.544806120086605,-34.36624592427984,6.205952373501759,-8.856773396883568,-6.121297249437703
2.248,-3.6159340294311733,-7.067841920471608,-21.314194994816262,8.291937685508856,-28.62808106596094,3.8704177273416462,-6.846167671227931,-8.02500265382514
2.2520000000000002,-3.3038375248229386,-4.679488395314479,-14.2119711416276,8.827532270626307,-20.317750110026054,1.8769157149316698,-4.5455376147579045,-9.305864238519007
2.2560000000000002,-2.4792972695068443,-1.6121102717435178,-6.067644296677145,9.155931862190414,-10.37329274274316,0.5864489211285218,-1.941284710342643,-9.809125430229642
2.2600000000000002,-1.4401154154285223,2.121630571195169,1.841288155928396,9.190754226282593,-0.2783693792971462,0.1470957172391536,0.9200667203421062,-9.342094486859878
2.2640000000000002,-0.6819142303061199,6.096842917636934,8.352460125043308,8.806613885096851,8.37638260241954,0.49258259444013675,3.8225246956859564,-7.78748420804709
2.2680000000000002,-0.7299296620756195,9.518804231517606,12.68785297702334,7.865241956962564,14.396939735089632,1.3993905934006534,6.345357379590951,-5.273784703903743
2.2720000000000002,-1.982178128079397,11.457799733588331,14.542826696862903,6.21996765418055,17.314616678929497,2.5693220474089458,7.952457997456349,-2.2756735075159895
2.2760000000000002,-4.565987582618334,11.223212911462724,14.041077086867972,3.762477528956822,17.420682899372082,3.721231477281208,8.20431629823429,0.477048850422193
2.2800000000000002,-8.216440426839313,8.745336934451416,11.655035957089694,0.5512035847216907,15.546887135530255,4.667276303671315,7.039760283070166,2.283067316790948
2.2840000000000003,-12.244604085124081,4.757973771143497,8.117694793912847,-3.0484141349747915,12.714592756709465,5.3465537115558845,4.932623724851908,2.8189970916689617
2.2880000000000003,-15.642470466925289,0.6392778241801125,4.3244565817693115,-6.309684192948055,9.8105117076704,5.815662075370028,2.7995105947661045,2.332569075517995
2.2920000000000003,-17.350126791363067,-2.086339681802542,1.1653108445003681,-8.275019696238985,7.3855329704454675,6.187005660343175,1.636364811177259,1.528529095111253
2.2960000000000003,-16.63989809307529,-2.4139574932320613,-0.7320441361731582,-8.080809439828954,5.583687271393785,6.551172631076952,2.0172084801762367,1.1693407550196753
2.3000000000000003,-13.469688161759052,-0.3830937516662516,-1.2676277779052612,-5.354078630031722,4.158554412893011,6.921147193890647,3.7221724726964567,1.6032647442211214
2.3040000000000003,-8.625153510920342,2.8244655076844367,-1.0122162561512482,-0.49227870813791696,2.5477921138453326,7.215086500395273,5.7236374631935405,2.5122744141291378
2.308,-3.5222285773720614,5.330462440965675,-1.0710068179876089,5.358519064307586,0.03123941994647339,7.304227489219784,6.620219827063636,3.061522914365696
2.312,0.31159189429845924,5.39969908107264,-2.638625275203424,10.676905053534483,-4.008242505333612,7.102196875293885,5.361411845099212,2.404718199815875
2.316,1.8730956976424693,2.2943296844914016,-6.402489555838031,14.144549404586428,-9.761304312199854,6.644669578808475,1.9017782359150601,0.2695470258189516
2.32,1.1138869698255007,-3.3028558940483776,-12.092671674630708,15.148397321844868,-16.743429600396723,6.096043870763538,-2.60746181083465,-2.7537636395185245
2.324,-1.0935202780956956,-9.559613472535204,-18.467290662247933,13.933029999739915,-23.797736158557598,5.653159298418132,-6.291535247742331,-5.445929139938698
2.328,-3.473112128524974,-14.364078916188191,-23.793251373914472,11.321832823046464,-29.434490628207868,5.3888083035973295,-7.508246215453994,-6.645394957119379
2.332,-5.11032025932974,-16.379017094294852,-26.63792599775286,8.147427416835399,-32.427279459129124,5.098143435970883,-5.828268427846751,-6.023031551769577
2.336,-6.023392240116777,-15.727186779745693,-26.575410643353166,4.729401356429776,-32.39846950917968,4.267318126198006,-2.4841746216951606,-4.473893965068214
2.34,-7.188288032856292,-13.926470424376646,-24.422226191697973,0.716154393093575,-30.0711441276855,2.23058412853743,0.029935346567071974,-3.840256879166759
2.344,-9.9646032708103,-13.083289616051104,-21.860542472784687,-4.605588202858598,-26.98664561841639,-1.5210602795737032,-0.9120537499109105,-6.017661464150933
2.348,-15.186260647247991,-14.733458328399593,-20.575561021151202,-11.677685099766279,-24.75135998142315,-6.992062443012969,-6.704159089853306,-11.86605536440436
2.352,-22.43029801394954,-18.936198540038276,-21.342456545859363,-20.082864889504606,-24.169459346119936,-13.484307286696549,-16.595658034956386,-20.514220033395418
2.356,-29.919521122605488,-24.115182158827565,-23.542594445899,-28.368302934783458,-24.73377689539774,-19.67578541696946,-27.748309137551814,-29.4702502568
2.36,-35.17328549271548,-27.741722907554504,-25.365737940431927,-34.425012865613496,-24.786208347105855,-23.9920281159134,-36.28924287050597,-35.5476501735958
2.364,-36.118576154497305,-27.538045059785418,-24.654274065864684,-36.28878154456885,-22.336647473447897,-25.1579619777267,-38.91594574158364,-36.18974837972905
2.368,-32.076524887153084,-22.57894275125642,-19.96447659416799,-32.96905952812199,-16.13822401110815,-22.682095579061524,-34.28785746677352,-30.561738127660647
2.372,-24.098346348088,-13.741098568447683,-11.333969500305102,-24.896251120614636,-6.465005481791422,-17.059789137173766,-23.572971545441987,-19.89705955440536
2.376,-14.459229770348657,-3.294431997832305,-0.38248961161366424,-13.767300544639738,4.833225044748133,-9.593664995400673,-9.90083549012536,-6.957395623062439
2.38,-5.588105678010152,6.123668319946205,10.305624051213044,-1.8852986543315637,15.053532872086862,-1.9189518790219608,2.977536843279495,5.092353631495371
2.384,0.9874945954525174,12.60372508007913,18.187131034978847,8.667913408219249,21.77315871246742,4.5510170856834975,12.15960622301634,13.846643344787594
2.388,5.123955381078531,15.592846529572114,21.691853131918947,16.63693690026969,23.81562456796189,9.024438980938271,16.522358585769553,18.336931117280187
2.392,7.748850032995904,15.793455481191017,20.66150903002756,21.73188453714431,21.569389582892313,11.41810718133263,16.75256751694451,19.00078480053071
2.396,9.995368636685953,14.478060650877524,16.15913550927803,24.334836001997928,16.548886466942463,12.154465674679841,14.604266547740508,17.091519698456523
2.4,12.348798623617313,12.675690871677546,9.839129214549303,25.032141589552793,10.50566221853876,11.826632212458435,11.85940354392335,13.926303160962789
2.404,14.309675660026699,10.68189639622193,3.2159040387092546,24.252146059772826,4.604812581986039,10.90830117860503,9.537955133520654,10.375260375069956
2.408,14.750008351753479,8.113761662186334,-2.805556523541327,22.180885815484203,-0.8885624481412151,9.640399866743223,7.699409530618254,6.766145296036029
2.412,12.704742036649407,4.402383923066225,-7.984477453948671,18.914971373943672,-6.310780526055737,8.08989921596401,5.805622917332016,3.1269148604981183
2.416,8.100160620159556,-0.6206122976727784,-12.456929716240893,14.684434653339054,-11.937528660428029,6.295438653111205,3.336824486037017,-0.47558080597650587
2.42,1.9756229153061327,-6.40607387217085,-16.329077295126012,9.966010146175904,-17.404443978074028,4.377738478865012,0.2696842298867068,-3.7429533409347187
2.424,-3.9552929420852365,-11.835412103225167,-19.434191102854243,5.380479377344955,-21.608239128112587,2.5265461819508346,-2.847766119488483,-6.200964952884078
2.428,-8.118406792853705,-15.708157339157538,-21.34187662385898,1.4715525752544636,-23.140798577070314,0.9189063387923397,-5.191130854042854,-7.414035287424213
2.432,-9.786571717970332,-17.267788225400977,-21.570595127258798,-1.4812274319376684,-20.998997041176835,-0.3618130963227486,-6.102706163545918,-7.196431646313158
2.436,-9.301985471316243,-16.478278459922194,-19.849415232543038,-3.5024285742122174,-15.155363558241447,-1.339447750540785,-5.402263949026633,-5.681672613542332
2.44,-7.737865767006838,-13.937123500036137,-16.26866606939518,-4.808850796642105,-6.670534636781554,-2.0773234996433985,-3.4203791362049287,-3.2450399592644317
2.444,-6.261343202526348,-10.532446309562943,-11.28557648934816,-5.6511799584068285,2.6864213712040055,-2.598105710751952,-0.8006409304655335,-0.35241381699506746
2.448,-5.588967293338953,-7.074979344297503,-5.607158875158802,-6.219755468413609,11.087550047899754,-2.849039188704637,1.7865823253349618,2.564205689557184
2.452,-5.803439780028725,-4.0928582126409765,-0.032258382826626075,-6.651710586210584,17.223278868168677,-2.7442504926113997,3.8551962478738915,5.151495939356437
2.456,-6.5454692156095575,-1.8379682497794647,4.691005027733922,-7.077837825861934,20.56061645203306,-2.2549580052441343,5.1690639811737356,7.129815156025188
2.46,-7.345091976280514,-0.39855944949647437,7.9917471708222365,-7.601476259450578,21.25418604308527,-1.469983254248291,5.700675741481973,8.2919565407974
2.464,-7.847229436145653,0.21127412694636405,9.573811071312093,-8.189918333817673,19.85735626481562,-0.5867214989984859,5.559727616159421,8.536832518437222
2.468,-7.793419008535693,0.08218849127183603,9.51096288719475,-8.526984097751665,17.065002836736994,0.1773125537033593,4.956040512515415,7.915507097598265
2.472,-6.871598754496176,-0.49359401351341603,8.279253936418627,-7.977056439045668,13.59977594667157,0.684467368186688,4.175750783672356,6.625606391845395
2.476,-4.661542340500887,-0.9988119361464669,6.65641120235955,-5.7715022200771955,10.205674447219963,0.9291666713934319,3.51754031061796,4.925800910189082
2.48,-0.8067196649506059,-0.8312440134446888,5.473451756180339,-1.3892354039668362,7.619846017673353,1.0020025269159305,3.1741991634396527,3.0035783126434126
2.484,4.632594983586387,0.40138741660530286,5.258184860325173,5.0389202977683,6.4069563257894515,0.9913135347278512,3.0958786715382303,0.8889154864839384
2.488,10.897866798445193,2.5962926331391145,5.946908414769609,12.56116603070052,6.702690964939279,0.9134703459410503,2.9388347897522635,-1.509007100887402
2.492,16.585819047935274,5.072338302732419,6.8240240822067335,19.61003755216359,8.01769273171908,0.7071698555669172,2.172483335566767,-4.261549908994539
2.496,20.108376933810405,6.788802738634331,6.77271472479606,24.534050662903155,9.294611314098802,0.29875544077185623,0.3222637941648827,-7.257157617872281
2.5,20.36873549316988,6.800772621588749,4.774089171522519,26.21509793193661,9.282397017310018,-0.31078233459152216,-2.749886133429982,-10.13662556505983
2.504,17.277805984908355,4.707651098447059,0.4099312995015225,24.44664327473356,7.08479049156108,-1.028101192361646,-6.704018046538067,-12.39116483735961
2.508,11.81242627296092,0.8594704491157472,-5.856921988578733,19.89671258728356,2.626413172932871,-1.7294787268378968,-10.815258992124882,-13.589517890836078
2.512,5.5521389975788225,-3.7963035172479067,-12.788691225264529,13.700452412291611,-3.222404997075955,-2.360826372773772,-14.258125453826551,-13.600614555891525
2.516,-0.055969824143858204,-8.14252651544166,-18.818260955127244,6.934889294114782,-8.947703606737718,-2.995491800313175,-16.436064475793955,-12.664631222405433
2.52,-4.284403322976232,-11.35395181650722,-22.61635480448149,0.2782297984017532,-12.987982705440459,-3.79480297311261,-17.174831152651677,-11.260394727536095
2.524,-7.267615437790937,-13.161967794471707,-23.536218982154878,-5.997687275704607,-14.342488400005095,-4.887711684860051,-16.68722680292808,-9.8463105307967
2.528,-9.652619383941328,-13.800301931472632,-21.734240126771965,-11.762530012963907,-12.904245819934545,-6.23642360298345,-15.349185070458589,-8.638630812448582
2.532,-12.00887400767192,-13.717765991892861,-17.96715554927505,-16.740029742353045,-9.39724082797784,-7.5974562028857235,-13.454816521145403,-7.565137606096187
2.536,-14.386530227582512,-13.272020061765488,-13.222991691681955,-20.442791643109103,-4.999580984702106,-8.623437377201753,-11.114512122887845,-6.421627751488131
2.54,-16.284575410164962,-12.593002577117545,-8.384748362424716,-22.393974047770485,-0.8785468473781748,-9.049237389213886,-8.353075757877832,-5.127772415550908
2.544,-17.03056134404426,-11.67951702294215,-4.088371444679979,-22.504243906221404,2.1343521417600186,-8.866758411747696,-5.323979071392387,-3.8990099602788177
2.548,-16.2895380497622,-10.605185604048643,-0.7560096593886101,-21.305791519342847,3.6377103707275182,-8.35356541434362,-2.4536642330035647,-3.2050878178135918
2.552,-14.368377987642134,-9.650008597082433,1.2964191056260006,-19.83697223515776,3.569368481685842,-7.941313441025386,-0.397875754302504,-3.5446450320962413
2.556,-12.11045976057926,-9.22722251878713,1.8154087323218846,-19.169483345584922,2.0786291394542786,-7.982842698402692,0.21085160307507067,-5.170395834767078
2.56,-10.428163265333183,-9.615429698413891,0.7110915724945244,-19.803496200728887,-0.521201999803452,-8.545892366817952,-0.9092959507158866,-7.936537899419591
2.564,-9.766205216962021,-10.682284423176725,-1.7863896743144778,-21.290366811201466,-3.723258240228688,-9.369320996589977,-3.501619553666387,-11.360705439796448
2.568,-9.830623705711673,-11.823549351006818,-5.0592778549307695,-22.344763856792042,-6.833920170891588,-9.998747149345036,-6.836420361105411,-14.87203694704931
2.572,-9.755389536126586,-12.216874987310007,-8.248401550972403,-21.440354513661305,-9.116245585338902,-10.03832832204239,-10.04242550086542,-18.08775419816675
2.576,-8.619851649358338,-11.288688670406941,-10.59680319674112,-17.60032982995972,-10.07129530088173,-9.374498640922411,-12.525531380493021,-20.93573234392261
2.58,-6.016449697577741,-9.124924182704945,-11.823463747439291,-10.97415425013196,-9.733211615902292,-8.237487551660479,-14.226353994461306,-23.5611951137721
2.584,-2.3641336299261866,-6.569650340613634,-12.323468022403858,-2.9091276208912404,-8.785751407985572,-7.089566331761489,-15.585657720599556,-26.075374412554538
2.588,1.2170321703699756,-4.895661490985503,-13.01489748074573,4.548033067912911,-8.357268797107736,-6.3916049439035305,-17.23107359380424,-28.319404079675223
2.592,3.401002204642623,-5.185062237511488,-14.873366060639682,9.466422236333983,-9.53188975787748,-6.3767008572085615,-19.552302977171394,-29.807012507458694
2.596,3.256287348097999,-7.752228500665524,-18.37007477682255,10.761915423488745,-12.794136896475948,-6.950133087733775,-22.413714839686463,-29.903541549793772
2.6,0.6547122188161438,-11.93356781497846,-23.1017779116753,8.515108399972632,-17.706738403732743,-7.753037137030788,-25.165907250679993,-28.16963689076738
2.604,-3.7095936054224694,-16.386347704035643,-27.85993220117598,3.7600583142800588,-23.03033661626955,-8.350864193781945,-26.954794644998856,-24.667085642191978
2.608,-8.650788776962031,-19.727357324356944,-31.105167693352996,-2.071805597260891,-27.22939158926397,-8.442114418701749,-27.144982410622788,-20.04387443782025
2.612,-12.987468708503116,-21.169863838950505,-31.63206764058964,-7.742284972245216,-29.118192474634498,-7.99134293860152,-25.62537326086772,-15.33138203915314
2.616,-15.963694164404274,-20.81661944383336,-29.089470284073286,-12.551182786213985,-28.3167603954721,-7.230914655302513,-22.83675850180839,-11.53750509860356
2.62,-17.41005126468167,-19.455122162844646,-24.0771839319209,-16.325646364309478,-25.281350703244925,-6.546104917170851,-19.51188589081289,-9.240894746912545
2.624,-17.638994938074234,-18.015350601021282,-17.809545878378685,-19.178356976452733,-20.94326897354813,-6.314020119756606,-16.292960143272012,-8.3871266266583
2.628,-17.172606308648596,-17.023154680134212,-11.53342489284023,-21.237480141478727,-16.194153587951178,-6.750722382674667,-13.437825258507928,-8.387975691118754
2.632,-16.474122508550522,-16.37557680388454,-6.038080208785459,-22.5396981571605,-11.533860279656892,-7.827132123782121,-10.770531977391101,-8.468093645539284
2.636,-15.814868848604988,-15.561527319724291,-1.5192610277888434,-23.12682984671119,-7.070447338682925,-9.282001375308482,-7.8924079375476595,-8.075875468764025
2.64,-15.285816854021846,-14.146127574413413,2.189054217612238,-23.20895436672663,-2.8118604118551502,-10.709878559815024,-4.514192441846717,-7.1491271705394865
2.644,-14.889603750609808,-12.184866122554922,5.200954101488378,-23.217243467912567,0.9987063418623165,-11.697728912018192,-0.7146668983064046,-6.1022272770223935
2.648,-14.600249523910406,-10.269290318129606,7.301906054885194,-23.631228222234313,3.7938600050899822,-11.952259045820938,3.032237148802551,-5.555040888620624
2.652,-14.336648948942184,-9.158748721006532,8.00075670292972,-24.6467749631654,4.9324862348164515,-11.378909763880984,6.064735961079805,-5.9638421975173515
2.656,-13.883709468860161,-9.232965007906841,6.882641766938605,-25.889720586023714,4.135692776874066,-10.094203274285974,7.844136078957945,-7.362149147861601
2.66,-12.845619488205557,-10.124207390228321,4.026512141663034,-26.39445038534518,1.803035106065181,-8.359285350632945,8.196757334289487,-9.359265215402502
2.664,-10.742650545387505,-10.810493167261484,0.15977280737479305,-24.957885722498304,-1.066267530793084,-6.481785165421115,7.3417850513428675,-11.379250548655818
2.668,-7.228965031797543,-10.145761133430824,-3.587563906282412,-20.719434478246285,-3.3541947073720166,-4.720488812110943,5.719142078359255,-12.986588690362623
2.672,-2.347614312285941,-7.539748002069018,-6.236131764967695,-13.688153968659435,-4.447296830311416,-3.2346281732520765,3.724790465318165,-14.098291216907
2.676,3.321625380553769,-3.382444861152635,-7.4940714435108475,-4.922695543856662,-4.607049422537784,-2.0840620260933065,1.532176328447349,-14.933055824604253
2.68,8.758804928915424,1.0722215253879313,-7.918527650464966,3.78012580491918,-4.811700446311761,-1.2570928810919213,-0.8890328045235947,-15.735930788685891
2.684,12.840440516710032,4.314684668903283,-8.580204236053305,10.5501980460308,-6.126726991284158,-0.7084910672115257,-3.5880482191728333,-16.46770879791302
2.688,14.772394551605657,5.3432336250070875,-10.378901973084794,14.148720451121562,-8.956646617361457,-0.37938075017518713,-6.407834805515904,-16.676120462974268
2.692,14.396945469432694,4.14643728517126,-13.423136502486614,14.35544732910239,-12.654744956065088,-0.21187332209910892,-8.894429014866091,-15.676583630631285
2.696,12.207097531724685,1.6357786848648175,-16.853387847549584,11.859236032544004,-15.770467229403039,-0.1674529209631146,-10.425889168380763,-12.967720198493225
2.7,9.062127434183367,-0.908642513114728,-19.232250519275112,7.75427825985912,-16.829727820203516,-0.2512953277791894,-10.497624772786821,-8.648272692334558
2.704,5.764877821557775,-2.5345089222053048,-19.305748356769982,2.9586547578981026,-15.196935329528742,-0.5371417258047586,-9.010430892877139,-3.549253472537657
2.708,2.75179680733072,-3.0340347514716086,-16.67980193090534,-2.086630643534363,-11.479255151540656,-1.1462163331043485,-6.376849594962096,1.05143567974892
2.712,0.06105323259112083,-2.8632879952187977,-12.028892159547468,-7.299209559358587,-7.208806314664571,-2.177740231971711,-3.3612884454814775,4.015765791421018
2.716,-2.4356272542192983,-2.6649430517745714,-6.7218566901524355,-12.557642414667043,-3.968405577706335,-3.6129651570390706,-0.7162919507541119,4.927628642059972
2.72,-4.702218642227308,-2.729075299223041,-2.071414861413814,-17.33262938654707,-2.461445754801616,-5.23474614308725,1.1948588454720266,4.332600999361148
2.724,-6.358502232694946,-2.7593019750877374,1.3260309282823073,-20.66313620101755,-2.102563037076152,-6.645337076555279,2.5729025754599206,3.4692365913292633
2.728,-6.8081363649478135,-2.101208234981641,3.7862458579788836,-21.566199364045815,-1.3939147317018978,-7.40106692166637,4.044037442492481,3.608733309627951
2.732,-5.62982553327106,-0.28468350318576086,6.1588288384273255,-19.673525045884844,1.1119794240157717,-7.2234750530428755,6.264038265966974,5.360101514214875
2.736,-2.981459336702983,2.5001070691819223,9.1272733003766,-15.679208221420822,5.837415436174979,-6.175415290518231,9.470080728337507,8.32868989006829
2.74,0.2806596572896751,5.336050930493229,12.646838291332188,-11.243922481540267,11.790702157753458,-4.6723505289942295,13.231379278193117,11.320328273780433
2.744,2.8984248611978956,6.997915452531288,15.856165023112453,-8.315573460899941,17.00445112669445,-3.296514832517005,16.53414852698984,12.98254655446226
2.748,3.8294032233169446,6.644411999103795,17.5287840361882,-8.156272959344733,19.563405038045175,-2.4735398824959702,18.18161470735572,12.52998172910111
2.7520000000000002,2.8434043531277666,4.356100098155139,16.76370194326114,-10.61411902678401,18.61352263153708,-2.2014212690678505,17.30245930379192,10.143627790418577
2.7560000000000002,0.745439871451822,1.1807294273753541,13.497778215906237,-14.063241001590313,14.773196245534564,-1.9994267367956127,13.726846288528805,6.842960961388144
2.7600000000000002,-0.9329410256532356,-1.3502861895826754,8.557764669639482,-16.08913702633481,9.730900276658076,-1.1404047901128251,8.070239094397493,3.924789737928222
2.7640000000000002,-0.6564635815535667,-1.98531947332026,3.2226620585017827,-14.614598771983538,5.282207215092512,0.9117493448047753,1.488919548597778,2.3013279364872687
2.7680000000000002,2.3647570637817807,-0.35815723007704037,-1.3879637140446448,-8.884972282043691,2.407728215018551,4.116001273068832,-4.744870319056417,2.1097103987585797
2.7720000000000002,7.778517019121864,2.89142402928951,-4.734949299144091,0.17308241604609975,0.9327917821397023,7.734636472564944,-9.642244288029588,2.7865285566795137
2.7760000000000002,14.254708199853212,6.527690363668853,-6.86419309176722,10.380546515838432,-0.06884418549816473,10.587911972638267,-12.700305322806116,3.530683377333389
2.7800000000000002,20.109357725906875,9.405452911457132,-8.047639780905001,19.26623543877122,-1.4282730990858,11.587661865729842,-13.865697902407646,3.839731524556555
2.7840000000000003,24.02991182867686,11.025662486504416,-8.371833507467727,25.039882706149683,-3.1627634054755163,10.272216186835522,-13.357922310072809,3.7984037571036424
2.7880000000000003,25.526701604282835,11.660296910150464,-7.572815476200503,27.119672527893954,-4.354896963867986,7.065056223810188,-11.487469420660318,3.9607189055263916
2.7920000000000003,24.907999564154352,12.011634682375643,-5.2504585435360696,26.02569074662756,-3.7193711855559286,3.095268434065474,-8.581749564064467,4.930324349153125
2.7960000000000003,22.865149695064247,12.651523636343427,-1.314060445962923,22.81857432839729,-0.5014773760565276,-0.33729999956995016,-5.0248768031394775,6.912452298185144
2.8000000000000003,19.988809159856828,13.614330233131113,3.6837067432409185,18.493290074710103,4.878344299918126,-2.3565858510851285,-1.3135039791382042,9.509416436686024
2.8040000000000003,16.523550649982326,14.389974098378843,8.593967036743152,13.670264891080933,10.861895503404867,-2.861276290887872,1.9798991500954344,11.888749004489
2.8080000000000003,12.478880345802736,14.301210915002457,12.139793691238083,8.674212531426974,15.485779083901207,-2.458683597014442,4.376250546943311,13.211275589935212
2.8120000000000003,7.961743258512342,13.003957057586149,13.545805664638237,3.815176303194903,17.395157764071882,-2.055315793474165,5.718852060688505,13.06947143761272
2.816,3.43919790447535,10.781026434991873,12.958303247126878,-0.42094616425515596,16.55204161779011,-2.3369534605731133,6.313839838789136,11.694442622472707
2.82,-0.3086039240942,8.4305729974335,11.38459414694671,-3.461938273065698,14.218550525217779,-3.4263163611371965,6.8496523790131505,9.813458212556725
2.824,-2.55897379213161,6.798881093179716,10.1435389667447,-4.973945818799848,12.215307647380314,-4.903980003833112,8.069750333523189,8.25042613052483
2.828,-3.0840700779194776,6.257370654948318,10.148494080746786,-5.142590669737729,11.898477843080627,-6.1208161222944,10.343185228907942,7.497446765874429
2.832,-2.3489209828858293,6.450483752508035,11.410160946501037,-4.658953234542423,13.424644247456627,-6.596820628005389,13.355088642288592,7.484469775749858
2.836,-1.291089215762554,6.4820702730257835,13.03755361866547,-4.343909970354844,15.707034911475603,-6.255104420587486,16.105159213206207,7.651001983876085
2.84,-0.7526256102148636,5.453743650194269,13.740502609284476,-4.5864331889788446,17.070222119692517,-5.3631497750193375,17.285262978074343,7.265929482654428
2.844,-0.9040701972380703,3.0417305194586675,12.533454284646666,-4.9603332298623855,16.199386342616606,-4.25807765116042,15.87011618451254,5.823557811283081
2.848,-1.024758457334599,-0.21876521940578186,9.27118957261007,-4.300122485514407,12.85327542998732,-3.051405266251777,11.65093934137883,3.3160116202064955
2.852,0.1586656105836255,-3.138169912705166,4.712814306585187,-1.277347345618864,7.950332260250207,-1.541522654305254,5.423426005490683,0.25082945558415304
2.856,3.7192789795959698,-4.46494707550994,0.10896196517023782,4.80636674878906,3.021806113428511,0.6069055580517215,-1.2923995645712694,-2.5714967283206533
2.86,9.783547716926705,-3.5373939852921694,-3.4196481714125184,13.453023251448485,-0.6069123174056585,3.531324843040011,-6.865550660899316,-4.405478215923495
2.864,17.22138644641643,-0.6464255568063209,-5.382962398470909,22.957274714370442,-2.4397268163720582,6.899988207650495,-10.210306559218452,-4.8634257807059385
2.868,23.999237464265434,3.093696394392964,-6.032923435029943,31.005583983325664,-2.9030147428882174,9.917839200279332,-11.156527921109273,-4.0404297937175215
2.872,28.04602596607026,6.2880129272620024,-6.079309612595807,35.593877299977635,-2.913113567715982,11.639191718307075,-10.36241837489365,-2.419134558915175
2.876,28.195268894964215,7.92635105429531,-6.202862625840908,35.80808437360258,-3.218876869459791,11.428495605855915,-8.846230046433675,-0.617888086710991
2.88,24.709111068294078,7.819885825985352,-6.639118929250117,32.0967650579297,-3.9200790172378674,9.318863461679712,-7.39729910932283,0.8848108370018508
2.884,19.103393939105672,6.588965081163337,-7.067733298474195,25.931444484893973,-4.447683955207253,6.0438730765774835,-6.201864048743801,1.915382788157558
2.888,13.412491588354555,5.257504645710924,-6.81568723694545,19.108556477403,-3.972395563800319,2.7277786921861207,-4.865035010616566,2.598534043583868
2.892,9.26885337039505,4.692586996853606,-5.259821379630239,13.044963084895016,-1.9840012028223555,0.37614531447093214,-2.788424309032507,3.201694567172808
2.896,7.273318529605376,5.199439490983082,-2.2048891804311097,8.391171192290813,1.31669474202954,-0.5616021184403053,0.3317020163738107,3.9321701621188367
2.9,6.9344756172798725,6.466487668543095,1.9657385602376962,5.069143343460269,5.048350596320461,-0.3345252838810211,4.1907865700354705,4.804125835853256
2.904,7.129047849604149,7.836094963870892,6.4110116268536785,2.5928561997712904,8.068892006358965,0.3134566922472004,7.927715675981972,5.642995271739892
2.908,6.782730436298834,8.711523124757605,10.166161653766835,0.43734115587903943,9.54433589105372,0.5770531332741484,10.518163199013316,6.2095488185161685
2.912,5.378352904614417,8.843010347123595,12.510612895114491,-1.7503304427212925,9.334541406693575,-0.007845305703767735,11.282597792422166,6.353280213861581
2.916,3.0628668623735393,8.349770307357744,13.201152227679586,-4.135369053249065,7.9850516731725065,-1.3906377412290567,10.215872532083722,6.095097218510773
2.92,0.3940996696807133,7.515192683491932,12.494845652042613,-6.757387097473838,6.360341284945321,-3.1050179149654014,7.973548159182087,5.584050508515702
2.924,-2.055600649027383,6.519478783808495,10.952002462427345,-9.557798756509328,5.1313844816909295,-4.566242212466705,5.518713376549613,4.960615679692637
2.928,-3.9718865323450814,5.303132613569801,9.135138218478914,-12.307626775125073,4.4169659105525625,-5.365921766253223,3.633627655398527,4.223045126032275
2.932,-5.314840944134858,3.6546413002554345,7.346647422415344,-14.503719200416867,3.7788843535612386,-5.40600854799186,2.569820038097305,3.2079921019371795
2.936,-6.135982755401187,1.4539456609813897,5.528301414893804,-15.378960731779102,2.556418459320298,-4.839492308490435,2.0068032476077633,1.7118170117503269
2.94,-6.372207302395452,-1.0998178247542683,3.3783022093813315,-14.103274459426189,0.34150783046243305,-3.8932263458589205,1.314199258526969,-0.3169174462416322
2.944,-5.800145326066172,-3.4479620304807668,0.6130816842287459,-10.141533979988822,-2.6857943933329125,-2.7214477211991834,-0.03500599702920226,-2.6364587321545514
2.948,-4.179396467285983,-4.860594026834406,-2.7370205051012135,-3.590455288002204,-5.747222638695803,-1.3732579089978572,-2.127824666186825,-4.726954848978949
2.952,-1.4838774302466504,-4.771051342009059,-6.17597655660461,4.6893531212523385,-7.799144458784099,0.11208261054048307,-4.529245287535218,-5.979694991608085
2.956,1.9329608877556552,-3.0864491347076637,-8.855583596224392,13.24007268237142,-8.042472498198435,1.5809626373575156,-6.479226359119025,-5.9742480159529805
2.96,5.375988774004895,-0.28756403656097973,-9.906098133243745,20.435869429239574,-6.332694921076154,2.733473541880926,-7.245566218483418,-4.688139883659005
2.964,8.041532244536484,2.7316408057830017,-8.851476059750667,24.98324758448348,-3.2840551153738033,3.2192716061631472,-6.453501856221919,-2.5143488486646675
2.968,9.326282727169598,5.01140027606607,-5.886999938803683,26.285847767944347,-0.007028609474900804,2.824349329895199,-4.236548493627083,-0.07419425294688153
2.972,9.047630828563229,5.894708578049631,-1.8658328319652355,24.536647693252007,2.380951670417744,1.6326672792157524,-1.1568426528278906,2.0676714109301884
2.976,7.480664140882482,5.2569134905807005,2.030500888537631,20.5420479081169,3.237703655661676,0.05167979668692624,2.045121616161964,3.6318530681933225
2.98,5.222073711570658,3.5065779744587644,4.799497556316965,15.401357723475769,2.6492216961038366,-1.3376046066235858,4.747064840859252,4.666744951094188
2.984,2.954635456594133,1.374975946916834,6.036820841732606,10.176484901442961,1.3423659094789286,-2.0338196381788975,6.6492584614394445,5.3984379462965535
2.988,1.2293693590744397,-0.38787166809640894,6.071857524669554,5.663425269138941,0.33105289059358256,-1.8258298407698703,7.8206575731985595,5.996593802851294
2.992,0.3397034978561919,-1.2762012846496873,5.735781728796951,2.2883992415142984,0.47355965422525514,-0.8603031989414376,8.591377548330343,6.413898101681411
2.996,0.2932376064051141,-1.1605336446593242,5.885655824642754,0.10309082667106395,2.1397483160085926,0.46916571207430025,9.342029352488225,6.401975719557299
3.0,0.8536987942611631,-0.2626996937734134,6.948205138025969,-1.1521995646812684,5.115799688942957,1.7361174157265395,10.286639388180788,5.675197237046859
3.004,1.6321020099713337,0.9891024524839622,8.71832824909103,-1.9301200453483602,8.748775533260869,2.6792499193660433,11.34845914155892,4.1214054293509435
3.008,2.220226155029934,2.1564350160328445,10.523785599744826,-2.7006304077904133,12.230032060254644,3.2939634084023055,12.182199545129833,1.9221990552005082
3.012,2.345129462855766,2.9542752795624097,11.629944456832504,-3.7558399540090477,14.86752819071205,3.7738217233433033,12.325670388106573,-0.4999443524554863
3.016,1.9997824264854671,3.3219060355989996,11.6349272246988,-5.0597423895912925,16.2390392204141,4.361065482809863,11.409815044794698,-2.6728103049599667
3.02,1.5082240449537494,3.4054124875263483,10.653316029487542,-6.201891822415064,16.214813255659976,5.218300440604935,9.343557903173632,-4.284590171783407
3.024,1.45291736532576,3.46349712847325,9.183095432562254,-6.516037718886992,14.888910589377815,6.383840379262779,6.388261905825971,-5.290787684003703
