Timestamp,O1,Oz,O2,PO3,PO4,TP7,TP8,Fz
0.0,5.115907697472721e-13,5.684341886080801e-13,-5.115907697472721e-13,3.723243935382925e-12,1.2505552149377763e-12,-7.16227077646181e-12,1.3073986337985843e-12,-7.958078640513122e-13
0.004,-6.1540708725639774,-4.96759258320472,-17.004439717524548,-4.378861191997004,-12.864689435986406,6.208684451711861,-2.8311089735256587,8.241152146219633
0.008,-10.349499052205033,-8.544023614959912,-28.906752878476055,-7.415338967966221,-22.18658822415989,11.27481700736223,-4.371916828223107,15.031148598314871
0.012,-11.623151894146702,-10.12337001759434,-33.03706748024132,-8.52259418722582,-26.201308038985587,14.513674802785545,-4.086715260996243,19.273051610847915
0.016,-10.45200971539407,-10.204804896899077,-30.29297662515998,-8.174375414266422,-25.721205871594123,15.928142276995459,-2.478001007098385,20.515484608521092
0.02,-8.39322817081819,-10.047223378667354,-24.402157675382682,-7.584107484807703,-23.513258370497653,16.115454897020186,-0.7393105489580876,19.091349258193645
0.024,-7.167696239061229,-10.89761903039306,-19.788736831220575,-7.962921839214289,-22.66415341866545,15.913306147795652,0.010206172218772736,16.04254125978673
0.028,-7.737397397188204,-13.257688000538593,-19.279187833281725,-9.812330936161715,-24.878282037369047,15.981231610448276,-0.5521778418528811,12.814297486891974
0.032,-9.91664576751225,-16.647816686124912,-22.929005226201014,-12.682832674302716,-29.701901709498003,16.526763688019287,-1.7528237318744004,10.775545136645746
0.036000000000000004,-12.718972960465521,-20.016614452797597,-28.533708806625782,-15.549038674474787,-35.08928404463984,17.27852900886137,-2.4090669176965207,10.70055708237146
0.04,-15.165527333145974,-22.50925449688748,-33.3550199280167,-17.557561677182008,-38.88117086693754,17.65062064830613,-1.7333407712010285,12.389040922124991
0.044,-17.017969822763803,-24.112002806189395,-35.928513802416234,-18.661433474472602,-40.26884847107749,16.977810113057785,-0.1075792182788291,14.607053497174434
0.048,-18.948460742089537,-25.734729884974087,-36.86341234132922,-19.725720061453075,-40.33185319355181,14.713446478996957,0.8039700522150497,15.45156738384037
0.052000000000000005,-22.043105280637974,-28.666833829753273,-38.24541732086186,-22.015346205458854,-41.34805262801984,10.568115797497967,-1.2364515132002794,13.095388754881583
0.056,-26.955526253740857,-33.71645390970568,-42.103971572574295,-26.346400163609076,-45.30942785611953,4.628827398686553,-7.7986252183863485,6.667972569488029
0.06,-33.23603091348474,-40.51983947800599,-48.91870546997404,-32.39803489866563,-52.51079606801159,-2.541377834320656,-18.6635562657209,-3.1185620321363103
0.064,-39.28275353464119,-47.45471340502584,-57.062408854578194,-38.612256820443946,-61.060722246549716,-9.884085322340695,-31.471321469203644,-13.943511367363612
0.068,-42.98417881207007,-52.2226921929491,-63.47984757183576,-42.783811184047636,-67.59395553408663,-16.00010994250306,-42.422423818034986,-22.575215488028675
0.07200000000000001,-42.71257394727502,-52.82391179830802,-65.19859448413402,-43.054109200435335,-68.82893169727029,-19.503815125733922,-47.76463142692302,-26.058332874711937
0.076,-38.13619369207629,-48.44321949801329,-60.82776015546713,-38.79799585872615,-63.16595726350383,-19.492921573181718,-45.38168367742071,-22.891700329516198
0.08,-30.41360613782348,-39.8106403988339,-51.23996745452919,-30.947108455486585,-51.48593002962613,-15.949614146692227,-35.72143101036215,-13.6704055239652
0.084,-21.68124739332336,-28.90591984718165,-39.12361390206789,-21.58724863368829,-36.78703304711806,-9.851750891074118,-21.601210051832823,-0.8790114572602761
0.088,-14.10842387273999,-18.172789302372195,-27.726202780245245,-13.050877745717543,-22.886270693132445,-2.8830410716007577,-6.993902234104212,12.081192390714477
0.092,-9.045650077646883,-9.653860272482916,-19.5155424478113,-6.981872438296335,-12.891658536253459,3.1857153575774078,4.596546084919851,22.199147867606484
0.096,-6.68042622613234,-4.4290859415866635,-15.421166729023241,-3.8255149261724455,-8.18013422732463,7.181205880391133,11.38561176333016,27.90652744879725
0.1,-6.298209610499839,-2.522449244714892,-14.903857294801213,-2.944271319569367,-8.254116926814334,8.928004262203444,13.637274874357502,29.399154964243507
0.10400000000000001,-6.918955754676517,-3.217884320446416,-16.6321054461001,-3.2103167374979478,-11.391295051930257,9.15780189423566,13.027743909649217,28.151651274216476
0.108,-7.895144265169108,-5.530557110574364,-19.292253596656735,-3.699183631440633,-15.625989925261933,8.9940363104281,11.48301366178461,25.948036969143118
0.112,-9.167362513412655,-8.60562231942609,-22.12339054548427,-4.1173310034985775,-19.570847891722764,9.30296412246446,10.156212590395796,23.980992393407178
0.116,-11.091284492241897,-11.904843358685838,-24.99588309071035,-4.780094351943262,-22.757129774938676,10.274561395720411,9.057450193978582,22.474488248757837
0.12,-13.998873877427485,-15.161323404897175,-28.105611242422313,-6.223857203436538,-25.430419738337477,11.435643980880059,7.438757188599311,20.922558912225895
0.124,-17.81426996560353,-18.227012325680136,-31.538008730729715,-8.731578251826662,-28.04495002688509,12.050084599798993,4.604655662473903,18.697737411812454
0.128,-21.94928382092317,-20.92445103998196,-34.97132499018275,-12.06369420437808,-30.7660559612452,11.622347920021127,0.6113850795015878,15.609081265123109
0.132,-25.535204494798933,-23.00095145689295,-37.69213162871307,-15.543157331085041,-33.26117349133855,10.208259432693524,-3.579425243402966,12.083877733806048
0.136,-27.846585028900336,-24.2044049763453,-38.90309304745513,-18.417998832186072,-34.860186233557386,8.369093001692136,-6.5689586340322705,8.915395373192041
0.14,-28.643101796136648,-24.397397176230584,-38.1198846247712,-20.247462351673846,-34.92036503405541,6.815864020892491,-7.3170845073181,6.781746623769095
0.14400000000000002,-28.233052531920634,-23.642729078713955,-35.4368642173508,-21.063439974814287,-33.1897385965666,5.988489644019239,-5.771421661345471,5.868665298062297
0.148,-27.24333461969536,-22.19959756427022,-31.527033468943387,-21.22725819504683,-29.97175983068223,5.832968529679306,-2.9590996704621944,5.814852576817543
0.152,-26.25303673855683,-20.431308418717748,-27.388839788636403,-21.09511625411983,-26.03398176094123,5.919363913699726,-0.49223628760711335,6.000964858115708
0.156,-25.501343280164065,-18.668304902727584,-23.964616761483057,-20.726990293562523,-22.325168501879006,5.810524634285684,0.23966297019279637,5.983630101692938
0.16,-24.81286369210585,-17.07079889476873,-21.780543013703493,-19.834593017014555,-19.609630919267374,5.422258199611065,-1.2535752782361556,5.776600451675563
0.164,-23.778539178170206,-15.582209940216444,-20.772542059269426,-18.01552937249957,-18.205613025945638,5.123725084910689,-4.370954455378296,5.802896540463053
0.168,-22.057126628826722,-13.993070959292254,-20.382920001257474,-15.131301245637331,-17.9321632697895,5.496993077162756,-7.792341204957097,6.56029008325163
0.17200000000000001,-19.618225808727402,-12.097497417442526,-19.901706551230347,-11.581412308811565,-18.29468075246794,6.917338571494952,-10.195846096783953,8.24081811847907
0.176,-16.815487297597997,-9.884984436075058,-18.904702027742474,-8.275830353576481,-18.83381425215518,9.225449236519808,-10.918941838413957,10.547814998593026
0.18,-14.242066325667452,-7.638360279070639,-17.53057508184719,-6.26705260940787,-19.421615162558,11.70585530686617,-10.226428447915964,12.807118901066929
0.184,-12.469272980562948,-5.880976750759828,-16.429663394084173,-6.225015472998791,-20.347670188726113,13.407379117020469,-9.077154200229813,14.29524288098878
0.188,-11.811110570735536,-5.167782525658197,-16.393936377214345,-8.06026432323722,-22.12806997897019,13.629503982886035,-8.558486309450927,14.57088013182215
0.192,-12.241440948657896,-5.8235979822967465,-17.886137794230905,-10.92974361656087,-25.14936077006172,12.303552362964865,-9.3097899892756,13.634245816699718
0.196,-13.495945583561763,-7.771123424871632,-20.748590072673636,-13.659902269820748,-29.355203929827667,10.05389157811112,-11.226666029022226,11.85150205833645
0.2,-15.26177570651032,-10.523987052600148,-24.243372608389336,-15.37218877505137,-34.126882787248974,7.8822623059993475,-13.569284473431367,9.70564410766815
0.20400000000000001,-17.34617723459769,-13.375944556806928,-27.400278097451803,-15.959541189536083,-38.452827699282295,6.634559887958403,-15.375110087175415,7.5349353487488315
0.20800000000000002,-19.71969796239432,-15.681528336156475,-29.47147958717153,-16.140188409651785,-41.29490194429718,6.544705375647254,-15.928766568428841,5.410168268875395
0.212,-22.42292841980168,-17.099916600442327,-30.261354815240395,-17.04479142705003,-41.994590598866466,7.1154599834009105,-15.060506676487876,3.2062002661862152
0.216,-25.4230990228491,-17.692173630805144,-30.1654920762997,-19.559456359578462,-40.53855717463148,7.404305946128488,-13.157011168106237,0.8022004291537996
0.22,-28.505045132350233,-17.816650017832785,-29.89196265361693,-23.784534912706533,-37.53480882356507,6.547364552828526,-10.921195226742611,-1.742195894750921
0.224,-31.275525982383897,-17.9049767797639,-30.02873042888035,-28.90539310102048,-33.92933502555138,4.228334830806716,-9.04102755226404,-4.1564580046942865
0.228,-33.27944875404444,-18.238045813151814,-30.720526953023807,-33.549136308984146,-30.610260782847206,0.8437274167399664,-7.943667214295601,-6.093312512105285
0.232,-34.160667943735916,-18.830873310490574,-31.634937493290977,-36.42804598129675,-28.09822904230117,-2.705239266030503,-7.730282626934127,-7.336239916540535
0.23600000000000002,-33.77130349525248,-19.462312100915483,-32.195062983917865,-36.902804167003524,-26.445724685960954,-5.466856297074173,-8.274517774262563,-7.95654375801314
0.24,-32.17034293824565,-19.800064504316424,-31.919719673490704,-35.174423881536256,-25.34181310547848,-6.888099435502909,-9.376755404855544,-8.319260427761037
0.244,-29.539749179403998,-19.545358917752253,-30.686628710108266,-32.03993661853002,-24.350194284494478,-7.00903828531068,-10.866468726435073,-8.911332997808358
0.248,-26.073507094770093,-18.51618024805083,-28.758964667981104,-28.38346450439633,-23.124201414285267,-6.331506875764717,-12.615925642648904,-10.08627099516275
0.252,-21.919573160955224,-16.662224182893226,-26.585443318975933,-24.726076082301745,-21.510118196767905,-5.474441623079656,-14.47918781761723,-11.865209339308421
0.256,-17.226368450741006,-14.060874409091525,-24.546512604270845,-21.104229702308487,-19.561714305459873,-4.825075559705738,-16.226105210322885,-13.891524334924497
0.26,-12.264990039750387,-10.938908760646598,-22.834827307432874,-17.32428197394819,-17.52945610916555,-4.377835726302919,-17.554531346050226,-15.562461153950835
0.264,-7.541768912515522,-7.725229757514796,-21.533714304151772,-13.39955875769408,-15.867605974247283,-3.82637696003394,-18.193412750550124,-16.269568683626176
0.268,-3.7814021208640725,-5.053715835875039,-20.77251678111986,-9.84295332533975,-15.206203013228105,-2.836396923549273,-18.035394184243273,-15.647546244503474
0.272,-1.7513446050691073,-3.652549495345852,-20.790818300361707,-7.595231117157368,-16.21949902518395,-1.3304746169458213,-17.217181224764886,-13.72877310762101
0.276,-1.9865384999282014,-4.111863106760268,-21.82814785037317,-7.599567030935759,-19.379648153160247,0.3931582927064028,-16.081355837227193,-10.931823967134733
0.28,-4.540201542033287,-6.613944302693312,-23.904569779565293,-10.26084164391932,-24.66779409585706,1.7914745139737533,-15.02624050023644,-7.88610286028802
0.28400000000000003,-8.904966484046895,-10.772924231186948,-26.655159859670277,-15.120930890502109,-31.40294418014048,2.370603049812871,-14.32211708727425,-5.1760739617461695
0.28800000000000003,-14.147191053417487,-15.684886525541856,-29.344971737201377,-20.952736957125012,-38.301834160306385,1.954248868179775,-13.993445466168623,-3.1329024302701782
0.292,-19.20723590443322,-20.210747228751984,-31.102251521655717,-26.23830784743734,-43.807500721072074,0.773998093971386,-13.82868867999889,-1.7746498403105306
0.296,-23.230867235431106,-23.381366631387436,-31.282062561063185,-29.778864709443496,-46.5985205040256,-0.6652506698492289,-13.518957441837301,-0.8988815483187409
0.3,-25.786458208338672,-24.74012149224268,-29.79072247528717,-31.12809355420086,-46.07796832876886,-1.8515761285129884,-12.854286281817167,-0.2631389609384769
0.304,-26.895851717882124,-24.466138977034575,-27.188978071689576,-30.64717832863073,-42.61665144971823,-2.501930178014618,-11.875396509310576,0.24873230117168532
0.308,-26.888590622717743,-23.220110400588965,-24.477382295346445,-29.182539052282095,-37.40466810553767,-2.647385811637605,-10.885484277863725,0.5594427321339026
0.312,-26.175597434295923,-21.802494374752996,-22.649050788975615,-27.567906596392163,-31.965459692701074,-2.5395082318357254,-10.324703984734697,0.44728377497335714
0.316,-25.059714381541312,-20.801196753555928,-22.233931968901743,-26.227557303692834,-27.561490083834883,-2.4403955073455563,-10.549150379922366,-0.30508532057001503
0.32,-23.662096644176472,-20.396530695754223,-23.077406011332414,-25.062247250132373,-24.77318368497629,-2.421398560645457,-11.63132026050971,-1.7278818685331316
0.324,-21.97475484385177,-20.396104244635012,-24.457454361867235,-23.621859677716543,-23.437065274355746,-2.2835650510655796,-13.28331200418586,-3.5405433809396527
0.328,-19.966433824851265,-20.433794012103817,-25.454596719599067,-21.42061494805057,-22.91698858439929,-1.6637550016446312,-14.941739830371944,-5.177012135567566
0.332,-17.643452696510394,-20.177865106674176,-25.353544394949836,-18.19041143128686,-22.50657162332493,-0.2730903353110534,-15.974212564439767,-5.9720768594997935
0.336,-15.043679619733894,-19.441149585024277,-23.897669836303294,-13.963321870589311,-21.750218557620883,1.8766811585728647,-15.916841154071449,-5.432311909024975
0.34,-12.189190245984491,-18.167806589922748,-21.322227453161418,-9.005799180023814,-20.55671947707833,4.402230899728465,-14.644315397566743,-3.4642690767282147
0.34400000000000003,-9.056636716861021,-16.357513370765105,-18.19668756064482,-3.696966623541016,-19.11101499456629,6.68847821015197,-12.402146324316618,-0.438978824746755
0.34800000000000003,-5.607417915056317,-14.014026286866851,-15.165411788098595,1.5600454738564054,-17.67644421761014,8.185042125426435,-9.678733464277911,2.9441125459727573
0.352,-1.877605520731663,-11.174845114499362,-12.702414761287287,6.357791528239943,-16.421303810381573,8.692851906295118,-6.981650611774626,5.936168728085022
0.356,1.9206670515945916,-8.005594265174182,-10.980703926392607,10.268754015101877,-15.369846873458414,8.473648224396356,-4.630422446922921,8.045360947623067
0.36,5.361947240010295,-4.872207263853738,-9.897242426232538,12.857945557038875,-14.481165682532719,8.127124159615278,-2.6456368132212447,9.232807547455195
0.364,7.865722426006869,-2.3191464840963363,-9.215355043079512,13.757596846817705,-13.774900200989919,8.271626204606036,-0.7878940844432236,9.90573091285114
0.368,8.85547653158551,-0.9160987314151043,-8.721333976859,12.784556959096562,-13.379942194315959,9.184126173606273,1.2694447656479042,10.687131722437243
0.372,7.968858036341544,-1.0295257165970497,-8.31369801690471,10.036007137703791,-13.457338286544655,10.58817176409957,3.7295131420148664,12.058452985424992
0.376,5.228070833492438,-2.6328265308603704,-8.003176862219902,5.909461646428667,-14.043678133377284,11.729566290666526,6.515664814670572,14.068323150445394
0.38,1.0825055507739307,-5.264634434104096,-7.860608061369362,1.0245805872980327,-14.926440361045707,11.737213245627117,9.245028426532144,16.267367909897075
0.384,-3.6916370115311565,-8.166319106937863,-7.9497548640147215,-3.9093934711664815,-15.645526372615791,10.105271451100634,11.356359258841167,17.924858191791827
0.388,-8.190372368059798,-10.539665205802748,-8.258266399817103,-8.219673796251982,-15.622424585560339,7.030757387010681,12.337923949355854,18.41119193925897
0.392,-11.616083202676009,-11.815768758123909,-8.643216055392486,-11.358010068079693,-14.364864573842851,3.4086764894796033,11.951775592099466,17.527393236731314
0.396,-13.466957244515925,-11.821300932916756,-8.826518828989265,-12.949550162264813,-11.666248654750802,0.4616413509972972,10.345756692111081,15.613835911948627
0.4,-13.62851089828996,-10.783180622353143,-8.468522023823766,-12.830567909757974,-7.716618745362439,-0.8181295830945601,7.993886404300156,13.377736183864727
0.404,-12.350158857002498,-9.193727078582356,-7.3127429115794484,-11.0953485215216,-3.097009762635821,-0.12229968983137951,5.496345504012879,11.534072451536758
0.40800000000000003,-10.122099701588013,-7.596352982505778,-5.327644885512086,-8.119752359101994,1.3624994977575398,2.055408765426364,3.34623242699854,10.456184476600356
0.41200000000000003,-7.486719638087152,-6.3668131697149875,-2.75969867996821,-4.5035472861084145,4.8358799613992005,4.68864553795629,1.7714894281450597,10.037651112076219
0.41600000000000004,-4.858366167922441,-5.5816692211428744,-0.07223601761370446,-0.9136344023969514,6.772814067415538,6.740848791619101,0.7194800426182155,9.848063698706937
0.42,-2.4272533069074598,-5.025672569504309,2.192608338623131,2.1163513810911354,7.077776505199836,7.667453486368686,-0.02981732497755729,9.475369969988606
0.424,-0.185975484954497,-4.336559811849838,3.5637136244342855,4.341680536477611,6.1119585291514795,7.641441088952888,-0.691152820242678,8.858905550990585
0.428,1.9516182856907562,-3.2174518902762657,3.760823546164147,5.8349541209794324,4.522668601709938,7.3863751229437185,-1.342166472478084,8.38840766992098
0.432,4.0022731623971595,-1.6236812280150161,2.756454518152168,6.857110033113486,2.957868310382196,7.722852840440737,-1.886514496781956,8.680601657321404
0.436,5.811568225137307,0.16325848902431517,0.7658367894568983,7.633649632684865,1.782303762115589,9.0955895272009,-2.1262184942472686,10.162549311414296
0.44,7.06990508574836,1.6298657152278793,-1.8284762325740758,8.164991927511437,0.9272988348689069,11.342198984777497,-1.8973435907660132,12.71560592124115
0.444,7.434010454530835,2.2485727544999463,-4.585871678044555,8.185088694702813,-0.050583892595113866,13.808064812924385,-1.178973337656089,15.612116006508586
0.448,6.703008762788386,1.7325872912145996,-7.0906468940891045,7.308303329346018,-1.694014171510048,15.711473810592906,-0.10300506625821981,17.800152830384377
0.452,4.964391036295865,0.21101193790286743,-8.981021884720008,5.29284823030946,-4.265148611127529,16.529289986551248,1.1210988732386795,18.38468671763121
0.456,2.604324956908158,-1.7907566660646808,-9.96445002012706,2.2561925216945156,-7.469591988719344,16.18511439167105,2.3214962967349493,17.04105759467211
0.46,0.16637747180743645,-3.560353429031693,-9.860145225123233,-1.2930720915603615,-10.455716513704942,14.978314656990733,3.4567620286907186,14.139593112505736
0.464,-1.870242167836068,-4.50532781154152,-8.671209207014385,-4.634639232246968,-12.134035069878337,13.350128532364579,4.624340227332368,10.52762191621423
0.468,-3.274860220452638,-4.403001095522654,-6.635986551372753,-7.138200328794369,-11.665035646056253,11.650981350066559,5.970168550970811,7.094681554574436
0.47200000000000003,-4.106304517440776,-3.4623588238642924,-4.203093271418538,-8.520696196194194,-8.87470993233228,10.044894055831264,7.5534779412200805,4.371588324223012
0.47600000000000003,-4.591610239236843,-2.1755921267830445,-1.9120513550128635,-8.916007874915636,-4.384933255327269,8.580989066766506,9.23649289085779,2.390498661593483
0.48,-4.932009591916994,-1.0627508827687961,-0.23530638197394182,-8.746282954187905,0.5993726288058951,7.3342932098939855,10.657926314223687,0.845894005473383
0.484,-5.170115355833332,-0.4632878009626893,0.542449757309555,-8.483419711214992,4.738837625233032,6.479310727462234,11.32802414377079,-0.5622817729290546
0.488,-5.199058268960471,-0.471245631547049,0.3659335182669565,-8.434384173258422,7.043856616385938,6.218553113570124,10.819414383324784,-1.8437456661959004
0.492,-4.897416395981736,-1.0094213914740067,-0.6286606430346637,-8.648916108772369,7.184034227796133,6.610735049375762,8.975875871745984,-2.685728027911864
0.496,-4.294098379554043,-1.9605049720952366,-2.200953859760716,-8.972931425435604,5.504257214213908,7.433221854300882,6.041981750347077,-2.6763837519356457
0.5,-3.637174440277704,-3.237740436934814,-4.100897106754928,-9.186232037403556,2.7792326843303954,8.220036946640448,2.638014678966101,-1.6308292216072005
0.504,-3.296026339683749,-4.748345187266409,-6.12721963230706,-9.121854006633953,-0.15504798936342468,8.489946910590334,-0.4484807329947671,0.2061475991736188
0.508,-3.53018351282617,-6.295292782546198,-8.122418163216707,-8.70589730961899,-2.7021602144009194,8.039740504253814,-2.5778859319345884,2.214501423683032
0.512,-4.28011962186747,-7.530574089121615,-9.923297854187354,-7.931309249997071,-4.62541027039299,7.115214215803917,-3.5385440443221796,3.6834653809664815
0.516,-5.131179937464367,-8.054296173399734,-11.335431360757411,-6.8249759542031825,-6.000938757931294,6.327869542281633,-3.6554508845094915,4.158008549925853
0.52,-5.503111352731366,-7.635431637477723,-12.180235471989704,-5.451794012299615,-7.08056837322556,6.343501357368723,-3.6384395034642694,3.657549216553889
0.524,-4.987787801038166,-6.423053712674914,-12.394846791569535,-3.9499064886862243,-8.151798787937196,7.514475780362773,-4.219519968166196,2.6661180461796903
0.528,-3.6349393260470606,-4.978085891055571,-12.09796044337918,-2.54710746459898,-9.41756884820461,9.665223512571401,-5.737730714365398,1.90913150501774
0.532,-1.9863549935753326,-4.042738473578652,-11.544869434569364,-1.499920827300798,-10.891653824719242,12.162370922760601,-7.883057761336886,2.0501172601311737
0.536,-0.8178306327611153,-4.142026677190302,-10.967055097097045,-0.9555653909771991,-12.318856048574048,14.234793017987386,-9.75133961351571,3.4709810714948617
0.54,-0.7057998946097541,-5.23286551878391,-10.382033927539624,-0.8120225045173584,-13.161315899378792,15.36172161229365,-10.207844266608163,6.214462395067585
0.544,-1.6657080269751532,-6.638092164009663,-9.509787409589194,-0.6853137128673552,-12.712395882208398,15.508944473459906,-8.414509603457645,10.056044565345474
0.548,-3.0861121957752857,-7.3437350590986625,-7.8721620988873156,-0.049278877358119644,-10.348083869064908,15.07283866670241,-4.264984431183848,14.590711863294018
0.552,-4.0187977882133055,-6.528075331564196,-5.048277269163577,1.4956181043477272,-5.844300070138843,14.566600561591713,1.491876464104962,19.25163230074986
0.556,-3.696847212477678,-4.043445222186961,-0.9794473076680106,3.9549741961114933,0.37405155781129906,14.246276176741276,7.5032090561605855,23.283820404995822
0.56,-1.9911869807044695,-0.5659934351605216,3.8449151228771825,6.833670254734443,7.209355082268871,13.920935532705244,12.328185411690129,25.769238409477566
0.5640000000000001,0.46008809758382085,2.6899821169818097,8.453495245190311,9.289031592863921,13.167238123149104,13.078087425795957,14.978248211342589,25.809515965002447
0.5680000000000001,2.5439557043882814,4.559511570827226,11.718699194460669,10.497858953530681,16.868246167808707,11.252111685722411,15.228936857380859,22.856113195741273
0.5720000000000001,3.243300709076948,4.49741776176586,12.818869354097842,10.057376064843083,17.58375349301764,8.407319195264563,13.590697999010445,17.046949875117207
0.5760000000000001,2.185162749498204,2.8207752664395684,11.610151057400003,8.209028105251036,15.533667299344984,5.095973586784339,10.989430661705455,9.35403713871392
0.58,-0.13147680194038003,0.5078040787248028,8.70645420601727,5.755592048211838,11.783206233643227,2.2779413711737106,8.340449913045632,1.4004932477055263
0.584,-2.5678476393422898,-1.3320144980175428,5.208706220730846,3.7000595390740045,7.765372038447936,0.8789937413932876,6.216300112397448,-5.036041461609102
0.588,-3.903189708057198,-2.0031205477212097,2.2271337759394783,2.795900563522082,4.668073832329924,1.3215745025274828,4.738515697353023,-8.642807865823215
0.592,-3.419412590942784,-1.4981149134069938,0.4311258263222726,3.2346662085232083,2.980275330878726,3.286079861892631,3.7002814869470058,-9.035229897344834
0.596,-1.2163629611887927,-0.3867413830305395,-0.15749544763031054,4.6199628383585605,2.40343468014305,5.843656170533222,2.7923821724463096,-6.840780086188033
0.6,1.8902096443320033,0.5759045845233004,-0.060674331740926846,6.222496737103711,2.1322671824401596,7.899812347971874,1.7845415235236715,-3.357486208474711
0.604,4.809508984811032,0.865435858421165,-0.019060971474004873,7.367101886971113,1.317206122366997,8.728008749163337,0.5931489785883741,0.04933971094737899
0.608,6.680049460642294,0.3878381680435723,-0.6314778291581433,7.728263333388895,-0.5429266737195348,8.305415436661406,-0.7590572128530084,2.494330350752307
0.612,7.176145998731499,-0.6126807390344311,-2.129635834362091,7.392939995379834,-3.450031781648022,7.266824967702178,-2.226081311020039,3.7959914675238906
0.616,6.490409848356649,-1.8277891088455362,-4.362608171743943,6.690597742817772,-7.011596333298598,6.518438086401147,-3.7856388724708268,4.317878058798215
0.62,5.055426391098081,-3.1277301966297273,-6.948598405080588,5.922079771531401,-10.67218017980474,6.717058374986664,-5.4165022958317195,4.568280672691117
0.624,3.225677030349857,-4.606788939648254,-9.463567153243162,5.176697786212742,-13.90016581536429,7.908049341924652,-7.029415845403378,4.824565869151456
0.628,1.1446939843277733,-6.399374354222573,-11.542802199928701,4.352602827510282,-16.22035315754931,9.512326721552427,-8.403994215101989,4.9952338718380815
0.632,-1.134104654731118,-8.411518713682653,-12.860249658334965,3.3571390197851088,-17.13232015405299,10.655666741212599,-9.197465014739691,4.771275355154785
0.636,-3.399628226369714,-10.175062652094766,-13.066966312806699,2.3397869860627907,-16.070325353456553,10.653415147323813,-9.036588226834738,3.928790926072679
0.64,-5.133150080976634,-10.95825606039108,-11.815564587860422,1.7692262935651684,-12.543945159371106,9.383275021364625,-7.674381514183324,2.5543643239668654
0.644,-5.620447935420771,-10.106057403917305,-8.919038875686226,2.265759303034258,-6.453213889087749,7.356693788008897,-5.140100603203905,1.0462693843533089
0.648,-4.316386764199365,-7.423099780352231,-4.565649706454792,4.25790319811108,1.5981633274815294,5.458351481441468,-1.801915963030865,-0.11601756160757759
0.652,-1.2547620846333984,-3.3700576664788855,0.567459848477256,7.656773028286523,10.234857325282064,4.506159514824503,1.7049353059447867,-0.6706842933781445
0.656,2.7690945678223216,1.0545619759112128,5.425274655161672,11.753253672565393,17.624142159012592,4.8732669340431585,4.6649783728393,-0.7258208328357796
0.66,6.421067863891494,4.713156979793723,8.910278623253646,15.441871479466897,22.106455995638555,6.362751578804819,6.522300742052153,-0.6599335154203345
0.664,8.380085069454253,6.800102959622734,10.291790512897308,17.67222406398298,22.84182755299088,8.369491784571665,7.069923746346603,-0.8311576208670886
0.668,7.950752984252745,7.14772150889587,9.483796667465015,17.90548460551861,20.147427699806258,10.20583102183059,6.496547760505905,-1.2980207500404504
0.672,5.412951727283826,6.216632232421489,7.040252231969134,16.342286903367665,15.333547090827437,11.400683122504915,5.260458161876954,-1.7522448877555235
0.676,1.8934529646608098,4.785893254385542,3.8570822824208904,13.795472956883543,10.091294527259436,11.814298646975203,3.8447258901281884,-1.7188119189336248
0.68,-1.1780293057927338,3.5289737324800967,0.7373850534335133,11.278020279234909,5.7381522759086465,11.56044477767307,2.5262561978966005,-0.8916423282903452
0.684,-2.7469405864037526,2.6990810449577225,-1.9467898052761257,9.523531280294833,2.7019340614363045,10.846426231431337,1.3010637747764804,0.6409471008353194
0.6880000000000001,-2.5910792578931705,2.0867996020124906,-4.311113903964838,8.688931776351637,0.5135694705125502,9.864347376047021,0.018372262345451418,2.4553127658030007
0.6920000000000001,-1.3175245052028686,1.257000973848676,-6.711913964720225,8.387736571417577,-1.7140034267198985,8.800053359309459,-1.356204844941999,4.109119124566405
0.6960000000000001,0.05476688116254991,-0.10773151206177545,-9.370907653839822,7.999357541732763,-4.627056275554594,7.903524846924938,-2.532214692265029,5.500192408736439
0.7000000000000001,0.659691532157467,-1.9705366247644633,-12.132518493196244,7.04283179213985,-8.19250077582393,7.5038407419194755,-2.927075179790336,6.981984765245443
0.704,0.16220022764207442,-3.96513690558902,-14.53214510990739,5.391344833077142,-11.746818252194032,7.882281132053777,-1.9944637289219145,9.097872945709241
0.708,-1.2521070516082773,-5.671300964037471,-16.139236368539912,3.212395128070284,-14.48478096234328,9.023085204113954,0.27988043678124086,12.040105297572836
0.712,-3.204469697284253,-6.962515129942801,-16.9439021613191,0.709203029839955,-16.060337041207788,10.387936896606561,3.0169879802755304,15.158906086240222
0.716,-5.498545434279777,-8.183142444976681,-17.50188479917165,-2.1179182015175115,-16.88663678689494,10.925058783552345,4.52866160492465,16.907442895875647
0.72,-8.258386980498699,-9.990953207228017,-18.677825845490133,-5.483646701209182,-17.891003212036424,9.418651241301063,2.946059327193666,15.39949204677555
0.724,-11.709479970240523,-12.910563475972594,-21.086022587109596,-9.55592568230037,-19.83671451371532,5.092938563938333,-2.813314973163301,9.38727794973579
0.728,-15.73951928263864,-16.819357855199087,-24.52462681332503,-14.071521724482977,-22.601566311317868,-1.82634383040363,-12.220413004543616,-0.8336091074370415
0.732,-19.55158023986121,-20.67624882505828,-27.75452115914186,-18.09663838104092,-24.881462644109547,-9.923986761183869,-22.936626102011473,-13.1320553658054
0.736,-21.711015464142406,-22.726946728096664,-28.828410685921995,-20.160519835891535,-24.589250423031842,-16.969047351908443,-31.475822002215637,-24.134029205669776
0.74,-20.668466054055784,-21.178407756133936,-25.902382909820005,-18.796917675374573,-19.843393556767637,-20.752260072721583,-34.54046870387606,-30.51366857072935
0.744,-15.541558568660093,-15.074460694576828,-18.17869284108508,-13.270214415964631,-10.078331250170834,-20.01256463016523,-30.455915658651122,-30.388085900459828
0.748,-6.738171246263391,-4.941678860631441,-6.504263438403598,-4.113864512358248,3.3275576015532806,-15.01085456245346,-20.010132531802014,-24.138042517816302
0.752,3.9613614708205205,7.163851396866562,6.7270601984094185,6.849933875751503,17.31569816727972,-7.449707682036092,-6.234835773779025,-14.217754913975114
0.756,13.979310170770304,18.305905848530813,18.37575404216139,17.086105819608463,28.25003230954559,0.2541463339830443,6.803550719161137,-4.035482928984493
0.76,20.93207511809095,25.769522861849055,25.71842408387394,24.281683378761556,33.37129188905374,5.994665272225575,15.64559188189753,3.5472581708510234
0.764,23.561704067203095,28.115831990274614,27.444647762362848,27.20262439222023,31.901633687543665,8.806869531283041,18.746949697004936,7.360133223359526
0.768,22.158310642429683,25.69996037073463,24.044942948749025,26.07221491169139,25.267836613770555,9.11541495065535,16.84534708159032,8.163181704700719
0.772,18.27005679335207,20.3997301513333,17.439958291938666,22.29853281487169,16.345867829004987,8.312249737554453,12.275664730182712,7.9283881590799865
0.776,13.872353131609373,14.685886502100288,10.060935451336832,17.711876916883455,8.11305341175563,7.924167979044796,7.653134649568756,8.598707597905218
0.78,10.442752599203743,10.49921200655092,3.833280712872181,13.719212702808022,2.382774969671459,8.820238957809693,4.634405324732654,11.011634505215625
0.784,8.395188021519118,8.467622753038086,-0.4735459164656959,10.787075649370934,-0.7867207259408815,10.858561212085874,3.375148170288071,14.554544922604578
0.788,7.139771746141321,7.8362485778116024,-3.2686678889331517,8.484076549593965,-2.756947570898319,13.101408281191198,2.872347686714704,17.670033109044994
0.792,5.66909190932148,7.098401844366151,-5.598869526220284,5.995541357975128,-5.292790361647349,14.421576615447293,1.90033835646517,18.857301070083963
0.796,3.2905414634985277,4.945752347124824,-8.385989002636194,2.771124094259733,-9.45312458392749,14.136182783431195,-0.06677061465359202,17.560853451029402
0.8,0.08595013985097921,1.0262302057452644,-11.857551744772081,-1.0684089926510296,-14.974893224133666,12.304794294707904,-2.4989878234169396,14.433985993275883
0.804,-3.131711543157053,-3.8705437936113185,-15.435213353493936,-4.762469992233605,-20.4356737184051,9.595904569658387,-4.168630525386732,10.874976844535695
0.808,-5.295143746848169,-8.249792911877591,-18.0764518645706,-7.319511288026604,-24.038650718568817,6.852407014071332,-3.9605720763506724,8.143142377813547
0.812,-5.678065299259288,-10.6817891153311,-18.821952844248898,-8.028390390781311,-24.53258054741525,4.6332759725764845,-1.608128469168605,6.602835424906516
0.8160000000000001,-4.253091675802921,-10.473647923452745,-17.236696016663586,-6.776911952269245,-21.770717740182192,3.0118471790765398,2.093454091534852,5.539868631809668
0.8200000000000001,-1.63249850908295,-7.896194085377914,-13.53947218026866,-4.029878615091633,-16.651284596601386,1.707774882167314,5.716146972912043,3.6492142850272558
0.8240000000000001,1.3195260159325244,-3.910315436523092,-8.412228783784968,-0.5322800022412366,-10.55928270780447,0.42428489116946366,7.98960200110497,-0.10093299585719251
0.8280000000000001,3.9353314700393867,0.38378402377404086,-2.6632298517144193,3.0442612543825476,-4.688789813280891,-0.8622891148922918,8.455378709814852,-5.749041481201175
0.8320000000000001,5.965737305259495,4.217968061592302,3.0285121219233417,6.28406212577238,0.3477638800894738,-1.852271693068019,7.608345608961201,-12.20358879375965
0.836,7.4736164593629155,7.301914375180985,8.168808321672543,8.975690576327992,4.456806141123451,-2.1487268292739827,6.472915801140516,-17.760490723788962
0.84,8.523521960964388,9.637077817248155,12.33727170351321,10.931846564179864,7.686904251510896,-1.5921113480387703,5.9092579021340725,-20.960337895474936
0.844,8.936054024386294,11.207649921688784,15.063035121651751,11.873117280946474,9.860086976597785,-0.45980893252715305,6.081633465337347,-21.287342974147577
0.848,8.298884384484325,11.798033493275994,15.833137447021414,11.48930930229875,10.497638875703103,0.6169386487442807,6.398889110562948,-19.3400795822065
0.852,6.243220693030878,11.076791209635616,14.285662386032726,9.651483127195831,9.100595992651876,0.9896115773518659,5.952299900226933,-16.403820111895357
0.856,2.806342381252648,8.881648481140076,10.482243563398725,6.617119671332773,5.576112241553744,0.3806597430951797,4.152342375991168,-13.70592896889309
0.86,-1.3889279529911391,5.478895171869851,5.061021431579519,3.03673023972749,0.48401986957202325,-0.9250914168408144,1.1413605357523693,-11.81207349848387
0.864,-5.335544528389107,1.5514217201410645,-0.9050858935838164,-0.3283673569075063,-5.141675841887803,-2.2180705637709366,-2.2779107105039884,-10.513976697188696
0.868,-8.13753912726213,-2.107363529306525,-6.31618693121473,-3.0284820533477443,-10.31950521570272,-2.771088682414529,-5.123774250647045,-9.224882233419407
0.872,-9.51260057286322,-5.01463298832067,-10.51981177017484,-5.227511959146341,-14.670551558785064,-2.291630781882816,-6.818933989368588,-7.58391381726824
0.876,-9.985026004655424,-7.2635799595518336,-13.583225179458623,-7.657340054458473,-18.622268078451754,-1.1499786277722706,-7.4963930881303895,-5.859346977905943
0.88,-10.609285182986923,-9.425410285641135,-16.18294093275557,-11.179826313824151,-23.070150787626005,-0.2225872159619371,-7.835052819787961,-4.869169403164051
0.884,-12.352820970203595,-12.117899969623494,-19.142058749109168,-16.16592959313249,-28.656243179097487,-0.4183258130137233,-8.54457184829323,-5.446872004077022
0.888,-15.488812971746881,-15.499614814174834,-22.860793348119245,-22.057556751459117,-35.09592118779713,-2.151135513291422,-9.843542297833778,-7.804200281049589
0.892,-19.353075754102406,-19.007868421326577,-26.94530183681124,-27.402690491036395,-40.98596247206282,-5.058804972944472,-11.270471730888573,-11.21471228499081
0.896,-22.624234213592217,-21.533990832047294,-30.246152632250755,-30.40775137298661,-44.27804097281222,-8.14040710012631,-11.95295919060635,-14.254264760445267
0.9,-23.990497320997633,-21.97233331247884,-31.323270500489997,-29.771228165386788,-43.21863048151158,-10.257475225034568,-11.16864641084453,-15.511047390522208
0.904,-22.838575141393676,-19.843242194096746,-29.117347302846156,-25.37348721462436,-37.271981963148676,-10.72894414665302,-8.848707190551409,-14.37204730174767
0.908,-19.576058520613515,-15.61644962376755,-23.483451362094854,-18.437381186207404,-27.509373449305258,-9.698796541844331,-5.699889719661996,-11.426968793012179
0.912,-15.425817548774148,-10.545547094470521,-15.326579695393491,-11.050735406182753,-16.236326666403443,-8.076573204887723,-2.872025697003437,-8.246473077765359
0.916,-11.820735439313012,-6.094031578901081,-6.28442646203041,-5.277639061586683,-6.046767456936777,-7.073128936722469,-1.362492340609208,-6.635143943169169
0.92,-9.730173231589447,-3.262930994665112,1.8774853364009232,-2.2996581995328143,1.212022044184323,-7.5757122075265215,-1.51005551886567,-7.7513620913239265
0.924,-9.285738754970112,-2.1909916704831858,7.854377060598381,-2.008778986813695,5.033184721825535,-9.681870046175959,-2.876419310089034,-11.563249806421936
0.928,-9.874655507305647,-2.2320050252193937,11.120938794182734,-3.235503381915805,6.149702530247396,-12.631871652262703,-4.5541332629986755,-16.911372514020968
0.932,-10.592142948476294,-2.435414872612455,11.89356860105812,-4.459849598843789,5.876175340931013,-15.170582137931206,-5.698560246506986,-22.10989231232179
0.936,-10.75810007861071,-2.1270590642083675,10.840169128703337,-4.606526882017704,5.317947608313034,-16.14164951099542,-5.959678480823641,-25.72689071345212
0.9400000000000001,-10.2098976926236,-1.2595634627517143,8.728346047567129,-3.519912202020919,4.891695657466698,-15.01804141774187,-5.570433881212352,-27.132382557204437
0.9440000000000001,-9.265969042278357,-0.3699167021715084,6.166394533203174,-1.9233394082464201,4.340441436427682,-12.118297721656063,-5.091221009141691,-26.56547883084704
0.9480000000000001,-8.44074072306421,-0.20032704739918472,3.510024998781489,-0.9386719499344167,3.1347485618705377,-8.427426637912049,-5.0105329637189016,-24.76286782759871
0.9520000000000001,-8.126674324911619,-1.2363320843450651,0.900992048734679,-1.4664749005193016,0.9364235127611664,-5.153943821835128,-5.467795216320837,-22.4269315409897
0.9560000000000001,-8.443360545516839,-3.4446215741503465,-1.6557187143037027,-3.7661099786679415,-2.1906169212057875,-3.235485881780278,-6.25899472236938,-19.87440905460926
0.96,-9.314090339305949,-6.350907462701684,-4.250372436526561,-7.430721042762798,-5.918013057675807,-3.0257584190128455,-7.102293215749114,-17.046381347721308
0.964,-10.657238966967498,-9.375747559378738,-7.059718711332835,-11.694428787109587,-9.980634044947692,-4.26776375319605,-7.946956021505002,-13.801930036269823
0.968,-12.510423643965396,-12.18292140955623,-10.305859122401614,-15.834550723823213,-14.39583158967821,-6.307443560429874,-9.092696696336361,-10.25589675429137
0.972,-14.974445465417602,-14.815500458172323,-14.139686025772448,-19.4201265388308,-19.37269006841393,-8.416142558979118,-11.025729436287179,-6.913973378911805
0.976,-17.998850151432862,-17.53393913083596,-18.46983208058856,-22.28419121412867,-24.948688636597694,-10.04468276973239,-14.051824422723143,-4.501274148251468
0.98,-21.16374484465905,-20.461800946726044,-22.82637504057857,-24.294962660671445,-30.597780947864294,-10.93062757194366,-17.961125265214378,-3.597558251126884
0.984,-23.6300453398037,-23.276787575726416,-26.367798049942735,-25.12459935969946,-35.12210889792664,-11.065214511476597,-21.932635956138938,-4.306017414892267
0.988,-24.353897149543627,-25.171368154511583,-28.085570861495626,-24.22230208587098,-36.976434127493576,-10.582850424036678,-24.776587803277494,-6.166568008405193
0.992,-22.50450134169364,-25.155312381191152,-27.15035510679536,-21.057793240281853,-34.91207867148785,-9.659249712830388,-25.40193551940365,-8.373245986309485
0.996,-17.886515012659174,-22.558948409899358,-23.250008064880603,-15.50270931872933,-28.608715128529525,-8.47312011973463,-23.284721950298263,-10.15891487578574
1.0,-11.150324307750907,-17.471958017312772,-16.765507242099943,-8.12247910016265,-18.94439961940043,-7.220092538784911,-18.713486567183963,-11.12210099416734
1.004,-3.6691929003591213,-10.870608598325589,-8.70211101021323,-0.177050662029842,-7.742547217297897,-6.127375489865017,-12.691137146013261,-11.314427070832608
1.008,2.9110777821497322,-4.311690168361565,-0.3833928798744637,6.7400396982556,2.9045719574816076,-5.426880863801671,-6.549820116716319,-11.05419546401481
1.012,7.265276452514627,0.684869896205555,6.95446600403875,11.281934581134465,11.396089008412218,-5.279263110156535,-1.4643386699090115,-10.605317640627618
1.016,8.863898768919853,3.2612813083056835,12.497438780278117,12.866931522504274,17.088877800841487,-5.687731148722378,1.9242846659080897,-9.9517831166836
1.02,8.131667948166069,3.5499900568377143,15.998430768740377,11.876268631529683,20.28370633121176,-6.461705313900438,3.625364820667073,-8.819157776842076
1.024,6.214891701864644,2.5346254374783257,17.698783420943073,9.431401021730153,21.79853002925472,-7.259426862296095,4.141684322720721,-6.915218019777058
1.028,4.467202661147439,1.5150520309350668,18.101458379379437,6.86302235573703,22.410311322557845,-7.709966742489087,4.146765994185898,-4.233436097892081
1.032,3.8751019095634547,1.4426831537435874,17.721163061306015,5.134177057366969,22.476767369200502,-7.557986193506622,4.161513842724162,-1.2048261574700518
1.036,4.6779016554357895,2.4680503632907858,16.926119433403528,4.498586715893566,21.914285962466238,-6.765868443410909,4.375088833540303,1.4298038981696664
1.04,6.35441827500199,3.9392369722804688,15.916305256091391,4.546376457297583,20.484903339675952,-5.520789261256596,4.667180467683693,2.9764209549052794
1.044,7.959424113161276,4.833060698605095,14.791931705188063,4.575547703614006,18.149806271262833,-4.141509398339167,4.783936339400498,3.189002022163095
1.048,8.640760871080602,4.376689302781642,13.633298457577666,4.070205833336672,15.247912631082045,-2.9309111797288097,4.550765006365054,2.481256383366599
1.052,8.07560607645928,2.5164825116171414,12.527632852775014,3.0155664378496567,12.38060659029452,-2.050784273291356,3.998306850136487,1.8026089895033692
1.056,6.610008648573512,-0.031720615201493274,11.528933532058318,1.8821488230967134,10.085198019534573,-1.4766300884725752,3.331064596073702,2.2173771411130474
1.06,5.046271984349005,-2.167141432405515,10.59665247867406,1.3187965763211196,8.531956926771727,-1.050605824944796,2.765026270034923,4.393954632102577
1.064,4.207409064971671,-2.993643841491121,9.578316554716707,1.7590276555399669,7.44882432951249,-0.5926944895472843,2.3513096403166855,8.280815373821497
1.068,4.521527804089601,-2.2731789487174865,8.283726991135836,3.1796423130945186,6.341507161667096,-0.004193098960513453,1.9213259045807263,13.133534353111827
1.072,5.853434283260867,-0.4835744370259363,6.63376545898177,5.154281785625926,4.8879517829132055,0.6996377105174361,1.2034281868286598,17.870364033784426
1.076,7.662523404788772,1.5401598275798278,4.8117987064679255,7.15596270121091,3.2680151540416773,1.4306577616566756,0.05795953447523061,21.566444431130094
1.08,9.379450303426438,3.159470829262318,3.32914446885502,8.916094779445757,2.2220306693002385,2.1044356099860124,-1.2993870683164914,23.83310726142645
1.084,10.760139764248379,4.3267338529919925,2.918997539370821,10.604117362586976,2.7542687713716987,2.6922684488340565,-2.256680850635348,24.895158891823485
1.088,12.004971451920483,5.5756963145602185,4.26530716382922,12.698798350844982,5.61686666661717,3.2145680388407527,-2.0207778289886846,25.34118083582689
1.092,13.570421106113827,7.620907099796341,7.683955387667538,15.62679659669675,10.855719394942525,3.6812372877475354,-0.006341790217902599,25.71465094220366
1.096,15.788687532340191,10.809524586173893,12.903188306931952,19.382169550725393,17.658945059547477,4.033162843734772,3.804675586400208,26.181220754488095
1.1,18.543850077902334,14.78095111130483,19.075834997345737,23.37421439226,24.611199124095492,4.146518487121739,8.74714242133723,26.46099265194789
1.104,21.215235714375012,18.554811771512732,25.038578768085927,26.616326740052727,30.23069789321289,3.909079476333318,13.690815077649859,26.042310550993534
1.108,22.94071749233717,21.008705357226972,29.711406617208013,28.16117809760135,33.52238596148891,3.325832561599782,17.509492538821632,24.527071484808403
1.112,23.049554381363578,21.46475956953236,32.46031242286449,27.54890819542834,34.2887061567767,2.5802547576145116,19.568054234962347,21.915033109375145
1.116,21.42311689993312,20.040460746782855,33.262996902495615,25.02846201928628,33.07944479334992,1.9951935317599236,19.96850959077301,18.671893392260245
1.12,18.575398410856906,17.553373528890916,32.59943321026822,21.423812335015327,30.84011489964405,1.8766131642155415,19.419128920580988,15.537828109075235
1.124,15.410854044028383,15.046050333082121,31.133907674385,17.739781249223824,28.463040956135046,2.327031210990299,18.804215269215092,13.209350248645933
1.1280000000000001,12.804614011135072,13.225172815964015,29.36859404840243,14.737938269381175,26.471763275554167,3.148275167060092,18.698575984412855,12.070365826992202
1.1320000000000001,11.237750129847427,12.149850514387708,27.450130583710234,12.706787223760784,24.96373835443137,3.910996260787215,19.100424808529624,12.098920386385544
1.1360000000000001,10.668685948931397,11.335459719622122,25.22115482342292,11.528090080665606,23.775408590765664,4.166903735758751,19.513055798162895,12.961756041727313
1.1400000000000001,10.680612536748413,10.180354634238256,22.471227144300656,10.950924585774828,22.725891423041958,3.692793612330206,19.312585994730398,14.206183241577492
1.1440000000000001,10.770698692876977,8.415266508678542,19.20901232396409,10.851971952225767,21.761674239149215,2.6250052602217693,18.15717419836892,15.423185291303525
1.1480000000000001,10.60370594014421,6.286763458276255,15.773063243868137,11.30025031308628,20.92905605252963,1.3959513476838765,16.197647469698495,16.30627791817824
1.1520000000000001,10.097286194407388,4.370511509129528,12.704919193336309,12.395352175823064,20.233816528498664,0.4993091942515093,13.983453925770391,16.634325218267804
1.156,9.331097371375108,3.155958625929088,10.454256172104124,14.00914343669092,19.517285081002683,0.21910253878013464,12.12848101030886,16.2484754854313
1.16,8.403188498755298,2.705853845828642,9.115772960136155,15.653868947983483,18.4859449645694,0.48122577498179453,10.976727363035025,15.094192053295956
1.164,7.363253058104419,2.6337552153083834,8.373161599339028,16.63108778689775,16.90396170311851,0.9238873775875618,10.472244409217183,13.333524203824709
1.168,6.263871046667191,2.4145785188866284,7.709567907904329,16.41055167424247,14.837404167876684,1.1508128673094689,10.303709030622485,11.431402994848213
1.172,5.269154506538143,1.8199325535483695,6.773615004135991,15.017084162046103,12.776784971890265,1.0037159711191634,10.204762184866922,10.100573380168498
1.176,4.699752160781827,1.1714394288228505,5.683522349666646,13.1656643431686,11.518028896876785,0.6810991321390247,10.202031003515458,10.064017842234534
1.18,4.93822119151082,1.2151021355089142,5.066841406905496,12.007757435752865,11.824232033583485,0.6116756463861748,10.635174356516472,11.707727002507454
1.184,6.2115481271198405,2.654445204365402,5.764667057624365,12.56992240983027,14.01087835172757,1.1508427967928583,11.926402403181783,14.808406126177942
1.188,8.387030637712542,5.632772866423238,8.337442678618572,15.174373187790934,17.687719709474095,2.2984084481131504,14.243017516232612,18.522706117570124
1.192,10.926777240354568,9.500316019535148,12.642844715167485,19.175179141222543,21.819692367212156,3.618825463686335,17.285989341254208,21.69783774829375
1.196,13.061964811088728,13.038288934350476,17.738969589956014,23.18200977903234,25.108129312199253,4.428524232942436,20.346927653482,23.37958384933063
1.2,14.125359501625553,15.047371962227317,22.208866383482018,25.684145746683953,26.53576804372642,4.155727639341421,22.603405325241056,23.256643178545346
1.204,13.857515013801276,14.962125726679915,24.75089070022318,25.74851762961407,25.792118835684505,2.671369170760954,23.490480304691573,21.793307958724654
1.208,12.51815055883344,13.137809822349027,24.74396955838074,23.425385501642268,23.372683351182786,0.3848207806076971,22.93761989865925,19.955159541301327
1.212,10.7516474295644,10.652082588780559,22.50467902669334,19.66792721222464,20.304254417020275,-1.9554623029753202,21.34107469557921,18.663228650864767
1.216,9.271262326315082,8.726703582051414,19.10596102765703,15.819015114886042,17.635481541648915,-3.65030837782615,19.30966036155678,18.28162060541763
1.22,8.532875272542697,8.1037383858461,15.86501830660518,12.95726312955594,15.960942456325938,-4.40831235423866,17.35156500710309,18.435031776924006
1.224,8.570932300665845,8.723897988493263,13.76211577081358,11.452592758137598,15.19872062747072,-4.467422988765065,15.689091909459421,18.267787683618735
1.228,9.07149530807419,9.875124994179714,13.086560730619567,10.95019637447831,14.732516133079116,-4.404281302147865,14.287751345755169,17.015680339378378
1.232,9.604190619482324,10.686344034459125,13.44881713485529,10.734362811328083,13.818116964443561,-4.7493980836434275,13.049005048321305,14.553608598707797
1.236,9.870163009901262,10.651114727538697,14.096774118765552,10.225028618956003,12.018672439414331,-5.640215918562717,12.00013277215021,11.576399335152018
1.24,9.825231491583509,9.875688329566401,14.333718877593128,9.304083568591523,9.447735502512842,-6.710266296317059,11.337197200290575,9.27746861729247
1.244,9.616342748518036,8.91752656081053,13.797655679442869,8.29639536219247,6.688446743924487,-7.288413912126089,11.283949311440665,8.679731105994506
1.248,9.39847903714599,8.348510160002661,12.493076122972525,7.65840714038859,4.458480864630474,-6.787891595327892,11.872111849254907,10.00844696567765
1.252,9.153127375438089,8.32995255008791,10.621283064006093,7.592146710478119,3.2140187781133136,-5.065987664013846,12.80622866927024,12.481044194510105
1.256,8.637801614055206,8.473316708340462,8.37740711751212,7.8525752462023775,2.9225341883638976,-2.552209626941476,13.526894368775174,14.668550996149861
1.26,7.512722518136798,8.075980637547673,5.874426950699672,7.871600834898345,3.1290644869677635,-0.06845149966557074,13.462358978037628,15.24353991546377
1.264,5.563085744273849,6.573705067992705,3.2190835183942,7.112747469098849,3.2539141649385783,1.554487952126692,12.341147774261117,13.706925494476309
1.268,2.905428626410867,3.942780481263526,0.6613180453996392,5.444321215320542,2.959979021212348,1.874903976992755,10.379078839031536,10.684052306034573
1.272,0.056813991019225796,0.8039527190853732,-1.3344122673534002,3.301426330004233,2.3721620891255952,1.040264279299663,8.216046658839332,7.606968129377492
1.276,-2.1884765370859895,-1.8340632374734014,-2.1934882409259444,1.5265376586685306,2.023564739621179,-0.2994617809299598,6.62474755727726,5.937397240606515
1.28,-3.0292964662667146,-3.0377639984671987,-1.472132907008472,0.97463434914971,2.5722067557694572,-1.3125641963215458,6.1500234422128415,6.358983178508424
1.284,-1.9853744045803978,-2.378765669430777,0.8915077334754642,2.0906914027082166,4.433264738833259,-1.379231756538502,6.872480648630699,8.393257797746628
1.288,0.8659251147983014,-0.1078754991904134,4.471692756905213,4.675239948247508,7.5195458138196045,-0.3612002702175232,8.39580221034339,10.64317039778507
1.292,4.84830323848837,2.9892978514099013,8.471755061248132,7.948095813138934,11.223005951242612,1.3565501379489433,10.050052299835443,11.520233718571035
1.296,8.859687847809255,5.938447978569002,12.014432406788728,10.862234916832676,14.638020865103044,3.055285436725171,11.192106801262526,10.056968988326844
1.3,11.731121434693705,7.950785869732499,14.467257372763015,12.520808478358958,16.92093191554568,4.0002909399190685,11.449969892550143,6.3716091934638825
1.304,12.6525251901503,8.662877175219819,15.639629304006576,12.519822722450499,17.616160875269543,3.7436468196556234,10.814590738281368,1.5733560963544733
1.308,11.491051778726614,8.169409414907932,15.764213097197171,11.078058633893306,16.811772019980253,2.2993793064288184,9.568311424710373,-2.798378000556113
1.312,8.861230207326116,6.896917584200764,15.296545709273687,8.926368641410136,15.06435686534951,0.1332661181277217,8.13762089395459,-5.466863884887061
1.316,5.897332950278724,5.415906837523835,14.661636197996359,7.020105241889269,13.139712566505295,-2.013286673143739,6.951208339592995,-5.877422097604722
1.32,3.799911089637135,4.264711283029101,14.079529956704391,6.177875183838296,11.69042234816061,-3.4008431961665337,6.340276643071775,-4.2485181159772765
1.324,3.3332200799768543,3.80908142006092,13.52655959835738,6.769669478694141,10.994819946782172,-3.5557248771729064,6.480306375231521,-1.279474989964001
1.328,4.48856513649298,4.136027208007363,12.801992742037783,8.550805675225092,10.852422569213559,-2.4367727125809324,7.343134772015219,2.242830764005703
1.332,6.483191176414948,4.999320009815165,11.635417195298487,10.715622284990786,10.677166150308949,-0.44458689881139435,8.665859425504095,5.707023442242644
1.336,8.115827370422267,5.857120312781717,9.792042204893733,12.181703756983097,9.76858819518202,1.7466211660103,9.981562193528589,8.722934546893157
1.34,8.344036130671157,6.05291907890296,7.170730814932995,12.034919359495689,7.677298568630249,3.46522995777741,10.759469172016907,11.02910733331737
1.344,6.803489064200221,5.1024213914097345,3.884416896601124,9.968575865231287,4.504328084473855,4.319341087157227,10.635198907029007,12.420333505782764
1.348,4.00783689756372,2.9745538189908984,0.3046632875684736,6.508833343753395,0.9855703091452597,4.352017745532066,9.636662718262414,12.784946774603668
1.352,1.1230118006315024,0.21166222423380532,-2.9650446763262153,2.8850483571191035,-1.715984366855082,3.988098237558006,8.252868761912396,12.21695254700171
1.356,-0.6041590983304559,-2.2350431245131404,-5.232647281958634,0.5414060558077836,-2.4771243183977276,3.791201273459592,7.250914536976779,11.070498497527296
1.36,-0.47886619397922914,-3.4255068534412203,-5.966438655498223,0.47420779777530697,-0.7494712349771362,4.130829393378008,7.2853709343398805,9.839133956287696
1.364,1.2919748111635272,-2.907911761183641,-5.04843577387328,2.717104425994876,3.103776410996943,4.947484686947064,8.495866578119603,8.913212830249904
1.368,3.7196117840921943,-0.987770929988983,-2.890904703713204,6.261119312018309,7.883787850909357,5.755151814251803,10.34186624801805,8.37108007797542
1.372,5.5720037130859055,1.3970087241668807,-0.30559094290583744,9.5017615643319,12.066844113214756,5.9094592346627905,11.829435418007051,7.973299987557766
1.3760000000000001,6.047619415194276,3.1544020605970218,1.8558685372818218,11.016506789360392,14.526413613724799,5.007032962485027,12.057471052503388,7.40559721405225
1.3800000000000001,5.2120840406769275,3.6286256294661143,3.118539310539745,10.277580628425312,15.095810582559352,3.1856013529868505,10.780281437306257,6.61552048413796
1.3840000000000001,3.9392341413877148,2.9502811158008626,3.608379102258823,7.904663406886357,14.625820780242066,1.1323019024348469,8.632967175901285,5.984885726569701
1.3880000000000001,3.3641609014275673,1.9052090111445068,3.9075648243469914,5.282345178702599,14.43832125856261,-0.24720457704825094,6.80993105491325,6.145914336935675
1.3920000000000001,4.120339987624902,1.3604917161173944,4.573675422473116,3.7140025429171146,15.421822591697492,-0.35401667575024476,6.3004588918120135,7.483660894122295
1.3960000000000001,5.810973387358899,1.584699182481927,5.597192835235546,3.5829046947819734,17.273958995897374,0.6698957726785011,7.098502330083647,9.615805469329644
1.4000000000000001,7.042410760866915,1.8932347171730726,6.150831582036517,4.00690837214006,18.381109490655945,1.8647493759344798,7.895718926070913,11.215858574440063
1.4040000000000001,6.046574059737395,0.8838473706764489,4.854029908031407,3.2252544055882026,16.502567451286268,1.8308345556870336,6.538095056137536,10.419285872181717
1.408,1.60992312115377,-2.7933564859640683,0.49606027918162,-0.43976888711040374,9.987194432844262,-0.5892967522504478,1.126255145621144,5.715147996073938
1.412,-6.157298882872055,-9.523635162519895,-7.138538900729145,-7.540350091572691,-1.0948476128596667,-5.658163510186569,-8.769239356264734,-3.104856543490314
1.416,-15.636794977061072,-18.21145881994562,-16.821000564326823,-16.956652239430696,-14.558078250601284,-12.467384484622016,-21.453859095861844,-14.481956237963459
1.42,-24.227547584678177,-26.50267496984452,-26.1209711953843,-26.169822633329204,-26.737888813480822,-19.20169679612809,-33.46285229496789,-25.441787675605156
1.424,-29.356838674004393,-31.706582731386334,-32.30704218959181,-32.261736463980924,-33.937296218357005,-23.827590116326974,-40.86751636997906,-32.67985433647118
1.428,-29.505991160269332,-31.980652044007,-33.503922904621504,-33.16527151885293,-34.00750325465651,-24.87960765344542,-40.94741820289346,-33.89337352840084
1.432,-24.778474149123213,-27.18190545487687,-29.53525668504244,-28.556231192848827,-27.281697831316706,-21.993455419316888,-33.421600821240645,-28.72018912959902
1.436,-16.78269135286064,-18.956057768145,-22.016778696309302,-19.97111081247658,-16.399211173362346,-15.971830600617977,-20.61510832572094,-18.83775012656406
1.44,-7.906804339490918,-10.005511530118383,-13.637805448941435,-10.117277410915449,-5.103796796849565,-8.388854756192814,-6.468208269872775,-7.186681159942964
1.444,-0.36531811756503885,-2.918404341859059,-6.995029561389856,-1.745299376634648,3.363002642877291,-0.9671695616834768,5.130211404954025,3.2804790009940916
1.448,4.53441271943484,0.8482636683183955,-3.567808392081133,3.3585621880301915,7.475786576649625,4.967386954844187,11.863142507907469,10.690286236094835
1.452,6.638306738030224,1.371939253273922,-3.3096420188821867,4.836082156838529,7.705111548903915,8.764849348111966,13.64472181756173,14.693480778787489
1.456,6.680008385968904,-0.08213971817349375,-4.986941782969552,3.5521379614274338,5.824093786476624,10.428440971207237,12.190524075444046,16.143717189836025
1.46,5.727147312860325,-1.8871494742406867,-7.002172124057324,0.9316937107732883,3.724914267686472,10.3926288388775,9.826913046021218,16.279517030718125
1.464,4.653433085839424,-2.884136930401837,-8.22417655629124,-1.7725748942102655,2.4177842145509203,9.264543358245646,8.227690196767071,15.908477653083537
1.468,3.8643950763853354,-2.8004031597683934,-8.399014408644689,-3.934648786102116,1.7227445781190909,7.6332998748039245,7.740953302976777,15.028791717566492
1.472,3.3386913761023607,-2.1153183458400235,-7.998462891739109,-5.5829481865966955,0.7272318669956803,5.964889991326345,7.574029727949892,13.038114071841846
1.476,2.861970675548946,-1.5626232121667272,-7.693961717474849,-7.102751097187138,-1.3654993412865224,4.548059110042232,6.607253781041436,9.331776022856502
1.48,2.268051435250527,-1.606001897571332,-7.824687359005111,-8.84828162013946,-4.546410895008194,3.4609310705145617,4.280376232296476,3.8990097324858652
1.484,1.5623272597604227,-2.1852587616704113,-8.183173669900498,-10.879200178216706,-7.88203589722707,2.5864499615890963,1.0170483908786991,-2.429239563494775
1.488,0.9011601422098465,-2.825669884805393,-8.208316344869672,-12.922497737254162,-10.006593198658265,1.7097623394820403,-2.013099472360409,-8.205865955758782
1.492,0.4793100643055368,-2.9860157261255154,-7.423461596644302,-14.526936452776681,-9.909114184940336,0.6861527931559976,-3.603300374275932,-11.93228997321421
1.496,0.4229506558513094,-2.3936192669580123,-5.810299949805085,-15.28193490011654,-7.541846554633594,-0.3943492389134917,-3.224194171916679,-12.666998831115052
1.5,0.7489360955642042,-1.172917274615429,-3.879364764788079,-14.991974465439853,-3.90205308563327,-1.1667107067278266,-1.3097085031677125,-10.395438944942725
1.504,1.3780781663299422,0.25465966527553974,-2.414556439117405,-13.747859024679201,-0.5658956499173655,-1.1464810551860865,1.0198872396540537,-6.011155509779201
1.508,2.1738975494081387,1.4066718416288495,-2.052196074877429,-11.885127724106496,1.060803968673099,-0.021417985368316295,2.598778189785662,-0.9405328288303281
1.512,2.9691603647552256,1.9491870257788833,-2.950016903420874,-9.867169451833433,0.3656482387377764,2.076517525987583,2.826329105231707,3.3909312181785936
1.516,3.593725050919602,1.7834429154145255,-4.725373118760217,-8.124482336716937,-2.2712831439084766,4.514826543381787,1.8988068038706842,6.023158970721852
1.52,3.919087561956985,1.0119558664673605,-6.668820892002259,-6.897168064719153,-5.748646016732891,6.400350979834911,0.57483838220287,6.689816899350262
1.524,3.913778915150033,-0.15367882789632858,-8.095234428131334,-6.136424920392528,-8.799546614038263,7.018107847932697,-0.3413272781253909,5.7723236643687414
1.528,3.680251491841773,-1.4691176198921312,-8.638755110503553,-5.518207458273537,-10.535455895631458,6.236275157316413,-0.47121500897083024,4.042481091801164
1.532,3.4297531376196275,-2.7039785717006453,-8.366073111067635,-4.600850705995072,-10.740878349153718,4.6059011365359765,-0.019182224990800023,2.309684910924261
1.536,3.3805014422541717,-3.680645797005127,-7.681050504585073,-3.077456302776227,-9.831026956895585,3.067993894153915,0.42757794622048095,1.1164802039493225
1.54,3.6120795300012105,-4.331706494697755,-7.106276161470305,-1.0152694733797034,-8.55415551970873,2.4209800527132757,0.29494160332797037,0.5777668461487337
1.544,3.954034367312488,-4.767289454018282,-7.072386624472529,1.0564542762622295,-7.630386344632825,2.8456189429198275,-0.6458161371156166,0.4085426780657144
1.548,4.008014393477424,-5.282268221351842,-7.7912520941399634,2.3065658636314765,-7.485786001800079,3.78157537226798,-2.1877335591889278,0.1188344234287797
1.552,3.3232260469230823,-6.250034424981095,-9.232009247789392,1.9659736700868962,-8.159185918282674,4.244716008030082,-3.8622373056387005,-0.7221490254596574
1.556,1.6440295318443532,-7.9220059559638685,-11.163762786773077,-0.26752470617793733,-9.374862791779378,3.4197031456169498,-5.227114025019546,-2.2626564636193507
1.56,-0.9049480231133202,-10.225971515412311,-13.217813010057398,-4.005390985921622,-10.703406955612081,1.1647637759233476,-6.077953201811397,-4.288000959575584
1.564,-3.8087188066147064,-12.700784066450069,-14.96204956211659,-8.276858672156777,-11.737082678022489,-1.876031217572745,-6.476934997503122,-6.317889925834606
1.568,-6.362065266948775,-14.646028859300714,-15.993670474537794,-11.948817702922497,-12.222991345979608,-4.626385558000038,-6.627228714576631,-7.837109237527329
1.572,-7.987019368818437,-15.442658647904864,-16.045222787600323,-14.252609285302242,-12.125657211965517,-6.1857491232367465,-6.70779560502524,-8.542418042732606
1.576,-8.498157331519906,-14.886796122338637,-15.071221571702154,-15.138839202159943,-11.609697347432302,-6.326578087406233,-6.779147373590604,-8.479973035871808
1.58,-8.17438075629616,-13.331188015810767,-13.266502426662555,-15.256010290213453,-10.941536373582494,-5.589919679114246,-6.806643217949386,-8.015951465946273
1.584,-7.60607489450922,-11.542987401022401,-11.008464968836961,-15.560528555944984,-10.367279439353297,-4.928810815828911,-6.758893872685803,-7.6572434414229065
1.588,-7.407747193339674,-10.338816907358705,-8.739156633449056,-16.77751884821737,-10.01685710061065,-5.120097502935096,-6.68853145250614,-7.826863215734193
1.592,-7.947872300075687,-10.189466198871742,-6.843579269406291,-19.013065364574686,-9.877228809068583,-6.305890362595164,-6.73347158600518,-8.711987615090038
1.596,-9.225356373828618,-11.016852484309311,-5.578805603216097,-21.723369288581125,-9.85023532194009,-7.9334956795901235,-7.033506078803839,-10.242595390180213
1.6,-10.928116025546842,-12.288753317565806,-5.062272436286776,-24.040315411196616,-9.852855725214795,-9.111083567439891,-7.634960889639842,-12.18681979952271
1.604,-12.611703915641556,-13.350845274999301,-5.304300483057887,-25.25222848858175,-9.907123135852999,-9.151798088891155,-8.45259502067347,-14.278435864976927
1.608,-13.87805059162929,-13.798511746525037,-6.24554493128926,-25.152157952165,-10.159220312982143,-7.986799776957923,-9.319619394325855,-16.291676123655634
1.612,-14.475146050659532,-13.675682530587437,-7.77068936132855,-24.067093124074745,-10.814722521330623,-6.2137085031863535,-10.087267534974671,-18.033675893995678
1.616,-14.315216870156291,-13.401946740817948,-9.704011660925971,-22.590906940034984,-12.025701544514959,-4.770293582863815,-10.71298339097848,-19.29940111257747
1.62,-13.452588485792148,-13.480898724380495,-11.809956746452372,-21.209961882407697,-13.782107247256135,-4.452865815768746,-11.272040786590878,-19.86245876155226
1.624,-12.076735280665162,-14.180804594571782,-13.832730000410265,-20.063696546456413,-15.87867503878988,-5.550283569991734,-11.889893301031407,-19.54447345972585
1.6280000000000001,-10.524211101546825,-15.383571678238695,-15.57218916002239,-18.982820590339543,-17.979177708592943,-7.755793074516987,-12.655707797233845,-18.344306887869607
1.6320000000000001,-9.259375142291901,-16.676544581381677,-16.95024303815171,-17.750695897005244,-19.740017556790917,-10.362918405480741,-13.578786161473545,-16.536865688773105
1.6360000000000001,-8.772430321643697,-17.61181956598466,-18.004576716175507,-16.38294440446498,-20.927839797515844,-12.600638608935697,-14.603894504009077,-14.6404459364785
1.6400000000000001,-9.3888629366229,-17.95751317396025,-18.791819030688202,-15.220668582202961,-21.465874394283674,-13.924247578928771,-15.662389539020296,-13.230106617054844
1.6440000000000001,-11.072318134534726,-17.79255429508612,-19.260792569352816,-14.763068915427539,-21.406594317053532,-14.149653457923705,-16.72406900797978,-12.681640978600626
1.6480000000000001,-13.351102795038969,-17.406851034575084,-19.20213067937584,-15.35576780953761,-20.872478966529343,-13.426351514255657,-17.79196678994049,-12.995693879296596
1.6520000000000001,-15.448168689426893,-17.083441690501786,-18.336749495046206,-16.942592151995996,-20.00593222697171,-12.119059559754533,-18.84857250924324,-13.818710475057742
1.6560000000000001,-16.58572392271526,-16.907418498119114,-16.51250053716285,-19.04685687166966,-18.944014238839372,-10.675100626591302,-19.799149127031342,-14.665840766865585
1.6600000000000001,-16.330449217679416,-16.72568651751135,-13.905528231215612,-21.008721759304535,-17.823493714060533,-9.513204044476879,-20.450410908359117,-15.227050630383019
1.6640000000000001,-14.810942285826968,-16.274140941603946,-11.081957807887193,-22.333247880316776,-16.784551967291918,-8.93361979924157,-20.56160925581935,-15.558425323299161
1.668,-12.671933801742853,-15.376090834794923,-8.827655388994572,-22.92213760654613,-15.94964341067498,-9.044395134082151,-19.952971261529456,-16.030296618671855
1.672,-10.759653702461947,-14.07408521670277,-7.799271730496912,-23.038921838839087,-15.377320428622625,-9.71641055199143,-18.60059345114678,-17.034662590991502
1.676,-9.709320200054208,-12.615206676854541,-8.179453697892313,-23.041508174022965,-15.028079534469725,-10.611175010970328,-16.66578460272285,-18.623720062671055
1.68,-9.651344046251324,-11.307791748739874,-9.539648534090702,-23.063910772731106,-14.778533542030345,-11.309225585471722,-14.455205663660308,-20.333055150967994
1.684,-10.189208815292659,-10.337926136241549,-11.012570811482874,-22.86382374387722,-14.474464483816519,-11.494492212257683,-12.332905768758792,-21.332905829607625
1.688,-10.653907358981087,-9.663628638226328,-11.7079141575623,-21.94191151279574,-13.998683169454125,-11.093470653950135,-10.619685412882973,-20.85502592692137
1.692,-10.485581731247294,-9.05241174789353,-11.168188742580242,-19.874503470010495,-13.318350979871866,-10.289274213100725,-9.532918876211625,-18.672015914569783
1.696,-9.533570030860574,-8.235708274022727,-9.611338184742635,-16.654624581821736,-12.48198026384489,-9.381637596574365,-9.167396255115818,-15.330328483651101
1.7,-8.10784239741406,-7.084352732947991,-7.812198480513871,-12.815740019758778,-11.566703405541375,-8.580701251295977,-9.490463863041441,-11.963466522924136
1.704,-6.762384490815748,-5.698068221088761,-6.677144770744235,-9.249376625993136,-10.616257071774271,-7.879190665673377,-10.3363975054599,-9.756434680359234
1.708,-5.952684429053988,-4.368631233924134,-6.74830118112186,-6.807225770533478,-9.625347924164998,-7.099056040397045,-11.407315742986611,-9.337389903088479
1.712,-5.777100917453936,-3.4486442382367386,-7.918227424534962,-5.91234361433817,-8.583913916042547,-6.07771248802419,-12.305711785504172,-10.438230673775251
1.716,-5.946968819949689,-3.1970060039802775,-9.513106988351865,-6.394301348543195,-7.5553650477068,-4.873024233243996,-12.627176156045607,-12.03114990393442
1.72,-5.995563441854756,-3.6816533735373014,-10.689596981754221,-7.628956416437177,-6.723077961659328,-3.8334724310152524,-12.100735990745306,-12.88320118705451
1.724,-5.58985259981273,-4.77000230502108,-10.905782914699557,-8.894770903190874,-6.3414030003286825,-3.4514979020823375,-10.728051301659434,-12.2285852617606
1.728,-4.749646747763109,-6.191171962220324,-10.19697321431704,-9.73863685631568,-6.6028566879367645,-4.07644429487118,-8.831859596166396,-10.180067744229746
1.732,-3.827397979204761,-7.618057829684403,-9.10480878017006,-10.148746002195367,-7.4811330889288,-5.653967721793379,-6.967139525526363,-7.651768344097945
1.736,-3.253449110161455,-8.724782306239831,-8.308961010447092,-10.453598164011055,-8.640345868622717,-7.6642920190370205,-5.693048462628212,-5.843184340479638
1.74,-3.2018632945146237,-9.216070192521329,-8.178624561001016,-11.022069902959629,-9.483537073746447,-9.319325974995081,-5.291347188829604,-5.575423533511639
1.744,-3.384591891972377,-8.847265413092828,-8.509741611107529,-11.95774985918979,-9.345459735819531,-9.923596580241792,-5.583881313297752,-6.864012823694793
1.748,-3.122957928202595,-7.468247245437851,-8.607273856464417,-12.966611083655152,-7.759660635956607,-9.196974588012381,-5.9573920782786445,-8.946776683660573
1.752,-1.6989320132324792,-5.104854539388725,-7.679413544286035,-13.488821756130164,-4.68849484320981,-7.380517836543731,-5.624162302361583,-10.735469934996217
1.756,1.192149825657907,-2.03965806801898,-5.3321988558454905,-13.020710390341264,-0.6088327448160271,-5.079038340947591,-4.025962392335714,-11.414910014871566
1.76,5.154673053139049,1.1798210270153504,-1.8772364455153365,-11.435288090833637,3.60098377333361,-2.9494042078058555,-1.1818208722561394,-10.836890610858973
1.764,9.159181150522272,3.8526387545607577,1.7320073907658298,-9.119227887178567,6.949839388828877,-1.4255399683206633,2.20183946801626,-9.507446643110598
1.768,11.969863831553084,5.3461634746036,4.321775607917516,-6.830570737277412,8.690855403743626,-0.6135486152743397,4.954475917293166,-8.202824518317357
1.772,12.737808839072386,5.356541083227057,5.066171460151963,-5.338841209181737,8.601396181897144,-0.38105666621777345,5.933083748914214,-7.465455540575931
1.776,11.45330897788881,4.086290224424374,3.9090986756909842,-5.03031357013333,7.06769239170535,-0.5351694124128699,4.567989126115208,-7.287133847057703
1.78,9.000853019428178,2.229958855217774,1.6304660981159032,-5.684377384581239,4.933027233655594,-0.9392489597230451,1.2098745540224627,-7.155396480509808
1.784,6.752997057725224,0.7343767101310732,-0.49568788848500844,-6.557719310321772,3.162006927242146,-1.5150660883900855,-2.9197778528869094,-6.417825325705053
1.788,5.884013209310069,0.40037479441707546,-1.3003817846492893,-6.7579360645286215,2.4370227567269467,-2.1714779027133773,-6.189137542413846,-4.731742477313674
1.792,6.76410268760992,1.5064535037890892,-0.2875989507710983,-5.718048649283446,2.866209245045866,-2.7689225440517475,-7.23189573333093,-2.316450533513489
1.796,8.75947758199618,3.637636392006243,2.104245919148525,-3.525201917843333,3.9386858513016705,-3.166502888459945,-5.542790088570655,0.1424843828935991
1.8,10.555778008396373,5.827125919199716,4.686173234114904,-0.9190930658714933,4.7609615757546635,-3.321832219739008,-1.7135906234898357,1.8657867393139895
1.804,10.860787208232068,6.9905900239446055,6.071586717352602,1.0690096847620225,4.4873700963016745,-3.3608956891639536,2.822712473262982,2.407195336982113
1.808,9.125044686230467,6.461957339216497,5.343395152389803,1.6744590947919278,2.7580036959852805,-3.5202779136088793,6.426213098163316,1.903115264569351
1.812,5.8901397804902444,4.375323177127029,2.5136071119827648,0.8611730543734666,-0.06978566409907216,-3.9570261972876324,7.9722719197270635,1.0047154948642856
1.816,2.573715936694498,1.6920305040894164,-1.4447409797539876,-0.5697436736445525,-3.0196599755363422,-4.556591128628497,7.322895754547062,0.5523198702267109
1.82,0.7734106227362645,-0.1945137580823939,-5.014956103589611,-1.3281866041270405,-4.90072192268417,-4.9060284288352705,5.324125127411207,1.1642087665495637
1.824,1.4561165845934738,-0.10210018325687997,-6.804197429738451,-0.29019884376793925,-4.831531915484447,-4.502253939948787,3.3448836361058056,2.9492603989983763
1.828,4.4490376528665365,2.346693988401057,-6.147407520611068,2.866621196240885,-2.644687987232828,-3.1033437235655583,2.5920913551481135,5.469887441602623
1.832,8.495715611804371,6.476271363705564,-3.37029623106946,7.379000212711617,1.0215561583754607,-0.9990975215532671,3.547432645884328,7.943274565312095
1.836,11.841783438607308,10.792508256153269,0.3929990289602756,11.6358617414935,4.979202556862219,1.0081735983058024,5.786077131355341,9.57112975144446
1.84,13.062100668170388,13.615869784111055,3.724144029087256,13.863232375796542,7.971599368796888,1.962602170478931,8.243152060575994,9.83494548919407
1.844,11.719463609822924,13.826570609739065,5.523379512489555,12.936160976696101,9.162183679229202,1.2822824756367481,9.771017665359068,8.645155798933047
1.848,8.526517773741944,11.360092352656466,5.413628547368262,8.921361680982955,8.412423375818435,-0.8557274190552562,9.687376006634622,6.31166776120881
1.852,4.9498363745551615,7.213174122205601,3.7755647290482557,3.0778456124162403,6.243170746751275,-3.5347952503634588,8.044427998533138,3.3759502815355518
1.856,2.481378815215976,2.9646705750828914,1.4415144242007045,-2.690714643633328,3.5340973401880547,-5.544002200376781,5.526037821085993,0.3937958047645225
1.86,1.9382781725280438,0.04215278696074165,-0.7572545895686744,-6.671860438775184,1.12574805438544,-6.023763239969412,3.066393672763297,-2.251490228338298
1.864,3.135063217332572,-0.8958242741696267,-2.3457265273123085,-8.063432681302402,-0.4852206695541099,-4.946710264390276,1.4133774954061664,-4.449627970087022
1.868,5.0626278204154005,-0.16832514260477183,-3.3056737896031336,-7.235202671657589,-1.252738962940839,-3.134256086406822,0.8515737966545203,-6.336397909299194
1.872,6.435623984281847,1.1996646871471057,-3.9327476888502133,-5.442742201473266,-1.4942629414076691,-1.7835422156058485,1.190053727738814,-8.154173529746913
1.8760000000000001,6.307428975345829,2.0522914282992133,-4.586081167880366,-4.167364954548702,-1.6911723317616634,-1.7812980013004562,1.9635757152009319,-10.05359708830656
1.8800000000000001,4.458123802924092,1.67194343771871,-5.482026582624258,-4.416455664726527,-2.2775621829323427,-3.2151731267040304,2.6974829278642574,-11.931389112631223
1.8840000000000001,1.401209053884486,0.05728457933628306,-6.635776488722968,-6.317883405947214,-3.4918930703379374,-5.347069890369312,3.086300390258657,-13.390648621290893
1.8880000000000001,-1.945726628344346,-2.1947853648098317,-7.936052571997607,-9.161569110035089,-5.310512190457757,-7.052082692836848,3.0280114759716525,-13.857846420631176
1.8920000000000001,-4.718359699924804,-4.288091633715339,-9.263704680028695,-11.817183592429501,-7.463159677844942,-7.457496053333671,2.5627288102296006,-12.840293328445114
1.8960000000000001,-6.441036095963682,-5.649086094199902,-10.552737853510735,-13.276813882114311,-9.508357613868156,-6.390252195029461,1.7968292066288996,-10.200511728138736
1.9000000000000001,-7.098878587662512,-6.146782836608963,-11.754405790436067,-13.056833807016574,-10.954598378785704,-4.388567308153142,0.8774829443864292,-6.308466484884775
1.9040000000000001,-6.9655544911956895,-6.016730395489958,-12.752095646296311,-11.300025854331125,-11.397881763809892,-2.309281468953486,0.01719505751498218,-1.9748248987598345
1.9080000000000001,-6.337821438090941,-5.590841592273591,-13.317185345812504,-8.594621117760198,-10.651538733256984,-0.7958782034093019,-0.5024308465053764,1.8264609420748457
1.9120000000000001,-5.35611439101649,-5.0356428694526585,-13.165953662209176,-5.657554659462676,-8.819211583553624,0.0574402726469998,-0.40165720913046243,4.314375674648545
1.9160000000000001,-4.007302443492335,-4.269532620355676,-12.0946485951049,-3.049639261651464,-6.26258887719041,0.6621365276369033,0.4624768547610074,5.174491299521833
1.92,-2.2790685785703317,-3.1046684998877936,-10.113788318135903,-1.0440049414819441,-3.4756139847495433,1.5748027325607836,1.973313481943478,4.613674387488572
1.924,-0.34326084090480435,-1.497525699025573,-7.492539748641775,0.3402335562391272,-0.9176655985907018,3.070211899894275,3.7322195131973785,3.1675826454757043
1.928,1.4000209291207284,0.28512720539765724,-4.67125330534509,1.2268127794313841,1.1185365340770659,4.9258364414145035,5.176839459536495,1.3828138802564354
1.932,2.4709609797673693,1.7216618678698978,-2.0816699392703413,1.7876646201762014,2.5494382576302996,6.542082448719157,5.8078564250845375,-0.4350527193328162
1.936,2.573239184854174,2.2882129342356166,0.01838175561033495,2.2026566907379674,3.4332438852784435,7.30459537013121,5.402662336028698,-2.279150216072594
1.94,1.813604449363993,1.7621268671073267,1.6102555797906462,2.661683717181404,3.850145418828106,6.9497426588950475,4.097642087833265,-4.289033246994222
1.944,0.7368671341100708,0.3935548598014975,2.8572830161542697,3.370301790923804,3.824989869432102,5.714537616852795,2.2997875395976735,-6.5030120468891255
1.948,0.1164109661231123,-1.1867644727849438,3.9667504551857746,4.5111258978636215,3.333167941177635,4.198504174235495,0.48483602860596875,-8.693874831838912
1.952,0.5881417909704396,-2.279059105813758,5.060357391720572,6.1662044797958515,2.3765526742608927,3.043740219558458,-1.0036781772951144,-10.399989189976623
1.956,2.3092525386136913,-2.4738155787213145,6.118643917798636,8.243884768567568,1.0616439143382195,2.6250526747871845,-2.046971757672509,-11.14067335412983
1.96,4.826819424786663,-1.8598235216645662,7.010716670300553,10.459855779040936,-0.40307196441835913,2.9086225020519123,-2.697920674011584,-10.699337120215205
1.964,7.239255676576249,-0.9669067530890061,7.568188406401077,12.396408444913504,-1.8026075949665028,3.5200885143603955,-3.0474497058503403,-9.29009257162943
1.968,8.575144025307964,-0.4835495031124992,7.649299981195327,13.620842831748632,-3.0495529343747876,3.9460767200480404,-3.118835973217756,-7.500785227181041
1.972,8.220210039479753,-0.9019664675574859,7.169973137579291,13.823819138562612,-4.246876832857197,3.765401436819957,-2.861370939659537,-6.025651243524408
1.976,6.183323674425083,-2.282100595067277,6.107968979789348,12.919498462182219,-5.610799362414127,2.807441964525424,-2.2338301256177147,-5.3162357999226515
1.98,3.0848690514740156,-4.250149984517066,4.514263284268964,11.071401317945401,-7.282060952929896,1.2057814572835923,-1.3004302230274334,-5.347157321903069
1.984,-0.11776786232621816,-6.206439100467833,2.5443187531272997,8.642074075475193,-9.134509943006833,-0.6185659110324195,-0.2640941314502925,-5.6287261521874825
1.988,-2.5349980417731786,-7.616397736449471,0.4841797620874786,6.089003515762215,-10.721276044439492,-2.0394474271824947,0.6030318216480737,-5.456800835227114
1.992,-3.673463594084751,-8.218465755634497,-1.268328648277702,3.8480772658413116,-11.424720070578587,-2.3797253009042834,1.1048160228469897,-4.273042475061629
1.996,-3.5587666366755,-8.06264058430952,-2.301474155131018,2.2375726924087758,-10.751140875652254,-1.1315323647131663,1.2421302733732773,-1.9542816345856409
2.0,-2.6233156553835215,-7.389320398758173,-2.3371255914798894,1.4078591895195132,-8.61060695759079,1.8082779766382373,1.2274907277228522,1.1059064411529107
2.004,-1.4297522822603241,-6.437262565995297,-1.3528121402100624,1.3512149112634688,-5.402552582715998,5.981823180483843,1.3818049754813728,4.154190854340413
2.008,-0.37716913822487186,-5.307995669289085,0.3942765617468922,1.9589614536698718,-1.8496250069606504,10.407677648025128,1.9732410794727002,6.383283764356747
2.012,0.46292431333267814,-3.958277720481874,2.460817951920035,3.0931894232976447,1.3335439460674934,13.859705357527673,3.0813967158469495,7.239944845346145
2.016,1.3112520899444462,-2.305216532807208,4.388108164908999,4.640396559468172,3.744654911537509,15.313912008267835,4.5480670575925615,6.605680791561099
2.02,2.4882847590120036,-0.3668366694423639,5.867527059857139,6.5231842895721,5.397053250719637,14.372065508130618,6.038124331865674,4.7957061639153835
2.024,4.176595059745068,1.6629937303237057,6.817846162493652,8.670748229762012,6.584303784704389,11.444350327894426,7.169283131637258,2.4013159203714167
2.028,6.260329753685255,3.4584608611996828,7.347129211609399,10.972023654401028,7.606519252406997,7.5820771352891825,7.649131438947279,0.06274150959598046
2.032,8.335176505574054,4.7081040290506735,7.639448185509082,13.253306214684926,8.556293581139016,4.023928478326525,7.371229135387239,-1.7244084810154163
2.036,9.898606688884229,5.295772806636478,7.850400420658843,15.316541180295417,9.315999633374076,1.6823726399979932,6.45187901769259,-2.7020045425169883
2.04,10.618424781576778,5.409284853187273,8.063642021799978,17.025262491619287,9.747484057376369,0.8256893776206198,5.220078194043708,-2.8458346803736276
2.044,10.537007115736287,5.5083113849918846,8.309891064631302,18.387650805040266,9.922174736294664,1.0978287042571537,4.142745135980476,-2.306789295978888
2.048,10.085804899706545,6.1421416791549746,8.601299193662499,19.565820924852915,10.190655844087814,1.8406618496355804,3.685844202925182,-1.3333373655514151
2.052,9.872703980644019,7.679971112374915,8.915676913056814,20.769978193952056,10.990899473410082,2.5133666090814586,4.142926062564584,-0.20752745692425378
2.056,10.332535240924699,10.077242236650136,9.125032860677948,22.06752441499202,12.481431724911545,2.962159764429998,5.4808622761174774,0.8044172226018418
2.06,11.418861227431535,12.795668371399415,8.94292357799418,23.215320383060998,14.247548120932379,3.421213058657486,7.294956972326418,1.5092176801035748
2.064,12.530930075483411,14.95478408640929,7.973383023383121,23.64442684953474,15.328597055896807,4.278313079291365,8.944687034533672,1.8581187857289478
2.068,12.737279883204337,15.667701484160716,5.886069216689748,22.659320390284392,14.623328378327187,5.767175547704028,9.852278733861112,2.0099258932550583
2.072,11.21629584952916,14.425493495393766,2.6463207038593737,19.79217133499128,11.495192870051369,7.795918145283849,9.821130993401312,2.331072134747046
2.076,7.705611020608558,11.350159930452719,-1.345310305382327,15.142134538338269,6.236674864031102,9.997081907340544,9.177372776874108,3.2863893572466623
2.08,2.7133036160494157,7.178117861697729,-5.321373028718426,9.501343871770587,0.09846060684185431,11.932330529222781,8.625734452454253,5.227409424434882
2.084,-2.6367851002642055,2.975870622132561,-8.426456962600014,4.151873764706579,-5.175775570456608,13.307300690107695,8.845541427068383,8.157713041269744
2.088,-7.049653250675874,-0.27627918491521086,-10.071316727599651,0.40020452923363337,-8.08756516787912,14.068168172597325,10.044755226354937,11.603968872211226
2.092,-9.558138489257999,-2.01918531879528,-10.16193704287366,-0.9325557892038887,-7.997889293754952,14.343013263449848,11.761023814081,14.694906842747514
2.096,-9.823972610762212,-2.2040909489444402,-9.055666629419648,0.19739729203615752,-5.2950332531154345,14.298400609583496,13.06834657939362,16.458808345259968
2.1,-8.094910302075277,-1.1124981787359047,-7.2569697983233254,3.1363225869113194,-1.0447372347707642,14.032923025574291,13.117021241424482,16.230508966918023
2.104,-4.887540864760922,0.955393800831871,-5.048491877965716,6.929864697010771,3.6420384001064576,13.56922987670714,11.706389390420554,13.966541784548099
2.108,-0.6443284995457361,3.8936765657517753,-2.3155833689277188,10.80196130936497,8.128550242821802,12.923602473551,9.502918192339166,10.285986777241305
2.112,4.391305676464071,7.73961604356532,1.2737549200276135,14.42264305533945,12.338350345940853,12.165033171756477,7.685338218991092,6.167756934641147
2.116,9.990616634288017,12.369862501159332,5.802929421238559,17.80555411406999,16.379168854794216,11.376770377627054,7.154332487214333,2.43703102291056
2.12,15.591726999838102,17.154369085761346,10.64781895753049,20.92079830951343,19.993482105388694,10.535035681592944,7.762063907333868,-0.6960730945615978
2.124,20.081822929864757,20.85153901260628,14.367634200761813,23.297993005541457,22.242621239191976,9.389868712438329,8.06692284082692,-3.781120113427278
2.128,21.958069891951254,21.91784983218554,15.126682415492041,23.935405610649923,21.71043321346474,7.472443045176988,5.881265966219189,-7.824306183605586
2.132,19.903616079123367,19.173068409038933,11.525309070098501,21.66122520604108,17.19488602695037,4.299840489875351,-0.5521448072936437,-13.64380991286589
2.136,13.520341511360584,12.505130123579193,3.4377879978848114,15.805089133410547,8.525363141950947,-0.2887173562053249,-11.356363961719808,-21.203097953736687
2.14,3.805194859022322,3.2158696102997055,-7.604770656201822,6.816077155162247,-2.9762428876454123,-5.8401155774481595,-24.48276540157667,-29.29136594211468
2.144,-6.96076402287963,-6.248672539845302,-18.763812783108733,-3.566857533529401,-14.710148577708196,-11.232966330429008,-36.21756836183931,-35.770082377733615
2.148,-15.964778529700652,-13.14946251308129,-26.884872719346845,-12.77839275420456,-23.667861529827178,-14.9657288620474,-42.59053290216343,-38.32157790287238
2.152,-20.93559361525422,-15.516124639363397,-29.702239822550723,-18.36056336619197,-27.570266491110033,-15.710902306963817,-41.05162308145759,-35.3838371108377
2.156,-21.04093405391359,-12.933276382646454,-26.707755632835756,-18.951382027217164,-25.745156641046606,-12.884933434618688,-31.601621117511968,-26.85403543358825
2.16,-17.16659726835087,-6.670428546299945,-19.28100047589237,-14.84029959301472,-19.335261004922927,-6.969974061790708,-16.811318060185158,-14.231879954968917
2.164,-11.424186161281114,0.9198219293764396,-10.02768872644424,-7.79293940778598,-10.735193128941319,0.5862954564099709,-0.7272067140593208,-0.13075924360418867
2.168,-6.145036677913822,7.4299669859804,-1.663398338464276,-0.23174410294177505,-2.552741327415447,7.88032934830062,12.786089161282234,12.611054694242739
2.172,-2.8654890175134824,11.362073959800227,4.029696331016908,5.823314612701097,3.417524220900418,13.24730438369943,21.46144020501538,21.835787874775633
2.176,-1.7893566633706541,12.58961810557821,6.713771605650663,9.53425497231774,6.753848092877547,15.841893990621884,25.16858004786036,26.627211125603026
2.18,-1.9379588192969095,12.15797010237145,7.320547877410945,11.395131135614179,8.304086156208541,15.854765116557473,25.44628112234136,27.34951924710367
2.184,-1.854727222749716,11.594448135978837,7.3674679585030844,12.726255281938847,9.54471588663273,14.287039285616402,24.40328054953943,25.232034944717725
2.188,-0.46196905619535755,12.107073872153023,8.149055721801005,14.819297708339946,11.74753715159045,12.411321244240298,23.604997102676407,21.74567355569161
2.192,2.3965309211193926,14.082540716218091,10.207418484777236,18.205331616248486,15.37347484863551,11.188963233892537,23.50689431001183,18.07965340913961
2.196,5.958960005846166,17.068824159565224,13.267466352200813,22.401635872932957,19.938736228223206,10.908954722847056,23.607027099940296,14.89086100574059
2.2,9.038360869265034,20.174328286764307,16.580040640671655,26.230104182893456,24.36465767905588,11.196647968176421,23.092734048388365,12.352337330024966
2.204,10.705833302462906,22.62325585314295,19.424833332152843,28.490100171628455,27.596644286560604,11.346849802498582,21.52838423998537,10.38692890773109
2.208,10.768972790018552,24.14114178642103,21.476340977416726,28.58548361954786,29.14983678384533,10.776268921400515,19.169142525072743,8.903194709992476
2.212,9.78783044482634,24.978771748337294,22.85384416124475,26.76514593070965,29.30005366906198,9.34178263691365,16.77340358427466,7.898005617022818
2.216,8.667377383764006,25.616670571011355,23.878242333709977,23.889558066904556,28.835786937832154,7.376537580549211,15.096203539302223,7.416926139154839
2.22,8.072607377546547,26.35053374624181,24.716151584712577,20.891448488754577,28.513120303241408,5.446263786026066,14.398030721991063,7.431923377624116
2.224,8.010184608777763,27.02070663163147,25.145549793407667,18.258695309274117,28.528235262198564,3.999080464634517,14.268225915089715,7.7443976825029495
2.228,7.813271259391286,27.040184611218933,24.589816164078968,15.833823754718082,28.30205701455509,3.1171316668055624,13.85254525983737,8.00866661861778
2.232,6.5351594291396395,25.71128238129586,22.40953962289825,13.015947639012666,26.7200903844398,2.5179143980903973,12.338919160266187,7.877402120702982
2.236,3.5422047136189576,22.665845775427215,18.300176145080286,9.226454441139367,22.736458767079796,1.7932260178804427,9.425187358594712,7.2012720737277505
2.24,-1.028542899610784,18.178769388071828,12.580638489433454,4.3565613253333595,16.03709644277086,0.7260506242566862,5.524919731290424,6.181172532887558
2.244,-6.221509869876854,13.165101865952863,6.192970536204939,-1.0777424019812543,7.387046654466076,-0.5057493464103118,1.6112000164140454,5.356275854222076
2.248,-10.662701712327134,8.83624789355315,0.3877574640333137,-6.144476163795332,-1.5589333467763709,-1.3857469894992391,-1.2105993198522356,5.409758525651796
2.2520000000000002,-13.219019181030149,6.165776809720114,-3.7723108179370684,-9.930928865981912,-8.918773123141477,-1.3594933466318935,-2.193967131684417,6.8575515731622545
2.2560000000000002,-13.566295896116685,5.43028697475097,-5.854756512445647,-11.944807684060038,-13.40146636227064,-0.2100127612286542,-1.2739250887627804,9.752817231438485
2.2600000000000002,-12.335336758832,6.074110233088504,-6.218560177245649,-12.247176461859794,-14.84954448436821,1.7402766249354045,0.9217563398622133,13.571241517810904
2.2640000000000002,-10.760092560957219,6.978232407143537,-5.811862060451574,-11.279213352396198,-14.212528626193944,3.7286829792769822,3.3529398793863265,17.350831433270514
2.2680000000000002,-10.000729339245822,7.012917973810204,-5.6962417015910205,-9.52049841406,-12.969475900802365,4.918205000610442,5.005433092386056,20.04643070841621
2.2720000000000002,-10.494212336889518,5.614945530420982,-6.5258254004818355,-7.207207717999381,-12.315528239665127,4.838186530698749,5.298527626348289,20.952556909471696
2.2760000000000002,-11.70611730448718,3.0901622589008753,-8.238573597324432,-4.29740813695355,-12.558712637988037,3.6461087840076516,4.270914102605502,19.98469511985968
2.2800000000000002,-12.429961487076014,0.47600863356092304,-10.103412227155815,-0.685443322138326,-13.05468564537631,2.050197929597857,2.483796152076252,17.68162661915187
2.2840000000000003,-11.477033017897611,-0.9656780680401766,-11.091086953626075,3.5051294131211534,-12.68697032415173,0.9202989198490741,0.7024768773501364,14.918957071008208
2.2880000000000003,-8.370650038670647,-0.3660553827130002,-10.367183551635861,7.784848254162682,-10.593518481107196,0.8069369427921629,-0.4830669824150391,12.472898985662368
2.2920000000000003,-3.6629366857090417,2.3344793807121675,-7.660273458192961,11.435959705759075,-6.705274264234788,1.6306283851108674,-0.9232295303877436,10.661250723104217
2.2960000000000003,1.301666297908696,6.374923439144055,-3.3439087094558033,13.855365866369283,-1.7964856012137886,2.7152754613912293,-0.9274391781792701,9.243853264020345
2.3000000000000003,5.042324233697684,10.549279977282225,1.7682522777445513,14.88008614816357,2.947889090348667,3.1548432683462124,-1.0382950521992598,7.631139440592733
2.3040000000000003,6.644124833236731,13.759367400359082,6.765371675436597,14.859633659171749,6.561532564576652,2.2976088718081087,-1.6970479109396592,5.283911941363726
2.308,6.112767098176562,15.44258592657664,10.930239085074533,14.400121095608398,8.723574581607153,0.08963796382943201,-2.9801632688694326,2.0904573197161653
2.312,4.219988834222249,15.685232800653125,13.858150228621383,13.93333767389521,9.749385502766387,-2.894654332963114,-4.559366356914211,-1.4849292313206206
2.316,1.9616368746728767,15.003843774292221,15.397535354003935,13.38862406925358,10.186028482521749,-5.741319634950855,-5.89889704551058,-4.5657378193932345
2.32,-0.027359883054543843,13.961402529466113,15.517655251384951,12.203369061155314,10.30619260990892,-7.637146076750696,-6.571454209971137,-6.256648229155985
2.324,-1.7363505757037387,12.86931054750795,14.233568599606485,9.699908880471554,9.854036767645766,-8.224243844991975,-6.513091565425839,-6.067020898670648
2.328,-3.5992045483946526,11.713635328482212,11.63735485440543,5.598003099458879,8.200181656360883,-7.700154790565307,-6.0676848553885065,-4.159556954741788
2.332,-6.026584565649387,10.295906741637566,7.981788676317763,0.3224420736871707,4.802556050057831,-6.651685452329048,-5.799999015389801,-1.313024669298784
2.336,-8.992262117215716,8.449271839547862,3.7089967294245696,-5.128068828430116,-0.34010750875239637,-5.743412828242981,-6.173844163666729,1.374613005284914
2.34,-11.971502071704492,6.161667131338504,-0.6408496152421037,-9.709691349863078,-6.54184812610481,-5.438814891287848,-7.278483726579225,2.902516495534087
2.344,-14.277122888265012,3.5405696775032425,-4.619525596844056,-12.947589116902407,-12.680394416350964,-5.876104370290477,-8.770981322535476,2.7205007829340957
2.348,-15.570825116607125,0.675127845852785,-8.044469093694715,-15.2326581800167,-17.6926546562309,-6.914696159852269,-10.05357795811642,0.8954078882600243
2.352,-16.181390660643274,-2.453542536887767,-11.035432371560148,-17.56913972256956,-21.00674954810495,-8.271215278026261,-10.585703081519796,-1.9522064362395213
2.356,-16.98015408857657,-5.916203862720863,-13.874159363953595,-20.88214450084871,-22.665312414757693,-9.642871804116908,-10.168165820579361,-4.90204441209471
2.36,-18.846293793299196,-9.659296038920218,-16.75431320837606,-25.28280335510061,-23.100969455286645,-10.76998498573937,-9.04435744455293,-7.068227084393357
2.364,-22.026378789011346,-13.336899056364473,-19.57920779180222,-29.759082028778778,-22.748752960033983,-11.4470308198064,-7.7761857414275255,-7.901503246243919
2.368,-25.793930587337286,-16.31186846026469,-21.941400261331182,-32.53433532773289,-21.769196332723766,-11.523125628940647,-6.969874783779346,-7.369824805266944
2.372,-28.661533546653004,-17.880215171599446,-23.308209638767494,-31.949800416488813,-20.050521714325328,-10.936893342397639,-7.004844401020819,-5.9667971371129624
2.376,-29.072902305446746,-17.616072247616955,-23.305137665684356,-27.396929545221383,-17.456163677705092,-9.761375766534115,-7.89892553838331,-4.536961404902286
2.38,-26.220363465248624,-15.644946113766593,-21.9251876034524,-19.772734220510756,-14.116038412964542,-8.223038813366884,-9.364711085925592,-3.972584262837927
2.384,-20.535122135519714,-12.657531998261788,-19.543708516098434,-11.18545710937343,-10.532548717129544,-6.656657979573083,-10.997490500786512,-4.8854548283018175
2.388,-13.57996228847503,-9.63269482081148,-16.73869501898139,-4.053837762044509,-7.41797733673917,-5.398813823989144,-12.484499801618085,-7.361603831617231
2.392,-7.391359507187076,-7.40363362479701,-14.031043080194252,-0.08040128755413889,-5.363721151384368,-4.676648293561698,-13.728630519780381,-10.903060114465461
2.396,-3.615837296032282,-6.3112727320072395,-11.708975306682362,0.36406564114787443,-4.565416842789887,-4.543129182514008,-14.825669287230312,-14.581432613136258
2.4,-2.8728111840661086,-6.1306674316453496,-9.82418010265684,-1.8292909360768022,-4.780791594483503,-4.900967490825224,-15.931209508253573,-17.341395255697307
2.404,-4.628923478816091,-6.291771012452898,-8.330204844579441,-5.15290917306362,-5.535663366689846,-5.583549933987797,-17.09536136145755,-18.34585112873765
2.408,-7.59516133459249,-6.257503803964028,-7.245140388111906,-8.295808004591834,-6.439657600749172,-6.416458098757857,-18.163651471058074,-17.223685713506256
2.412,-10.383631532945856,-5.820851016854306,-6.709802128093884,-10.658598826799448,-7.391094788279418,-7.2265547015838365,-18.788364265676137,-14.135051676585363
2.416,-12.072265782489012,-5.149782003369069,-6.887621038098359,-12.334472646193376,-8.529234558577969,-7.809257879638835,-18.550097029154927,-9.655449923786364
2.42,-12.419297603104724,-4.572999214548645,-7.7682309666172955,-13.666429217656571,-9.969244537997099,-7.900225114907926,-17.12573909497098,-4.540998054794045
2.424,-11.706848421874497,-4.262902038542393,-9.027839414820392,-14.745872925199649,-11.518600327646539,-7.2194730962780795,-14.412486366413646,0.5035085867389171
2.428,-10.401216125091992,-4.049527831471551,-10.067913600532222,-15.205824348548163,-12.594151912386167,-5.600919269687438,-10.581206948982413,4.967655269900661
2.432,-8.84585279973146,-3.4752680789531496,-10.236268229146276,-14.427045309293021,-12.416938320317797,-3.1419973983083764,-6.0332456332737365,8.576634925023427
2.436,-7.146946091733298,-2.065149656536448,-9.11884781467802,-12.001179095174791,-10.390760323262612,-0.2672353882060179,-1.2799382251934048,11.2518696054683
2.44,-5.265605816466177,0.34609679883266153,-6.744821840823192,-8.118056031175229,-6.449483382623441,2.362657769374664,3.1848898330654265,13.040122461879946
2.444,-3.1894445395056437,3.4480230302073664,-3.5877481261491084,-3.595940181914841,-1.160450094044677,4.0892090862512305,6.966703186238988,14.042420197218917
2.448,-1.0404140086985763,6.548570099963058,-0.3551059927701772,0.487645572618419,4.475567534855145,4.543088677395872,9.795109085663057,14.355494108899848
2.452,0.9534166422491808,8.873929719348155,2.310132436684171,3.3396697617414475,9.412572674462922,3.8261628453008143,11.50478105468062,14.023118655719372
2.456,2.590103687325609,9.910164846685916,4.060076701822084,4.84052297087311,12.92542766336544,2.4772674143546283,12.01180896549738,13.01009454453947
2.46,3.8298860166104305,9.605969513879472,4.896436775312168,5.5483004345566656,14.771809009209392,1.2314421211103763,11.314383120312868,11.224490820940673
2.464,4.825738801474358,8.342424615663958,5.052650953917237,6.3129215130757075,15.110587258421674,0.6885312808158233,9.523548808470196,8.604053091912647
2.468,5.815827123682652,6.700260112833234,4.795918017414465,7.731446914013077,14.273129151070634,1.0525442436912726,6.901126286419867,5.238823595498616
2.472,6.941406523894557,5.181416505714878,4.284607701643097,9.770349404708895,12.564602131338347,2.064213636395607,3.8624122307962807,1.4611491392302014
2.476,8.097895451153931,4.02854766666519,3.552084219568769,11.766574698301952,10.211026849411724,3.1426593798555587,0.9082091770509351,-2.164644674143119
2.48,8.91519115029439,3.2104403342084424,2.605047773564479,12.788813340628622,7.445466704282012,3.6461994277713075,-1.4940089030734498,-4.98848504309899
2.484,8.887712782390167,2.5449923590451817,1.5390657350976653,12.13403908822852,4.617306698862876,3.1216627588828487,-3.025017165806844,-6.5171809398193545
2.488,7.594811977625113,1.8531629657987878,0.5762094590925813,9.677607392716936,2.1921522907880444,1.4390661263041693,-3.575773427162403,-6.639802811334675
2.492,4.911295672625556,1.0544399062104048,-0.010651216713199574,5.902640719356327,0.5974631633739591,-1.2077758031059602,-3.2243038492130154,-5.7031099930165965
2.496,1.1189209950566692,0.17541753405475902,-0.04146396272005859,1.6327441668286156,0.0026881482875751317,-4.388019859876749,-2.1498785802516522,-4.361129617046117
2.5,-3.138464061613604,-0.7046107302340943,0.4532552502192857,-2.350907568273101,0.18023132414157317,-7.545615393246862,-0.543922470241796,-3.2622741266759476
2.504,-7.038526573847548,-1.5026770558915814,1.22650863191825,-5.587544937726307,0.5682130240542165,-10.105627991536267,1.4230300887516023,-2.7351169094404213
2.508,-9.834227928635073,-2.1446984171084296,1.9376457485783476,-7.981856219936958,0.5355059189076883,-11.566801202123997,3.556447520208849,-2.643905585340235
2.512,-11.08954041449033,-2.5479216472592725,2.3292077919239773,-9.642934323473128,-0.2875111590359438,-11.603582902499511,5.5674304940114325,-2.500188634652204
2.516,-10.805106980832761,-2.608717422294262,2.3566161384404722,-10.655678698291581,-1.8042325081738682,-10.171379453902546,7.058074979404637,-1.7747605288168415
2.52,-9.385910378539165,-2.231193059437601,2.1979621225644905,-10.937667638953371,-3.497006193579864,-7.570557051841433,7.606254375700928,-0.23498692371504148
2.524,-7.460548780007912,-1.3831076621205511,2.13618015195766,-10.257064678959637,-4.695325810941085,-4.400150190637987,6.948853849221223,1.883291093290154
2.528,-5.6206450531906285,-0.1423645796925257,2.3848581155427837,-8.374798056353143,-4.922958928377852,-1.3761803648669684,5.163776498149218,3.9708084998369486
2.532,-4.184780602400224,1.317979264254518,2.9670948362964964,-5.203871898508851,-4.119040082595916,0.9333982081652721,2.7265715720952812,5.35378795115048
2.536,-3.068623757225396,2.8224456039824872,3.7200647600911907,-0.8776543101248535,-2.601159344623511,2.3426753653225205,0.3868374637672787,5.644253153726368
2.54,-1.8307044246930673,4.302718173617109,4.4193484359301465,4.293821169744206,-0.8135728966319675,3.1155514095610215,-1.11350836330098,4.93087328961019
2.544,0.11364262221309218,5.853292390608658,4.9444025964212415,9.927157556799784,0.9782131620452219,3.8118549627604352,-1.3524509075671176,3.714837020431787
2.548,3.19275716715174,7.675892371030955,5.383417520163562,15.646853815050235,2.8430323280069842,4.969703371808237,-0.4005335101549008,2.6489080560672846
2.552,7.424027617795673,9.922569118201636,6.0072466103825946,21.095942724866745,5.09112345915878,6.785604441900205,1.2429799466005989,2.2338665085158027
2.556,12.311385655651748,12.51849250687144,7.1163579186015795,25.889741188354037,7.9830756362702004,8.965674125215855,2.9190173164076896,2.633820549821394
2.56,16.950740701328414,15.078052884368617,8.84652492372561,29.578429090838085,11.417873702590441,10.837305095786405,4.141870485869504,3.6838262981650587
2.564,20.318403578105745,16.997238499951095,11.040553536469247,31.685143876315465,14.814624816099354,11.673805097039576,4.811636852916081,5.039793011323582
2.568,21.63142328574827,17.69782789665203,13.262589643178217,31.83529148873015,17.273406545530065,11.066627460627842,5.2010087945932355,6.337590902429383
2.572,20.631542288705987,16.91064410191757,14.955220690564147,29.918432684529193,17.950374506977255,9.143580906539682,5.7345548491332465,7.265708776720658
2.576,17.674262372934436,14.845241428385748,15.662071496404678,26.182782881763387,16.454125132737545,6.519139797056141,6.690332147287791,7.541572412447749
2.58,13.586581175669608,12.136996306183846,15.209773516318364,21.19954636183627,13.049781070691324,4.01077740390474,8.008269064621118,6.883999722544559
2.584,9.359738395764225,9.5859850948126,13.757365042240849,15.688604641829443,8.56412312321072,2.274613887139367,9.296048258938981,5.065471295979933
2.588,5.803676741518984,7.802390843510352,11.70172504796301,10.276093494394104,4.037543300175685,1.5459628318667455,10.03105851166083,2.0662489233509405
2.592,3.313743016753051,6.950244489774718,9.507228235778825,5.311754301647056,0.315557366988628,1.5987866049626973,9.840865144082272,-1.7410683404341398
2.596,1.8330110853112274,6.724365389875288,7.545397248105246,0.8355856140821061,-2.218626813155538,1.9337305198655486,8.703312483629134,-5.530367362798643
2.6,1.0018397662377083,6.5659939742074585,6.017567987087546,-3.291482881896968,-3.658818922402702,2.082252715150389,6.964412781751662,-8.204579210485463
2.604,0.4090981948834269,6.008510320084383,4.97952592415993,-7.162247574394883,-4.359875006254242,1.8468819333866122,5.195705679660932,-8.798271552875121
2.608,-0.18878775614552978,4.960942951010566,4.42550690753535,-10.623522814310945,-4.644406648848985,1.36868054547449,3.976394126998912,-6.93094033245643
2.612,-0.7723294129082205,3.77980070369415,4.36354375978226,-13.205353534099345,-4.600671875488274,1.0019839590172523,3.6997622170897557,-3.0756979439715906
2.616,-1.1162746396882994,3.087107446452478,4.819321564676329,-14.232951314013576,-4.076598549133223,1.089085548669118,4.4787280895925505,1.5298607968220495
2.62,-0.9410378232448693,3.4332799717913076,5.768654197606338,-13.073741563172007,-2.845965963466597,1.7677685131470753,6.145113858035302,5.334322381167112
2.624,-0.05080187637713607,4.998131633190724,7.054031089606383,-9.411018903982153,-0.8238636399273673,2.9078973580658385,8.310466243469364,7.091194838660158
2.628,1.6079365917264568,7.479727959539105,8.353928670065216,-3.430249374999903,1.8047146947528745,4.198467374722895,10.451408617865809,6.354928186604411
2.632,3.9689208981180855,10.2218394513377,9.24502753700881,4.152803717213601,4.618282889577586,5.32103849641544,12.007936810592582,3.61116352595036
2.636,6.905620010190887,12.510871105289425,9.351768867506053,12.232585501777976,7.129026303872479,6.1009386238552,12.500918389653862,-0.012016005324312573
2.64,10.248972720791471,13.867199139521063,8.511171722044196,19.564076485499868,8.975950094062455,6.559888662226513,11.67611267043958,-3.2910985851008263
2.644,13.737584295422039,14.186001803562704,6.862695786409859,25.039919615570852,10.027005789215536,6.849447799352674,9.630446385138157,-5.432131627093895
2.648,16.948725209002987,13.673084304306713,4.82024881034738,27.926135722006393,10.34606645423446,7.121231906754929,6.840544938883795,-6.312341837976419
2.652,19.2968761425127,12.632315980457406,2.921680134708595,27.994847729072944,10.060784960790897,7.421436359958534,4.0416202729954875,-6.360785390273577
2.656,20.15859530769626,11.24727021234844,1.621105027360727,25.52824659773637,9.225239722377182,7.668582536848135,1.9775776208368825,-6.185778444536027
2.66,19.097526877623523,9.479967371811426,1.1224913670732803,21.19756534958401,7.771138081787285,7.720783540752109,1.1199500896341306,-6.177379475649559
2.664,16.086890876633106,7.141091906899192,1.3220288181342994,15.848830538046968,5.584869958540821,7.474993749525311,1.485218043582563,-6.316315585147549
2.668,11.597340350610239,4.077241137313649,1.8867092358157151,10.258585509954173,2.6645741258273574,6.942087233916027,2.657393496198438,-6.2626675319138485
2.672,6.46234088457777,0.35441321378380053,2.42596215773483,4.927802309978006,-0.7433860417704636,6.245878095409807,4.020764125608139,-5.640009221251603
2.676,1.5581505039344847,-3.6721505434338724,2.668226630406366,-0.013081476761499289,-4.125636842628182,5.545815176715223,5.0779045619601675,-4.320040142489233
2.68,-2.5457574895362995,-7.441896257025746,2.567811972612162,-4.7399086481905215,-6.822671298150226,4.943689021824412,5.690367729409445,-2.5317054329375424
2.684,-5.770793590479116,-10.373416131920521,2.2944299706946367,-9.525918733604385,-8.236624382722994,4.432177519649031,6.112648225135899,-0.7396419150381917
2.688,-8.431677837213556,-12.048841742622017,2.1223848805250327,-14.463821388318138,-8.0296419499698,3.9369162252519345,6.808003268486345,0.6257911887896626
2.692,-10.899817336585329,-12.313539085921775,2.275012393362431,-19.252428702627185,-6.227811101606221,3.409917936108286,8.145786929681663,1.4065538015956918
2.696,-13.233618205327275,-11.264561111034027,2.801023863861019,-23.16661452604103,-3.1881383588647623,2.9087015408581465,10.152268004569578,1.779888050669797
2.7,-15.007382696075183,-9.165324377045636,3.548842557615899,-25.25536538883148,0.5392492613596005,2.598241145663451,12.44751070898792,2.11408076216685
2.704,-15.452908191592996,-6.343188323607819,4.244295600927671,-24.703218359085668,4.38552880473685,2.657723360881846,14.404043649154119,2.7150950215373086
2.708,-13.868911740304156,-3.1295744979686333,4.634390987005872,-21.203715763006585,7.903267829427023,3.152995356325846,15.436291162586713,3.6295747875974484
2.712,-10.072760117297548,0.15595551538149266,4.626559283376537,-15.16823609590324,10.833898040612667,3.948231648716046,15.276047985085825,4.623547474796396
2.716,-4.629394939797294,3.204923961293389,4.339828608351581,-7.663941826573819,13.09208768193048,4.733602225789127,14.091948655019678,5.340466276776169
2.72,1.293943677299012,5.741812565901,4.041769843225893,-0.08895696031254374,14.700215336551537,5.175856200136423,12.397149314472244,5.542795006673259
2.724,6.379773073625074,7.57480220594789,3.9949234938419522,6.278744097051458,15.719657386032395,5.1081341650419745,10.80886685650512,5.288967944683463
2.728,9.691968097270546,8.647478369228793,4.2925607090603535,10.670987449958602,16.202336324763337,4.651718533794792,9.775678900279217,4.942447269973854
2.732,11.019287159414944,9.055530042478267,4.777341213132331,13.00315663862034,16.17463068466418,4.1848422791085795,9.404489902727164,5.004783461780789
2.736,10.865940407903281,9.003983234671978,5.103295904827064,13.77690129989469,15.656785633542086,4.158153390280404,9.445843716338914,5.864184829932583
2.74,10.105453346505328,8.709797796827502,4.9210259902610005,13.771503632445956,14.696374381809164,4.853490926478571,9.431505090315795,7.593077106635064
2.744,9.521074340724226,8.324247514367357,4.10517567458885,13.687493385290281,13.413785318637338,6.227472590538582,8.914219658147658,9.898124463045406
2.748,9.471677148352,7.910081836728182,2.894719926782159,13.88404228925117,12.023392097434225,7.922367822191518,7.694722623582265,12.225280656859923
2.7520000000000002,9.836587382444122,7.490941387405655,1.8563269443413901,14.302722443656307,10.8162625129562,9.44230400269771,5.9431265479977355,13.961987201379998
2.7560000000000002,10.224548677725352,7.132799091720358,1.6666937200611756,14.571047522293611,10.100700633718134,10.401022875937997,4.159690708700509,14.638416696751392
2.7600000000000002,10.278735306450244,6.980119602842137,2.8031703814589264,14.205693838763295,10.099119689619101,10.687306137118412,2.9818373670309484,14.044555378643963
2.7640000000000002,9.885830228897476,7.2076996873383905,5.279588185808052,12.81235389562471,10.841996718684186,10.451691798824413,2.903989440932037,12.241749599528248
2.7680000000000002,9.177077026566167,7.898994651097382,8.566379442134917,10.212911826841946,12.111425847353757,9.931958207006574,4.034294587020213,9.502508284695068
2.7720000000000002,8.3477408992037,8.916775942600907,11.74351293315624,6.4789838015290115,13.471159326624502,9.23955528684155,6.004442587085805,6.220407657574924
2.7760000000000002,7.438027947782757,9.862969089652324,13.822651726420531,1.890785726340937,14.388555151697346,8.26054017894694,8.085449984593879,2.821641969337179
2.7800000000000002,6.242962532061256,10.186508288584037,14.106660034337324,-3.1225303370911206,14.413061546218387,6.734610173090459,9.482001072027742,-0.31381385687473085
2.7840000000000003,4.435958322038687,9.424672308969548,12.438331433866438,-8.030283876670069,13.352286752149894,4.486090907489142,9.67854892929472,-2.9185407016034333
2.7880000000000003,1.828183884044165,7.450022686568218,9.236222187768021,-12.244954070750282,11.358690177627295,1.6625874881274285,8.662479533090618,-4.89501555059087
2.7920000000000003,-1.3904155241209537,4.593625368032008,5.319969261667097,-15.181141427182183,8.881030922498667,-1.1959007181949346,6.903561984314365,-6.346789794822598
2.7960000000000003,-4.582503386576718,1.5607387282527725,1.6030120145741193,-16.35266638129133,6.487308750285365,-3.3394565782368772,5.0845034365763695,-7.556495621500289
2.8000000000000003,-6.8464271976313285,-0.8542370752943498,-1.2217687849920367,-15.49977797405495,4.627293882976801,-4.169947490310733,3.7219361591428424,-8.88561164095563
2.8040000000000003,-7.389276156651931,-2.12352301796318,-2.8859056812757444,-12.709828936702024,3.4404228556340968,-3.585453315447012,2.8880920493916165,-10.607699019900338
2.8080000000000003,-5.910043941898493,-2.234128545706767,-3.576000015419254,-8.463642120614963,2.6954826381625026,-2.0913220622810513,2.1938836866106612,-12.728126133543356
2.8120000000000003,-2.7922952575468116,-1.695984213694942,-3.797142068957214,-3.556924779046767,1.9088330684519406,-0.5843466110454756,1.0602686093468492,-14.874436523619352
2.816,1.0024873876354832,-1.2937838834286595,-4.132177047089044,1.102539208686494,0.6025493002880467,0.107513201915026,-0.8665047017884717,-16.32843925431507
2.82,4.306684829804453,-1.7035232446767168,-4.992663243204788,4.76383326734458,-1.4206828283194,-0.3080648639725041,-3.4017391103636783,-16.23311547524918
2.824,6.230195924295003,-3.155432014583994,-6.447799611226856,7.065011465582984,-3.9091480823765323,-1.3841223587855893,-5.8112903914750405,-13.92568080340925
2.828,6.528524223427667,-5.318096935873768,-8.192521299019631,8.117282806423987,-6.202973979471267,-2.1399071408559394,-7.1288439415845914,-9.280043929335989
2.832,5.681308064854875,-7.456737480892571,-9.663205851591556,8.39353848104713,-7.480659876111986,-1.5884179344343465,-6.649859402050879,-2.9045318155926907
2.836,4.633675242666641,-8.783969770707586,-10.255437843960749,8.455956515582443,-7.116098561689569,0.6906584055891472,-4.320739473076628,3.934479410660515
2.84,4.32256015025564,-8.82579055632823,-9.555761500076528,8.647720568581121,-4.980055642875527,4.262448298033178,-0.7954709991709024,9.68268653691257
2.844,5.220572896523663,-7.614963218306059,-7.494357236238955,8.901973668614687,-1.526245591693396,8.007729124634693,2.8855953879568688,13.051024482686444
2.848,7.104325109950423,-5.64637875231989,-4.3631730330098435,8.762731930585176,2.3736697654409227,10.663294233722468,5.811788422104996,13.522124146616306
2.852,9.146905510380975,-3.6413779965361073,-0.7095417242969688,7.607575486499286,5.7681758380134625,11.447095618550975,7.603667508142735,11.55851214693348
2.856,10.284310521140014,-2.2522197336311365,2.834620204619114,4.963661657689499,7.970266287911954,10.417990549225578,8.47731125008977,8.395310835985129
2.86,9.677188900401234,-1.8527003580148858,5.7189510423453385,0.7636748458694456,8.747825327800683,8.356248264333999,8.9395509843323,5.477143340438943
2.864,7.065148786114605,-2.4728420296452214,7.587800522731982,-4.573929565302478,8.302663047022406,6.242869154830487,9.318688743666826,3.7967968489006125
2.868,2.8800110015113205,-3.8482336457707333,8.33591587387366,-10.252867104375923,7.09082187753495,4.661287008709451,9.475631917548753,3.471159186728073
2.872,-1.9053235546512042,-5.511918217799348,8.129584794325183,-15.315407141669766,5.6241040724470395,3.493415742401112,8.902433760941676,3.780782583290147
2.876,-6.099106457454809,-6.878730019767886,7.3944965834028835,-18.864039323018915,4.352474501171514,2.1024680296311544,7.166531164774824,3.655068264248257
2.88,-8.648305489787163,-7.325542804015527,6.753744088228586,-20.21493370774442,3.655051759252842,-0.11410415197997281,4.411138383848993,2.343367472783939
2.884,-8.922839145287298,-6.3183673488972545,6.867956900300214,-18.99250130291375,3.8523213567805215,-3.1624215787176126,1.5310031736091787,-0.11171680655525051
2.888,-6.884967967091825,-3.634361719961362,8.154438079337524,-15.21850039415824,5.113084900951776,-6.279144968012133,-0.19724252698802047,-2.8982272374450986
2.892,-3.1326867439684065,0.38532231414171747,10.463970836436033,-9.420967077384603,7.2382521765066485,-8.308280397866838,0.09839567325184362,-4.962634456034266
2.896,1.1774606364242572,4.690712231329599,12.874134094765623,-2.717347465390276,9.432085940645834,-8.438347161944193,2.113910231570344,-5.7491346956708185
2.9,4.552273528473961,7.658085156158677,13.791179328858902,3.260948375271596,10.28259894242808,-6.855627258438744,4.136517700856757,-5.696597721035232
2.904,5.553152959315412,7.586287946223592,11.451357004620832,6.713779664046683,8.128768883753082,-4.868049542452809,3.6264479453343483,-6.141660504320498
2.908,3.275647813823525,3.4075181304209536,4.698242174414759,6.2490920572817,1.7698819446962943,-4.34078289448621,-1.550390345379924,-8.607324720334418
2.912,-2.2327299835897065,-4.68478442499395,-6.281635224927641,1.498297980556572,-8.760366312405154,-6.703834972306822,-11.810835456382847,-13.830672230349137
2.916,-9.810384632442492,-15.02749015136601,-19.654485908378945,-6.527719255765305,-21.778874512979996,-12.070696363959314,-25.189074010155878,-21.07548699679728
2.92,-17.43312684247246,-24.90007625561816,-32.3148644497594,-15.598945044658194,-34.22655714404959,-18.99050252013376,-37.77315228527152,-28.158837011984815
2.924,-22.857017074827354,-31.45632333174524,-40.885748024560655,-22.97156293743552,-42.63771226648032,-25.020051506258596,-45.15881010767919,-32.25973552745222
2.928,-24.433836334555053,-32.79986955349648,-42.96195217707407,-26.39054557270697,-44.449897294164884,-27.84312543014721,-44.28672937837234,-31.147415732506943
2.932,-21.74754430104963,-28.71430386168879,-38.03896384296479,-24.95104697505485,-39.052380239005686,-26.347382662028394,-34.793462016058356,-24.21941394440978
2.936,-15.762660469181355,-20.69955567640784,-27.68673950806715,-19.417555546593576,-28.056156332424848,-21.08867008700986,-19.21832051808144,-12.836237266980106
2.94,-8.397796670025627,-11.295523808182963,-14.871237145428552,-11.84149809008943,-14.630073892639246,-13.916662541879077,-1.9485862829458256,0.21421549014758057
2.944,-1.7065647764527512,-3.0082137979126173,-2.7437520820570285,-4.6557085090482815,-2.202941181356209,-7.005420061541145,12.581170851989896,11.838106957466152
2.948,2.946579223022127,2.6487160244635106,6.527642169765841,0.3237582304274724,6.8436096580372805,-1.8459579476564159,21.57002369898578,19.78310661883961
2.952,5.316298403770361,5.560650822418779,12.349043244900372,2.5163003678068776,11.884679070212144,1.253048515738783,24.64649771828624,23.28427992334605
2.956,6.1354945310365565,6.735382502532559,15.498884091637649,2.572134550816372,13.885506515002817,2.948806839679264,23.485967727501247,22.99006489545104
2.96,6.540829487821043,7.559090703957679,17.332539065228502,1.8308194497874979,14.53705117793379,4.150946406078219,20.584004249957047,20.329743315565565
2.964,7.405636932917446,9.01998273371322,18.882243075472502,1.5782225904529241,15.224352497104121,5.306476779106106,17.898906443269993,16.739865883558423
2.968,8.929691809347219,11.283406932595085,20.342309181134965,2.4873620831311314,16.375358521221415,6.136830355739221,16.065190280764682,13.164474839018794
2.972,10.67221505630755,13.77502311307336,21.15320034954493,4.472864266803356,17.4622839468459,5.945400816180609,14.500029055210007,9.993944997762583
2.976,11.942231838544103,15.638996321712682,20.543932952497187,6.93995474867404,17.537155940644197,4.261976520183907,12.181300236956417,7.327703673558517
2.98,12.262822529669279,16.243120748174874,18.13898968814601,9.200882215157776,15.900848457562745,1.3604401565248736,8.542972011273946,5.268800209206802
2.984,11.634282380489026,15.453409094799724,14.245082132397613,10.80477509919308,12.503323456454382,-1.7153221070684594,3.9405683201606507,4.008614429425052
2.988,10.46509513535193,13.574395344107757,9.675232244087795,11.643845218793786,7.892298429108621,-3.651284336868457,-0.5376675459364151,3.6737157391507935
2.992,9.272181014528428,11.074528540237452,5.272919229838976,11.858996927901444,2.835563519483628,-3.584528670853956,-3.7268659589350364,4.101276301511234
2.996,8.377940689395473,8.317129272447517,1.4678681536158251,11.67722601469302,-2.084135451055147,-1.5926968098922316,-5.047847762323613,4.773888555124586
3.0,7.788396238517748,5.463226526144922,-1.8476001755252014,11.303247210416885,-6.639438684740128,1.3520062355548816,-4.765053867003189,5.021121605303392
3.004,7.294193801667802,2.5650794041281983,-5.064101816383356,10.889947060386362,-10.833931166360117,3.929660775947127,-3.7169868000921156,4.390120923531185
3.008,6.688211888834985,-0.2716253748321833,-8.410838333842264,10.537892501908118,-14.629000719597855,5.191717919894586,-2.7315679757849125,2.952247659894738
