Timestamp,O1,Oz,O2,PO3,PO4,TP7,TP8,Fz
0.0,3.0127011996228248e-12,2.5011104298755527e-12,-3.126388037344441e-13,2.1600499167107046e-12,-7.389644451905042e-13,-2.2737367544323206e-12,-3.524291969370097e-12,8.86757334228605e-12
0.004,5.047027299462286,15.36714078094252,-17.003372069775764,-10.293440646108763,3.754092257966704,3.7582374118082953,-4.9526639121095855,1.717262926193598
0.008,8.993777755538304,26.825506726505296,-28.928508231526763,-18.226311924559667,7.039122223230152,7.014015118626389,-7.802369936815751,2.7515346878032005
0.012,11.12258336828819,32.07483187269622,-32.94554940043349,-22.481161164799204,9.576386380872918,9.379175361862394,-7.488050813965231,2.794580875636825
0.016,11.332185004415464,31.264508976552236,-29.577617325879032,-23.28498042471378,11.359912963101806,10.654883502868302,-4.482157817603309,2.080453524018594
0.02,10.129916135256394,26.6761379841073,-22.132954393062448,-22.118013913767413,12.577519866966497,10.854948184799355,-0.46567220224534367,1.2624008296151032
0.024,8.402502857574802,21.47546546654931,-14.85858526079494,-20.820640843709782,13.431024919213371,10.18554030563962,2.6032184217302756,1.0632918706400005
0.028,7.060687399913093,18.198542370735424,-10.874665133630913,-20.611757635827303,13.96241683041302,8.994887703277186,3.4904118430920335,1.8778959487116254
0.032,6.705894615664306,17.749548706210646,-11.002733286431749,-21.552238341495865,14.0063082776839,7.713057672137211,2.205440803312513,3.5607800745329996
0.036000000000000004,7.453518778507032,19.357331370642328,-13.984401335375594,-22.70172963712136,13.311285438873398,6.785120560613109,-0.1946936755501838,5.520187961595184
0.04,8.973635887660748,21.36977103295584,-17.715087445258035,-22.796009262757565,11.76072215051073,6.588902201115843,-2.3183248531819345,7.073597486935796
0.044,10.710336772053495,22.343041749171192,-20.621785601565193,-21.014868838687306,9.553601498591917,7.324345413395349,-3.2179404196830887,7.860779202754202
0.048,12.16073617685737,21.798674275472308,-22.36113724126011,-17.404006097497927,7.2133517271131495,8.91494985948043,-2.7891193253803976,8.074331831415861
0.052000000000000005,13.104525348834954,20.318501846907907,-23.579747556671236,-12.770374864174187,5.395642889993724,10.99184963568041,-1.6343537606983887,8.371376341359792
0.056,13.683958785967832,19.042370717339054,-25.10852055063836,-8.200331255408571,4.5815623339800595,12.999719687001516,-0.5704427062755144,9.504492195695093
0.06,14.303121507362903,18.926917284874065,-27.22461811714055,-4.521187965729524,4.817771672853155,14.406878301213169,-0.11214819472496629,11.880582016525977
0.064,15.41000779080997,20.213002731488245,-29.45615187080361,-1.999652676387484,5.681576209336555,14.933637117380044,-0.24020132338381472,15.308427898585819
0.068,17.254876305499465,22.35571956615769,-30.967764378798336,-0.3856469577844166,6.514804344705595,14.683566979093541,-0.5298286131795749,19.096150034269044
0.07200000000000001,19.739926359053698,24.394633898669866,-31.189785101838964,0.7865842739867333,6.8129317536101155,14.09441034764734,-0.4981294686999149,22.443906521586314
0.076,22.440605778780423,25.514171863602797,-30.21513870660931,1.8656634001691543,6.564735243245565,13.724518956258294,0.09329831908706865,24.9063064432454
0.08,24.77253375856577,25.44443225324099,-28.685990970261827,2.911897087066393,6.3308101068971325,13.969377303631973,1.170385698928328,26.637910049307038
0.084,26.221117133039968,24.50315750326311,-27.286800772531933,3.737319105001376,6.987171624042276,14.849780849727324,2.498159477087711,28.251194230305828
0.088,26.530906096976594,23.311900724827552,-26.21886640645542,4.088133036060867,9.261512212196948,15.998539096865215,3.9051886935441757,30.373625563587666
0.092,25.78983895453632,22.419942608189587,-25.05816731418514,3.827845305173497,13.309923787282855,16.868615493175298,5.402170188040003,33.17861131755649
0.096,24.369518200448226,22.06660691716607,-23.10902777875168,3.0086657375356083,18.562638193320424,17.047576984989973,7.103290033810026,36.18736006944209
0.1,22.761560344840916,22.175584919995032,-19.960375073526293,1.841803343681903,23.93598078931194,16.504800160987827,9.042827125859162,38.491849682917575
0.10400000000000001,21.391379708418896,22.52321627007052,-15.848900219359692,0.6214588620550501,28.30173938359721,15.622374732414642,11.039802619863366,39.27451554332748
0.108,20.476105578532867,22.910319436429404,-11.586264699178244,-0.3522355887094193,30.943860634396913,14.974672527525343,12.709658656101453,38.302317779731084
0.112,19.977046462970037,23.229059931340288,-8.136177881223176,-0.8529309950449857,31.76284852658395,14.97678346871885,13.603535927879676,36.089707699163114
0.116,19.667202223140066,23.42355141738659,-6.14788465074146,-0.812853910958836,31.15441009671642,15.618181714987884,13.38518603899945,33.63284829416733
0.12,19.25527921616802,23.38466946379262,-5.727051758499542,-0.3935204142593136,29.65976171337462,16.429125194663413,11.935210055620104,31.860647529414223
0.124,18.508907438053228,22.884721321575512,-6.537165730097655,0.013993576235094451,27.625838619447876,16.71105788656365,9.34216215729009,31.14830063406481
0.128,17.336740557777603,21.625688267934294,-8.097008111556534,-0.08578198390378589,25.07848821218809,15.916362445447362,5.83623474142712,31.18847871865529
0.132,15.81467230004597,19.40859961087125,-10.064924851164704,-1.066716884172422,21.861677058746494,13.970771869845407,1.7238334328229428,31.298721690321884
0.136,14.154059231292763,16.325811542164246,-12.346128823600338,-2.9658142353497396,17.908154034608287,11.358994752802971,-2.6327103558028284,30.94829029978189
0.14,12.62588332055833,12.826468945627198,-14.985918635770759,-5.399834157664884,13.426683853026589,8.909450665444297,-6.790726076432918,30.15272993886606
0.14400000000000002,11.476343360071155,9.582710172734522,-17.975458218975547,-7.693443427117131,8.860322178536023,7.387328358379534,-10.246395329658412,29.470066724737762
0.148,10.850324191268271,7.187516639822206,-21.137485901109557,-9.192143575467469,4.636734158972331,7.1123376058690155,-12.545970711279608,29.59502239445044
0.152,10.74205654180895,5.852754226371701,-24.200079286857743,-9.618184843095236,0.8974557591934627,7.815530433881406,-13.457904250298157,30.83985438676882
0.156,10.995635119586325,5.299002792573958,-26.983770834444556,-9.259594414430524,-2.571275278601206,8.819950419725501,-13.111607109463876,32.85257462460527
0.16,11.35063951595373,4.9028775745209145,-29.502308096337373,-8.845421865568056,-6.121650117782508,9.441414152170296,-11.975765295422832,34.78106069436387
0.164,11.52337050866305,4.0365530894579535,-31.86750037556459,-9.146388009212956,-9.856510643378556,9.367731366866565,-10.65709419926867,35.777605060974906
0.168,11.290651555527973,2.428331401930791,-34.03878926687932,-10.508250297800458,-13.320902396868235,8.808907943483632,-9.602381076444885,35.52443423614136
0.17200000000000001,10.560315317086065,0.36467585097528854,-35.63826310862197,-12.605663524969628,-15.51540012903817,8.332305596164929,-8.888340669810589,34.421939600004634
0.176,9.41333702206947,-1.3757404281052175,-36.019305479481886,-14.578268468672945,-15.290591455664753,8.476245981998431,-8.240504081065751,33.29686647111896
0.18,8.10531561044013,-1.8528245513154502,-34.56361782195083,-15.468567432069818,-11.937248816669864,9.373740328642157,-7.264150942205504,32.82148310887317
0.184,7.017664154288354,-0.4073281189395743,-31.03476744894175,-14.715162420390527,-5.648375108664254,10.608003066405104,-5.744801705778059,33.03204697874253
0.188,6.563476333475705,2.997102664208853,-25.767922201668426,-12.426056731888934,2.4147770333045173,11.398846862802884,-3.819292156710617,33.27372709852261
0.192,7.067800220627134,7.7229742361796525,-19.596936403805046,-9.293014325466117,10.519764064110063,11.032594258700101,-1.9152412947224207,32.64646002504617
0.196,8.651286220252928,12.734085014337097,-13.571460203130243,-6.213503151742827,17.02789173016373,9.298884016603438,-0.5141085232850173,30.677609543792187
0.2,11.143704629873355,17.02512946794957,-8.601539147075357,-3.8470898293721802,20.97352384447879,6.670556301101556,0.12078962307958818,27.76320422149456
0.20400000000000001,14.077155783902413,19.97590562442565,-5.207019939947884,-2.3528257514179245,22.273688402249945,4.111649174418858,0.07220473335189581,25.055948350225435
0.20800000000000002,16.788221027308055,21.46750295924835,-3.4691156441645035,-1.4301021081121803,21.509757199297837,2.6079138443574266,-0.3319696315817282,23.823899557152572
0.212,18.612713947854445,21.75784943116321,-3.1832414667030093,-0.6117545461528948,19.455793652377565,2.6780541443284847,-0.7700452528669075,24.656598385719008
0.216,19.10885265730269,21.23450455722076,-4.092512906481829,0.38462648343386263,16.65777734996891,4.139615419797792,-1.166495175488194,27.020653016974165
0.22,18.207536833821337,20.181450475943336,-6.026638127145361,1.4685540124999648,13.286090849610844,6.2498269855233275,-1.7373468625540909,29.46877462802263
0.224,16.21761153434477,18.680792326208575,-8.881085545564474,2.2519165178750313,9.29178190960323,8.127912708313033,-2.801125643937212,30.433404195280218
0.228,13.665848997883359,16.662068468386508,-12.513235612473864,2.3007687001503996,4.686666371877436,9.204756873696397,-4.478437061126101,29.147928968168344
0.232,11.048660668193293,14.041224677042237,-16.678671841161417,1.3902889421960367,-0.2738827950636278,9.456020578413245,-6.4872290018684,26.152411588381028
0.23600000000000002,8.632900344980044,10.849827610392708,-21.050457261160318,-0.3734945438759496,-5.1359868090511895,9.298066560104417,-8.180943337282315,23.072358446279395
0.24,6.411928033393792,7.281926743140502,-25.30139141103649,-2.6174502821058354,-9.47265375910689,9.23424274423337,-8.836793866600715,21.763026644436422
0.244,4.247287433285919,3.678608686852158,-29.18857261456526,-4.88820299780383,-13.091194163753869,9.49913066980389,-8.034609173553918,23.30033598720138
0.248,2.094431829392988,0.4633421727129985,-32.53346232826061,-6.827880499798596,-16.046748745829746,9.923681045916737,-5.894274917049529,27.383553644054928
0.252,0.16291817083777005,-1.9375782719134804,-35.084422443726396,-8.233158098262834,-18.41952532880174,10.0954186792585,-3.0272121102734673,32.47998459734572
0.256,-1.1010933285103874,-3.1634193072221706,-36.3878596608335,-9.011366547345347,-20.01067606485492,9.70082951328277,-0.2210828874458457,36.62020304250041
0.26,-1.2118392633732356,-2.9680100206985003,-35.82164556673325,-9.109199407106075,-20.193166183257688,8.817335633136736,1.9505549565020601,38.40230469250514
0.264,0.08174447586475253,-1.2607644700472065,-32.85531843329352,-8.50339860830428,-18.084731814252507,7.943756610963874,3.35982203261176,37.64648100872819
0.268,2.616499930416694,1.846414803928326,-27.397909127261926,-7.247918651614327,-13.01090367396489,7.729279231337841,4.2840508421058985,35.37187505678344
0.272,5.850939929126071,6.008027354424939,-20.017776405964696,-5.517485304884531,-5.022063180233772,8.555855547017018,5.14537201928681,33.157944728611255
0.276,9.10359609777879,10.680807846275798,-11.889005536366085,-3.591243218340594,4.847885006090223,10.23706087177311,6.191488285263631,32.26725397246332
0.28,11.848523093769927,15.24131071063573,-4.469310824167678,-1.7743745106458846,14.767944476605976,12.032166363316946,7.302534542620833,33.0262726239946
0.28400000000000003,13.896809656570213,19.15593801364423,0.9617778424715198,-0.30769052990012824,22.712109773696852,12.9942478145108,8.03767423525278,34.77407016267284
0.28800000000000003,15.356359492673732,22.094346859565917,3.7147519025255633,0.677025585980914,27.19212665503062,12.461907049950923,7.897697984064052,36.352895074428034
0.292,16.412328982607733,23.925462232332734,3.882203809062787,1.1236686000264058,27.76941184505779,10.409011599220548,6.642373916369024,36.82161979620582
0.296,17.08161331182521,24.61473475648245,2.208434401204329,0.9529025232998265,25.09885404992326,7.453428781373987,4.464940807992207,35.97143730004154
0.3,17.118253261144446,24.116699965730163,-0.3106422013543124,-0.025553491361051783,20.505888217642905,4.5237450477357015,1.916379858738992,34.38806123154313
0.304,16.159778016242626,22.37083531706321,-2.895034864029924,-2.090786982497548,15.34615044836869,2.386052532397798,-0.3704529944002388,33.073190654336486
0.308,14.02522625671827,19.407960612376314,-5.2614106868803105,-5.433446206993267,10.48667664233335,1.3037408448853967,-1.9779802027278492,32.880288150041906
0.312,10.971683812722972,15.498755767977968,-7.579212613772597,-9.89523791307056,6.157592113559872,1.0096494220904333,-2.8457550626603734,34.08551191604056
0.316,7.733226023896577,11.239245130116842,-10.16896007113337,-14.789927048902314,2.1953180719921193,0.987070866182421,-3.1758015996607583,36.307614975691195
0.32,5.286185561171806,7.4792610427134605,-13.15974716590614,-18.96474215997398,-1.5347820794686413,0.8787762596823541,-3.193878461798363,38.78208969092293
0.324,4.439369819247986,5.081450473479549,-16.327604781793298,-21.153099639390348,-4.833690293146105,0.7598969093785399,-2.934562190480392,40.803749872185335
0.328,5.460506767783045,4.580133503420257,-19.191095987762537,-20.476755038247234,-7.196187526968174,1.1030950748113355,-2.2046451997250642,42.07734909466717
0.332,7.9337044793624045,5.89620446080562,-21.28501564250439,-16.855253077145562,-8.150500560571913,2.458070086724092,-0.753688008307563,42.803877914753684
0.336,10.92348084814762,8.27935747290519,-22.442851528885058,-11.10726790643514,-7.669938936072413,5.048473758753289,1.4482673550824074,43.50804404384962
0.34,13.370169324637118,10.55341944452266,-22.927673964905352,-4.6732654767941995,-6.36765821315953,8.545195241140846,4.018742312545328,44.744489213887846
0.34400000000000003,14.529878583977279,11.602820565682464,-23.318578612659735,0.9285390721544218,-5.281916236960683,12.168631566552449,6.211249764307695,46.85737123620402
0.34800000000000003,14.248805324795967,10.862426193933175,-24.176078314571384,4.668717392478925,-5.331353762733045,15.064980102748223,7.222092864621004,49.88482646471539
0.352,12.938720020151322,8.545432721094585,-25.65908121469846,6.317370414370544,-6.7540574295089755,16.725554564621007,6.609613846116531,53.58882571221875
0.356,11.297101594420383,5.497465941843416,-27.335773825611227,6.351738912465294,-8.875831756662933,17.20260673973371,4.572356779038728,57.53217281572233
0.36,9.918672749408188,2.7472363774343194,-28.344175932532607,5.525948533297878,-10.393725187768723,16.996496455860097,1.8894371808039523,61.140771594132275
0.364,8.997248988187266,0.994645588078356,-27.853548615587897,4.353374727519622,-10.057136522969017,16.69362052094425,-0.47950756453610666,63.764058786860915
0.368,8.259168094657753,0.2905733692027752,-25.56114844367164,2.8105528916286175,-7.3781964738836905,16.588281650065028,-1.9052720800377756,64.7958621615453
0.372,7.161698562808397,0.08216598966566835,-21.90881587774379,0.4418294122710904,-2.9474121755979468,16.533979228943508,-2.3866638774254625,63.89803741827518
0.376,5.250844321827344,-0.3931431907391243,-17.879587195106183,-3.2066438537402746,1.852121027590215,16.115310324313214,-2.4476549850196534,61.26348323315324
0.38,2.4954360681433627,-1.5771876065994093,-14.479682885750321,-8.09403452093477,5.588591675359453,15.03838821670297,-2.683591480900759,57.76406192740933
0.384,-0.584132215613181,-3.227883965181377,-12.213561364460702,-13.464358831152595,7.546256746947165,13.473510963294757,-3.243190113430046,54.79727249765301
0.388,-3.0949001318483624,-4.484389486301211,-10.860193787497792,-18.074399597915544,8.033563363705298,12.080713730717662,-3.62390627973582,53.77147577866208
0.392,-4.2148074600449945,-4.381860281375111,-9.700158443824648,-20.788181525106324,8.023491627282624,11.651994167568773,-2.9785415518424543,55.39357526363392
0.396,-3.6826458474565698,-2.541227328400737,-8.095869419735095,-21.221686076782817,8.32471069346991,12.54987884663069,-0.8071338195190947,59.09584541085587
0.4,-2.067188953368486,0.3812736655918343,-6.0942428046842,-20.05643681976278,8.805821244112735,14.292101566285965,2.3767181928742502,62.980285403441485
0.404,-0.6278484457559443,2.8111365406600726,-4.664925027673462,-18.79968467249887,8.211505575426372,15.58531960674054,4.886888577287891,64.44494889539783
0.40800000000000003,-0.7651325837218792,2.9490486919847854,-5.330403396670249,-19.035401379338055,4.782703578042174,14.876321118050555,4.4639637954901445,61.30463617570604
0.41200000000000003,-3.2915976604440402,-0.28354016601349485,-9.311098794972168,-21.52523938003526,-2.6082238503978488,11.178858235091866,-0.5606492121823976,52.90780769097046
0.41600000000000004,-7.8989973518603165,-6.5416332874004866,-16.648943581065737,-25.655510124411762,-13.456467112053474,4.7381684272463644,-10.138140267863719,40.67599813374818
0.42,-13.128258117509176,-14.013157917904095,-25.843805393937828,-29.57135508364206,-25.40389113239746,-2.843477150853232,-22.074888760613476,27.72254948532236
0.424,-16.915460851791522,-20.109169656856807,-34.28886497944575,-30.981202934512226,-35.027284298404766,-9.138556351980696,-32.66728467052417,17.660290803126372
0.428,-17.50325942215818,-22.600778293952658,-39.33599957253432,-28.253195046609562,-39.307392545007815,-11.871807382163297,-38.19410992673306,13.136045902240312
0.432,-14.281294879213874,-20.655438165757914,-39.46035626272237,-21.254952896676286,-37.0358927089535,-9.890211796401672,-36.56748876749907,14.76836191431812
0.436,-8.115143983055077,-15.214468694778475,-34.91189884169921,-11.492276795732323,-29.385942061551077,-3.6436372210382615,-28.293564782943577,21.00720797553913
0.44,-0.9947395780141051,-8.515169622179428,-27.541699029570054,-1.490742030725869,-19.335554808297047,5.042183207595372,-16.244623956185933,28.9516958698091
0.444,4.835180482104306,-2.999685445714931,-19.9175778396675,6.255387562089254,-10.246520726495987,13.765077745810686,-4.351959669604867,35.67403361469678
0.448,7.836023910871063,-0.18245445254001424,-14.167981730886709,10.259996257470902,-4.341338633379792,20.519020620274205,4.121183838954494,39.386978554915004
0.452,7.739358025751244,-0.07636465326800135,-11.144787919757846,10.477375663840803,-1.8798007152969376,24.367309900845612,7.863056343486733,39.899041938377195
0.456,5.46177323842403,-1.4370055903286811,-10.306215017211002,8.029990138521498,-1.423489644305505,25.534277897658285,7.743136262083908,38.226710689166794
0.46,2.470171605491714,-2.624025224922093,-10.307049199298831,4.447621415612957,-0.9604835596110206,24.957654205306426,5.9554771960063135,35.68196443522811
0.464,-0.01480169832620959,-2.5533910053245563,-9.908606341767268,0.8669546242850856,0.8002549538483663,23.615501341088475,4.627903630080937,33.008049640758145
0.468,-1.5386309329257983,-1.2227832554488032,-8.656658458908964,-2.3734308402604256,3.699229623233805,22.009496789053628,4.703863882672067,30.040600498021377
0.47200000000000003,-2.416202575285297,0.4293910221973647,-6.973241998159324,-5.587432764775144,6.321978763525749,20.04608650869659,5.66711289209411,26.00646975773907
0.47600000000000003,-3.302131590510953,1.1838055996033745,-5.710797681646568,-9.22376670796325,6.931272094601582,17.309970596692892,6.151218320168027,20.20200863622358
0.48,-4.643811669359593,0.28867199166609225,-5.525823987768376,-13.348889488959799,4.539405898370433,13.51573027282575,4.962988367536582,12.594121356568849
0.484,-6.365990550429615,-2.1322861109543965,-6.496993017819364,-17.465028208970807,-0.5036207436224913,8.845221911573844,1.870616982594811,3.972861667242796
0.488,-7.956866125155102,-5.222236599109351,-8.179328103925627,-20.741804090664914,-6.7003887004318585,3.977063630218254,-2.279211990689646,-4.407903988553244
0.492,-8.854971141404349,-7.9402423007094285,-9.98474771087092,-22.47747815377761,-12.198177575795626,-0.1894254317803643,-6.125325676128796,-11.450680211224608
0.496,-8.847126532576567,-9.627800007171459,-11.586276173450301,-22.475170205397944,-15.678802527914513,-2.941087465583223,-8.624306272509557,-16.700319366486838
0.5,-8.19544446673467,-10.239992492236297,-13.06128990416346,-21.096177615354804,-16.844867005756782,-4.0479905439933646,-9.604591786309584,-20.41003277631171
0.504,-7.4235899483899175,-10.138656795747806,-14.704389058615106,-18.98330919136697,-16.29243031155977,-3.791163904669702,-9.731137869804115,-23.18861002689073
0.508,-6.92364825016125,-9.661298717873251,-16.657179721736725,-16.649153250243216,-14.948023246612024,-2.7389201313847025,-9.950780121156413,-25.480503055147892
0.512,-6.677942560114161,-8.820136609213023,-18.644199478647693,-14.217507757725343,-13.483403876337206,-1.4322922977655708,-10.80428346277472,-27.23226645523755
0.516,-6.296179221851617,-7.352587271226412,-20.03898515823414,-11.49028935332285,-12.059937857642467,-0.15746792199502124,-12.063815944367434,-27.951474115544897
0.52,-5.338598310253019,-5.068876362777814,-20.236423819858032,-8.271523534619746,-10.485956230829856,1.087341058996799,-12.910326965105241,-27.096437157503715
0.524,-3.6999470555938387,-2.2031180390736154,-19.094784585171737,-4.716019950914756,-8.590931359669867,2.4418923492542035,-12.502213032891405,-24.535174092456145
0.528,-1.7883624260887245,0.5187685466586345,-17.119731716262095,-1.4334310209599153,-6.498937003511742,3.9700563317508113,-10.55548896942787,-20.760695619862418
0.532,-0.3509102507834996,2.20249254365649,-15.20917967206367,0.7660220624590011,-4.584697655309924,5.531779540970774,-7.548744827717201,-16.714613959759845
0.536,-0.030207796807417253,2.339185590587931,-14.094723713659846,1.3397450231740322,-3.1511447705100863,6.823641154290499,-4.432796977166618,-13.3213958992892
0.54,-0.9264845300419893,1.233915422614814,-13.832178387227145,0.40125083613145307,-2.083073362475261,7.55643477635499,-2.0402501746559665,-11.014957242646233
0.544,-2.458823944539972,-0.001870629256814027,-13.694264495269067,-1.2509278100463916,-0.758904763648161,7.651256956770112,-0.5838783433248409,-9.549334420714331
0.548,-3.6313291765234226,0.03165100642274865,-12.56034942996746,-2.5080571873432973,1.6608842978463372,7.32389546481113,0.44431251425862683,-8.217618111958473
0.552,-3.577125282050474,2.242251494966922,-9.597551466689424,-2.5359457623537764,5.698108613821432,6.977912386252228,1.90855972177269,-6.368422591264334
0.556,-2.059376777932357,6.468158304935628,-4.835515933499664,-1.228304234289908,11.102858887320963,6.962867320845589,4.415918040480619,-3.8994582928139607
0.56,0.3815192070262583,11.472366349076765,0.7137717013446263,0.7511180132371464,16.782970721048287,7.344395247210969,7.8457109230814694,-1.4276684907363233
0.5640000000000001,2.7181705727209646,15.551712072551595,5.475622526107827,2.3595460187665367,21.19977291886289,7.827398045724067,11.304346314813756,-0.030647810734535597
0.5680000000000001,3.998565083503763,17.425506926086882,8.070993543581835,2.7851709708954786,23.049987450196113,7.892728503233911,13.541536001416489,-0.6847906936864092
0.5720000000000001,3.8553330888355504,16.892544591194905,8.007157974931033,1.9252111068844897,21.88190067126186,7.089313166949978,13.601751238419183,-3.7096103027774916
0.5760000000000001,2.6774155195014373,14.885247707543158,5.9178719007138625,0.453185202052623,18.323941623576957,5.320503182945458,11.337800794352916,-8.53428859448286
0.58,1.359136812945735,12.895497353090377,3.217684573318138,-0.5601689935988361,13.807293965945746,2.962391373032915,7.501984999257729,-13.907836378572483
0.584,0.7912831580501916,12.127648992238505,1.3519897665090639,-0.2518671084520747,9.933666780884096,0.7316018397218613,3.3817748558199128,-18.45459963289227
0.588,1.4040152371476324,12.873371963444129,1.0791542042563833,1.5724119744378413,7.8177585731576755,-0.6453026523022345,0.20033811224368492,-21.268856997661942
0.592,3.000726575302224,14.444913950632213,2.1637847973803446,4.378304988283844,7.705330470631907,-0.7944478725924,-1.3970313379568324,-22.25104743494876
0.596,4.93603779071077,15.672437887592764,3.599774871786451,7.247198224451608,9.013662150089885,0.10856787270222412,-1.509451845270405,-22.014734510420567
0.6,6.494821644854824,15.64293513305472,4.200406019438333,9.39662314199495,10.718652235322566,1.4283908159493421,-0.7673199726662006,-21.441075240107466
0.604,7.22445870475201,14.231375468344709,3.196883386641332,10.545946756467401,11.8524125661354,2.39838061469095,0.09730705846823184,-21.16001840570175
0.608,7.034394176401747,12.100065932057078,0.5444958770495418,10.922452030443196,11.859615994483647,2.5055486599944743,0.6337035012792285,-21.2425825815626
0.612,6.05487135166868,10.195355564918941,-3.160747551710358,10.947432633024164,10.696669495450578,1.7251941324502695,0.8186977302183323,-21.2474550699078
0.616,4.40974513537094,9.09058765966131,-7.039462397002183,10.829412579837538,8.70357049486529,0.4783191760407135,0.9206453367878566,-20.574921191661588
0.62,2.0960192988279687,8.599518366060352,-10.329237982134828,10.340788161995306,6.376448653469424,-0.6539307472203291,1.2143238362309603,-18.905209907712106
0.624,-0.9246493793282298,7.926077417318538,-12.620736804285627,8.936971311182162,4.192807928169259,-1.2824660270589447,1.7350554619411014,-16.45796012491337
0.628,-4.502962111214856,6.240955839305343,-13.841399855074314,6.1506996943599574,2.5437819355940974,-1.4274861531305305,2.238312335844398,-13.91993441721229
0.632,-8.13449669095587,3.3140222601048777,-14.076994680077917,2.011592938680792,1.7378040714119152,-1.4794155338904602,2.374530676253812,-12.101167558209
0.636,-11.01333931648935,-0.20639118165388481,-13.406759508388404,-2.7868106805344155,1.9969122269275772,-1.9374121185639979,1.9471399172861084,-11.526478845625661
0.64,-12.318116706041792,-3.0470848932783383,-11.87189807895868,-7.09194272417318,3.405285995459735,-3.079590828468099,1.0880677900629507,-12.176051058584335
0.644,-11.602647247892605,-3.958312915765589,-9.58876197750942,-9.780979964570122,5.829102355539931,-4.767341094171343,0.22984494348690987,-13.509090327652757
0.648,-9.067146592650374,-2.4024727591939268,-6.882579869747133,-10.265959507645846,8.873648144575498,-6.497412472173892,-0.119346714986591,-14.742866600822026
0.652,-5.517887925989271,1.1165500076698436,-4.290734911139339,-8.726293924362267,11.954072154928838,-7.657937417245876,0.3428413403707964,-15.215794424754904
0.656,-2.0087317983931143,5.280999186732231,-2.388475974791504,-5.952207988795919,14.483454029378834,-7.835867177312821,1.5443455913409707,-14.64896258455019
0.66,0.6481379832900984,8.60921786846717,-1.520540094215562,-2.8967917967589756,16.096513347473888,-6.996703101827279,3.073190025576764,-13.18383684851824
0.664,2.238679215538241,10.17016563852394,-1.6159356604920276,-0.20583046916033254,16.784206265628825,-5.445598329495851,4.388289580030687,-11.229914542471988
0.668,3.1712757089854904,9.96802514825174,-2.2101149610400057,2.016147865805806,16.84341347334339,-3.6245203079472503,5.088355776948447,-9.236641274548901
0.672,4.165968780408093,8.807565924080336,-2.6752048501832633,4.103378819422346,16.655712585155413,-1.8856400060494707,5.082061773529858,-7.52480738442523
0.676,5.78029965797225,7.74724240023329,-2.543902591742608,6.473721118565891,16.417288661377768,-0.3738160884631725,4.576585967441247,-6.246332926657715
0.68,8.046610047241302,7.474027252102815,-1.751751289862284,9.257913213190875,15.984171263691621,0.94048586793906,3.9026160554695934,-5.429327173911815
0.684,10.413091146074294,7.951002267289141,-0.684686837355116,12.120101857160932,14.93042161024897,2.1215924958921732,3.287154079115794,-5.053899536229665
0.6880000000000001,12.019699312662055,8.505878405233886,0.013693518513036906,14.38251978462688,12.813370208896572,3.1501574969203148,2.718121541724031,-5.0830682763446475
0.6920000000000001,12.169578250020095,8.289980855326235,-0.2044196488822081,15.396397728718057,9.518719380721166,3.926980120593498,2.002820494833486,-5.414306487927661
0.6960000000000001,10.72533211527275,6.8256957469589,-1.4724243046713354,14.935382448274083,5.483608628200614,4.382036390055305,0.97185861697767,-5.822546070844737
0.7000000000000001,8.226887601785279,4.338821623681838,-3.3889003673984917,13.3877714465155,1.6513043333474684,4.603284455769085,-0.29395627466760743,-5.952846044069702
0.704,5.689440976342212,1.7172205569721086,-5.155118549212318,11.633365687472065,-0.8406595775520032,4.872834861903243,-1.3682632188978232,-5.401476432145046
0.708,4.174482339227893,0.11123067413643639,-5.899302604591924,10.663984060424468,-1.10458089975333,5.5511852311227585,-1.611285620807621,-3.8664743691940657
0.712,4.338100552683159,0.37814409461759624,-5.027753636811951,11.133077171881496,1.1220946834940833,6.858845290367071,-0.4675770863395883,-1.3034473759814773
0.716,6.171556861477143,2.6545425594899825,-2.4512463650238487,13.059192707354782,5.344703808841928,8.685677474088834,2.2176286182320837,1.9987170003953452
0.72,9.03090491449018,6.253732250773396,1.3923309887996425,15.828195171792686,10.487241107340822,10.560403878612874,6.037881398529748,5.471093607173998
0.724,11.921368160324732,9.937707044843876,5.697473412771501,18.475570973342656,15.285265186484594,11.833006868058646,10.127117348085108,8.436393062333082
0.728,13.897867946259566,12.422345611863932,9.560270950558618,20.1141816104128,18.7191522057052,11.984493315843906,13.498042635165461,10.346975099671681
0.732,14.408779581603198,12.883356984841782,12.258710141628228,20.308668341859573,20.30627335681612,10.898395709513693,15.45430407020342,10.99700386269592
0.736,13.459898265299216,11.261506632205169,13.452134071445926,19.231257532577786,20.164058698476822,8.944962829700103,15.878662640852554,10.62178306098076
0.74,11.548919886324938,8.242415089792189,13.236230753023676,17.535686496336155,18.850605369969344,6.818525597828739,15.236932266902159,9.82513843990182
0.744,9.425925609384876,4.950365986945485,12.051676175291846,16.023415163780214,17.0916982346464,5.208099833526262,14.29496810537188,9.343070438860877
0.748,7.79164793996938,2.4961053699664717,10.507850849819135,15.276538128677998,15.514975907234714,4.47895959024936,13.70645587287379,9.716937525560525
0.752,7.048532050062022,1.5603062705191064,9.193337923362435,15.432334331376296,14.47322523612803,4.528695068537786,13.69003020845912,11.003779774198051
0.756,7.195288875458004,2.1859742880093336,8.532339924861532,16.186092327390043,13.99415095931198,4.894909827527954,13.973742006993746,12.677369853271557
0.76,7.885128580915534,3.8395918238757076,8.717208709256369,16.992369616907638,13.834320233687208,5.04687424656413,14.029649783897582,13.808568656455918
0.764,8.602766449616013,5.69484383199881,9.696715585564334,17.336560995148204,13.597510532375509,4.698314998730666,13.445860870612933,13.486833604769004
0.768,8.888986960177476,6.997400218431665,11.215818917278796,16.95100346427222,12.883573489882792,3.976365098696647,12.213654886287259,11.331130107708873
0.772,8.52088107627452,7.347529702656004,12.89735284613792,15.89495770021864,11.441337316489637,3.3480762301982168,10.770504573655273,7.835391321287375
0.776,7.579884866046314,6.787145857042674,14.337836245385631,14.488088652436147,9.289053932037916,3.3422144329845196,9.756212061057624,4.308961101832551
0.78,6.375685263920275,5.673012246167218,15.20351527177047,13.155971868639426,6.756121154359221,4.229667254605829,9.631966848819445,2.3761091653259427
0.784,5.276528441989001,4.435946850664152,15.299492251328132,12.268460147081612,4.409676518416404,5.833656186341386,10.381723517573164,3.2098312795465063
0.788,4.5278879327011055,3.3555383023094123,14.612303383433442,12.03453146114694,2.869417802074338,7.5636461552829815,11.486252619415325,6.8679483763723965
0.792,4.1385760644485,2.4596465816564432,13.319203347801817,12.462091615240354,2.5697180419292636,8.663837623596464,12.196675344731887,12.086668658832991
0.796,3.8814433632476266,1.577429013707217,11.745519450410399,13.357288039398156,3.5636946115166097,8.550708977047293,11.950980780965551,16.691546171910773
0.8,3.4178846131503064,0.5073985431235428,10.284633376967065,14.360375148389465,5.479127977368535,7.077165393253495,10.70176171824346,18.510432455192245
0.804,2.4960386687465075,-0.7887154164409367,9.290929023684413,15.02278410398418,7.677389555494983,4.59831029973941,8.957080339239042,16.370028606475785
0.808,1.1336945487791468,-2.0802741291753364,8.992865185960142,14.94842364791765,9.555706228643146,1.8259253849536208,7.504007446264438,10.689483396494893
0.812,-0.3237432422864117,-2.9206264718886814,9.461836985547166,13.971813282689993,10.837827489238805,-0.4625209427475738,6.976063855632447,3.356148950780266
0.8160000000000001,-1.3033346297768276,-2.828644906491945,10.63334636289514,12.30158425427507,11.695964402331981,-1.723580134206486,7.517106452920643,-3.084614089651609
0.8200000000000001,-1.238985517568949,-1.5196504281132661,12.356504242103455,10.530771455438384,12.617015579740098,-1.8333026980831164,8.729816478709665,-6.540027840140169
0.8240000000000001,0.15883360291741155,0.9335409371414869,14.418936842352963,9.445728129570057,14.072923180224961,-1.0881639277890827,9.917901953250748,-6.247274409338274
0.8280000000000001,2.7219691862804893,4.081417700615475,16.532612444973296,9.672176246900392,16.159131657376804,-0.04343544985886183,10.48766584803144,-3.012942564626087
0.8320000000000001,5.831621311191782,7.226496284042895,18.31159389277019,11.316314249672246,18.409074754235576,0.7196516085665507,10.262799917036943,1.2626405884602718
0.836,8.6327638346267,9.655240400727877,19.29726280888363,13.810191015348977,19.928365921703403,0.8117693108735011,9.539750632486971,4.515863662282072
0.84,10.365858222086786,10.869493732293193,19.07091274533471,16.090918817274883,19.798659511616904,0.15828836834566573,8.865332904341983,5.421356247757217
0.844,10.66813929687413,10.738188438736245,17.42388814145525,17.071617458596393,17.558649003263326,-1.0078077542532355,8.685175029449965,3.8439321969516413
0.848,9.694258692111987,9.505169859196542,14.515456213173678,16.18303588776368,13.506996963785838,-2.2572648713476156,9.070078912473207,0.6822844622577122
0.852,8.003763048233623,7.658386907777981,10.923633131140832,13.70286923950897,8.648852536282448,-3.1227859293959455,9.69199668257761,-2.722144687373998
0.856,6.279741088960179,5.72690500917642,7.514359080985912,10.673493496492028,4.293277987551448,-3.244787721532475,10.043782685504937,-5.255184431557723
0.86,5.0222240327505006,4.097959902972406,5.154974502104437,8.421488662571846,1.5029436638148752,-2.464845111173304,9.754400628294889,-6.434650922397509
0.864,4.37662459398058,2.9339672172966687,4.3733179630418135,7.910080900691895,0.669977183684864,-0.8424938370051223,8.81500384960475,-6.419299803136369
0.868,4.16790684915361,2.202162384258486,5.1298245929515645,9.268821987220065,1.4237523010186521,1.3940158580835487,7.57203387525243,-5.718408134138599
0.872,4.083859917350708,1.7780148230953046,6.830376621329208,11.749749019525979,2.8989608234773527,3.9257146792554636,6.502999611136659,-4.841882092154606
0.876,3.8887587486051416,1.5566222147039923,8.587110418894468,14.132312175419742,4.205196434207693,6.413410043003296,5.924827371628453,-4.102338411047413
0.88,3.5235713783354754,1.4982549397927585,9.604989980944254,15.35056703060556,4.835694317769935,8.540357160004874,5.812343744860414,-3.633703034735845
0.884,3.0478378929042265,1.605044967310107,9.498252727944589,14.997886596241983,4.814171752944219,10.034896330150104,5.833545700576735,-3.5201779471232157
0.888,2.4907326468072597,1.8581766800677713,8.393438628594367,13.451650665089687,4.537962245781273,10.69305288063424,5.578004095937047,-3.8802555564792556
0.892,1.7602310869760913,2.187851781836713,6.805779525732106,11.598239172623067,4.461654026595227,10.423042365172137,4.834525439050708,-4.80788693086447
0.896,0.6904722976079256,2.500074485725264,5.3700547474121265,10.333181105606144,4.825796452252263,9.295925839640347,3.750538471054824,-6.221650937942741
0.9,-0.7963331836295993,2.7389167864959063,4.5744371702380136,10.127881588210755,5.577205887589315,7.569567177601357,2.7838942019875503,-7.760549956202567
0.904,-2.5250302033248317,2.953658517829581,4.61577233937561,10.879356981281518,6.503043912938267,5.650182037114405,2.4673770658778267,-8.85648524897158
0.908,-4.045533570881787,3.304414569992929,5.416512864884339,12.08440535006494,7.451667887863266,3.971432094439592,3.1292869045673797,-8.99027248664072
0.912,-4.815432185213126,3.978376200435605,6.7414162481513245,13.184795247284143,8.46439214709278,2.8278534933019728,4.714070210899877,-7.997239603758885
0.916,-4.50424814615036,5.061860184955947,8.317154484233384,13.861286607487045,9.724103071411946,2.2439512231387653,6.788647407542953,-6.225120556228148
0.92,-3.231709142457362,6.4520355081346565,9.90157071203555,14.130570690110801,11.36568105822937,1.9620653950659062,8.734136525102656,-4.4017741798063525
0.924,-1.560282914024242,7.88726570441105,11.288816351562105,14.223595178057167,13.287571641300133,1.5757269418475062,10.013644263002334,-3.262664984297203
0.928,-0.21083438966093127,9.083625453258549,12.30546918044115,14.37190007311574,15.110354470100276,0.7603713280411739,10.37729690212609,-3.130806512765048
0.932,0.3480879124455214,9.889956783888806,12.837967260798791,14.646313753741254,16.32059136793231,-0.52253828419191,9.918769181457947,-3.7168613519104383
0.936,0.19618888974446236,10.361115430860309,12.885857774570923,14.931419133134,16.51762696837227,-1.9738053558835418,8.961867883873083,-4.284968746778986
0.9400000000000001,-0.06402061702533501,10.6800468583711,12.59020174361524,15.01654365004606,15.602735295918876,-3.1092581828962693,7.847288702855053,-4.113749626449135
0.9440000000000001,0.337823323018938,10.978432996713025,12.179801702680038,14.715149154658434,13.797910182491023,-3.545137878334117,6.736018351417101,-2.995480095416042
0.9480000000000001,1.8474258321280104,11.17061144194389,11.84050743167694,13.934866850250728,11.489790951561417,-3.25142379514773,5.5338770377987885,-1.4645474637966345
0.9520000000000001,4.249393789814349,10.934280958586442,11.585691101007455,12.682605929754914,9.01540810101227,-2.6201341940086422,3.9665810801370753,-0.5956969476296763
0.9560000000000001,6.708469413898456,9.887907135744626,11.22368789527269,11.035674302752,6.538266580651339,-2.289638741347062,1.7839330765957584,-1.4492749848025142
0.96,8.193613322142824,7.877952409765328,10.477555360811834,9.132215170411996,4.096568942775605,-2.796822325505218,-1.0101424836934711,-4.446767320368963
0.964,8.047374639498457,5.207676970408329,9.194228414467261,7.181684962272129,1.773778044632195,-4.253434787614424,-4.030308814574937,-9.028570971981026
0.968,6.3687169464355975,2.6323873195790384,7.5168786961860405,5.453891436275512,-0.1626290686020866,-6.251255887813386,-6.5842631826149045,-13.819692344969553
0.972,3.9776938266084017,1.0711940654557566,5.892591102525444,4.208243286131392,-1.2901437195868084,-8.062351819899504,-7.937556692175349,-17.23356907738821
0.976,1.9688442858746384,1.1607118836147947,4.883751876360975,3.5706817937010555,-1.240064910804449,-9.026079061018208,-7.666062862636409,-18.20540390147562
0.98,1.1035268128027838,2.888938678453769,4.8778890000491515,3.4259746646050644,0.028531711223422462,-8.90265439331938,-5.92317546482775,-16.67638788168506
0.984,1.4023109511945222,5.548152057074503,5.853490499259806,3.417733165097843,2.0800859526596014,-7.984988430385101,-3.4655365767919193,-13.572750951815124
0.988,2.1678709127040747,8.056220780779654,7.354165423822224,3.097394631974339,4.1085639198163335,-6.9014530017643665,-1.3763001681465994,-10.297736221707964
0.992,2.420169547081514,9.486827385585457,8.70776251320774,2.1716341545087516,5.2768937281089165,-6.226364980631388,-0.576790924629222,-8.016958450936272
0.996,1.4772409477168367,9.51899222273164,9.365767052108026,0.702792053207304,5.1081038025329235,-6.1412349846755205,-1.3603360465872356,-7.128117527768609
1.0,-0.6516767012458331,8.552767447251767,9.173974421780485,-0.8703671388188923,3.7021716887852563,-6.348333269680779,-3.2108807314218666,-7.177691566928843
1.004,-3.2905794750333826,7.423160235973569,8.40170636587004,-1.9479474771276273,1.6451879765022568,-6.293263059733363,-5.033400244890572,-7.249819573697096
1.008,-5.511610848695682,6.873380793996148,7.5191694347078055,-2.120573399228988,-0.34024445599152386,-5.558446976539926,-5.705455673803954,-6.586945276997085
1.012,-6.677326767713794,7.109335858923487,6.878080293304038,-1.4423484961041595,-1.784170836519479,-4.169750130242392,-4.68076368334755,-5.060526488673531
1.016,-6.788484883561978,7.69761556780486,6.494618697402984,-0.4467917187562307,-2.6651717214157316,-2.6179531070163193,-2.32103565617399,-3.242921671586828
1.02,-6.431677415311015,7.865079216996492,6.082196167061625,0.1451455047449599,-3.307804094479593,-1.565073791456598,0.2588920082921504,-2.043018342553296
1.024,-6.362466424354125,7.031688491952764,5.301883052177686,-0.1225993021382692,-4.055363800467148,-1.4110261759442437,1.767040830392034,-2.125673262766213
1.028,-6.998009822829772,5.226851323933715,4.044653939519094,-1.1122014074519484,-4.968744674180357,-2.006282421092237,1.419808027363615,-3.491268535212839
1.032,-8.126561276830671,3.132164771188741,2.5599724106796202,-2.1017951583721697,-5.760847619350216,-2.7026222041026813,-0.6365129561722824,-5.460037203325101
1.036,-9.015392213736959,1.7097889242562587,1.326760706507912,-2.1687764209809757,-6.020130930752657,-2.7327497608657723,-3.4140181516584107,-7.077414132882041
1.04,-8.86250816307529,1.625643277903464,0.7496387811306704,-0.7509116629946675,-5.570798667267923,-1.700921218252006,-5.6236353471022085,-7.682978091893347
1.044,-7.312069960232066,2.8369994985807807,0.8878390610015003,1.939697971195642,-4.691206189927698,0.12277666095360473,-6.359397050647658,-7.290153623011065
1.048,-4.717614449281427,4.606068482941964,1.411815617710431,4.922704114195085,-3.9995109076689914,1.9095354242890608,-5.530266057088056,-6.545765780684178
1.052,-1.9760093180984768,5.949853089235603,1.8416995257960025,6.923034936945669,-4.033851349284987,2.7428259125017576,-3.7867439577548794,-6.280249470913986
1.056,-0.028947429198751706,6.254498423186988,1.9188568509282504,7.066223462821654,-4.782435683546964,2.1932319073985127,-2.017538822320148,-6.920053846489282
1.06,0.6648829205016682,5.656165093529808,1.8472465893535173,5.395486977554583,-5.517573540878402,0.6350424303059299,-0.772391314822471,-8.14889292002681
1.064,0.3617902177406904,4.9389298041512575,2.1910168847662135,2.8759511306757304,-5.1296856843466685,-0.9161972946099013,0.0014987582230787666,-9.084610771930784
1.068,-0.1895174130202122,4.979907046539665,3.437597193109582,0.8414288677561217,-2.8448946421424353,-1.3904490022055143,0.7131980548995216,-8.902857065711942
1.072,-0.32571639009438513,6.050417550424527,5.464816352634784,0.15581226483141108,1.058175491780048,-0.37359973430420723,1.5338892581019081,-7.551587006988939
1.076,-0.04923349601767768,7.424127309476717,7.267899366420579,0.5681938815801004,5.0003652509051335,1.4852411593960824,1.88829017314265,-6.092825505242217
1.08,-0.24283356461410222,7.56284792954375,7.196336974812084,0.6622040357115111,6.569506118155914,2.642272760328524,0.4329998895486824,-6.402636397087463
1.084,-2.306282725919118,4.867776917135643,3.6864145155084316,-1.4957669533182525,3.595076620057398,1.380278019965317,-4.3242157744452925,-10.281580931736244
1.088,-7.3588986713170925,-1.3836178820274654,-3.8429059898933247,-7.299462345513348,-4.6736876801005565,-3.251673708751241,-13.041275299291101,-18.40462096270221
1.092,-15.427287954099484,-10.43492890439893,-14.405869339166884,-16.683754594715992,-16.906982123423404,-10.77262965366026,-24.76071260380013,-29.67331846896559
1.096,-25.0700326313422,-20.131246117100773,-25.53237845984586,-27.83923803469088,-29.942314862069452,-19.253886263226832,-36.84840679796389,-41.36366215194994
1.1,-33.715919128808764,-27.696014505580706,-34.055849065533266,-37.759048228928805,-39.89936596219809,-26.016101836809867,-45.80604314649463,-50.08070311161282
1.104,-38.61875651610217,-30.836438072609553,-37.29912223111842,-43.397789475092395,-43.668457633586286,-28.731167109041962,-48.642677178290796,-53.08860226972047
1.108,-38.0000148193094,-28.653310686946952,-34.128814957681925,-42.901664602018855,-40.09635040898729,-26.407861437864995,-44.15143309232735,-49.390851731173825
1.112,-31.831331890362435,-21.92983043611116,-25.394135250099225,-36.339575781865506,-30.337208387689316,-19.79930933946298,-33.45662509259819,-40.0630346984135
1.116,-21.871379152965346,-12.6997910956552,-13.561260238909426,-25.617206773541966,-17.258133156236454,-11.052427170276587,-19.555363190942444,-27.716214620978462
1.12,-10.93823789966882,-3.3653852550198735,-1.7269595975328684,-13.64622520957073,-4.241100111175911,-2.7798300114254744,-6.083197857914001,-15.383881648227543
1.124,-1.77855064971709,4.188457795949034,7.514246696394821,-3.203100738463718,6.0371413081909395,2.9847171227252147,4.0775165923651,-5.387206621559926
1.1280000000000001,3.9183168476338324,9.075844711886475,12.84104918618641,3.978131676629573,12.309428815860883,5.460774780091015,9.694328632398992,1.2920457292057108
1.1320000000000001,5.933638690987209,11.357769670494008,14.34923268782427,7.52814990844854,14.716913057640568,5.169391797703611,11.24353307941874,4.9453468143537975
1.1360000000000001,5.257779881872466,11.620551310842302,13.121896821994369,8.151892679056118,14.276341076011477,3.4233580408217676,10.241242367193081,6.556901515407844
1.1400000000000001,3.3787410243899103,10.495971997813058,10.535738085881803,6.998717237137043,12.20177201024012,1.5858167351152588,8.311425095613686,7.109829691931736
1.1440000000000001,1.5428065985479407,8.409257202626804,7.664397420109481,5.066187345710432,9.442807314424954,0.48527588167871727,6.496325778591199,7.148317089342527
1.1480000000000001,0.34880584480015386,5.6230360152558205,5.020679034652858,2.906490336931256,6.57719834368595,0.23517959781474929,5.085929484735971,6.746617154763044
1.1520000000000001,-0.21642450545596148,2.4428404974130444,2.6537241688436097,0.6866188806261562,3.956575876143461,0.45534108233641746,3.907833067080446,5.78050020892988
1.156,-0.4487048667788258,-0.6347032495657459,0.4336059251829738,-1.5599726861200907,1.878262231487497,0.6806968583259732,2.777732946539345,4.239040279490837
1.16,-0.5942193128666986,-3.0027394337832902,-1.7027971431100468,-3.7301340654016713,0.5933369195108753,0.6769218287818148,1.7683508936120234,2.345043102533964
1.164,-0.7245374772965079,-4.2017495867844445,-3.6752524846287997,-5.630781277172446,0.17616519794819396,0.4953060582665785,1.14447643785752,0.4421234454921432
1.168,-0.8433180966403597,-4.177447581060278,-5.341726779080318,-7.112178806943348,0.400120910098849,0.29899267151995446,1.0848475817870167,-1.2101541157544489
1.172,-1.0540981062390529,-3.3423266861959746,-6.618037467558906,-8.205832760538897,0.7813846849658148,0.13745180522073497,1.4336377834497398,-2.558028675337482
1.176,-1.6021312718285117,-2.364647224185319,-7.519236120763026,-9.128176636175795,0.8281697544380222,-0.1565819056768305,1.6971065799184544,-3.702267216209293
1.18,-2.7136585366047257,-1.7945299926741427,-8.082016762331477,-10.114495253966425,0.362452665886849,-0.8612945389913875,1.3123449681233978,-4.731614401965089
1.184,-4.337323673489209,-1.750025851121336,-8.258420506671882,-11.20361202137974,-0.30723910784672626,-2.137115513891331,0.008112500102015474,-5.598133476202747
1.188,-5.999138411069907,-1.8644168061296114,-7.890396882547748,-12.135595410355563,-0.5172217168474162,-3.8500353558265488,-1.9875136984001074,-6.152094664582364
1.192,-6.934485317437975,-1.5365780862612155,-6.812137945193854,-12.4615252915155,0.3531806147120733,-5.577476670725446,-4.030301089480417,-6.320114722569997
1.196,-6.4776816377952855,-0.33939911386460153,-5.036275697988913,-11.819185091933832,2.433232322699041,-6.813700519895065,-5.405696121252731,-6.282034135934737
1.2,-4.497008449855002,1.6534801122202225,-2.886825877877527,-10.202228827363797,5.142019112800426,-7.246885008064055,-5.726566540182375,-6.4779568987760285
1.204,-1.5924342180442181,3.831730587394759,-0.9690637359226457,-8.04386100967804,7.3696504130411995,-6.924550544273188,-5.1477157658951,-7.38578043182406
1.208,1.1007914957172034,5.328251620540414,0.03811908908164696,-6.046123023696509,7.98516478691954,-6.204768925349526,-4.278138838577888,-9.192338736039346
1.212,2.439559238741822,5.462981472344836,-0.32716409436034155,-4.833488747392494,6.408856719048799,-5.513746804545917,-3.850843959903159,-11.566495740301434
1.216,1.8571708763656716,4.098524636827278,-2.091418724121013,-4.631341409129618,2.9362899219372594,-5.063291121780821,-4.334581066673309,-13.717842500831466
1.22,-0.32279844722143025,1.7053247712005941,-4.815087650490568,-5.1619851657592335,-1.3735517077252553,-4.724183763523797,-5.703317914557374,-14.759626411971112
1.224,-3.0322290731719477,-0.8815841372838804,-7.773410710191911,-5.825534616061759,-5.183313579076639,-4.13025450719033,-7.476242479325265,-14.18074347979018
1.228,-5.005144440919139,-2.8730576738444142,-10.255671860363236,-6.069126584993228,-7.484037787259695,-2.9512266818601347,-8.980903585147644,-12.157676800074114
1.232,-5.418637932138154,-3.872096384653105,-11.821309201670374,-5.720485523909701,-8.00562162136248,-1.1682102711474727,-9.687629133368318,-9.506755604459613
1.236,-4.2824312977518275,-3.9781194932638755,-12.389434419427744,-5.088949278655946,-7.230364859920883,0.8279356730809013,-9.434121026753928,-7.285043094540015
1.24,-2.3783980622056333,-3.632288272634014,-12.145225213032063,-4.772924778673314,-6.040652122746906,2.3908788373873904,-8.450857425231334,-6.270108674119911
1.244,-0.7974078243096301,-3.3130046864712313,-11.35473074864376,-5.284593634987232,-5.210321295810445,2.9419435689005695,-7.203715934736465,-6.604526451894344
1.248,-0.3433631502011849,-3.26570133683299,-10.210951152116195,-6.706532296022033,-5.015982600471943,2.273968342302396,-6.155321432901474,-7.790522093397158
1.252,-1.1286409458389244,-3.4127811280454807,-8.801562520787229,-8.582861601025343,-5.160393885317262,0.6631145871351691,-5.588887628988232,-9.029457647575327
1.256,-2.572563918490232,-3.470374852502573,-7.187616140448881,-10.116956184801438,-5.017158810797355,-1.2827189462277602,-5.553268496945748,-9.689329548016758
1.26,-3.7728473848201247,-3.176591741233551,-5.5009148200260825,-10.56874175331859,-4.032580927449999,-2.9523067551817803,-5.917550573112749,-9.626284555935854
1.264,-4.014671261758849,-2.4676104604586726,-3.9746878924702287,-9.635024839317339,-2.0508924931200454,-4.045714082986706,-6.487431148379073,-9.196301968751868
1.268,-3.1313726493199283,-1.5000015006453395,-2.8658904706753674,-7.607687751693447,0.6043218387294473,-4.693561761903766,-7.103307686936205,-8.970307332492666
1.272,-1.5390793126734934,-0.5229596545468667,-2.3206965394642793,-5.233980040579354,3.308908046884426,-5.327560146349242,-7.687191217074542,-9.354657451840467
1.276,0.03533920665086043,0.2913512780128258,-2.277142576152073,-3.363690085077451,5.450289568913831,-6.385406231932393,-8.235495970999182,-10.356554859576136
1.28,0.9464645367079356,0.9308190989027025,-2.476838687241525,-2.570782345502721,6.69571232612725,-8.012274402172807,-8.772857426226437,-11.603713670643629
1.284,0.9227683656299632,1.4857591210352439,-2.6080328777457,-2.948362549725971,7.083074794942604,-9.935290414712654,-9.32552532597947,-12.581709903888623
1.288,0.10352722848256235,1.9878733547093361,-2.506845131292721,-4.172296964990892,6.9018157637447075,-11.578316586032088,-9.914771557025233,-12.91902004545409
1.292,-1.1622320608403243,2.265884605129486,-2.2968737880305525,-5.776517275952756,6.452304529829689,-12.34638752756473,-10.560248708199651,-12.553556598330033
1.296,-2.58377726528488,1.9491448253083945,-2.3667220358370287,-7.458513390759435,5.840990360577507,-11.920070857619066,-11.282759902422185,-11.696215796087927
1.3,-4.086671929037038,0.6486548917173423,-3.1652090246357147,-9.22715293403462,4.926490522668246,-10.403943831328434,-12.077309777866503,-10.639209526418199
1.304,-5.77460603432246,-1.7693332514409121,-4.9291666750641525,-11.325958718468883,3.4336777745584186,-8.26946147091985,-12.87842750204345,-9.555094981720686
1.308,-7.739025028001379,-4.984721270085629,-7.500454837370853,-13.98981417472396,1.1565575716258536,-6.132893564947153,-13.542904981154607,-8.412800228839842
1.312,-9.871907790300611,-8.252275060828197,-10.344762956215618,-17.194581955140166,-1.884917137346747,-4.491017422553341,-13.875368787908883,-7.060365667744918
1.316,-11.824633210271713,-10.683009469019908,-12.785920488733154,-20.55985120594778,-5.423635451419614,-3.5539191859825223,-13.718617050869398,-5.403007359100229
1.32,-13.152038075682867,-11.660682558942426,-14.335630314133141,-23.464086347627926,-9.073072408500138,-3.234441108907049,-13.057511019296726,-3.560852002234242
1.324,-13.549134767400574,-11.157348816715512,-14.941194391156387,-25.302653746939086,-12.503629625130998,-3.2719112452668924,-12.090990729849182,-1.8964925776745076
1.328,-13.02996636842363,-9.76143391919777,-15.007134937709452,-25.7385060524075,-15.55001205296594,-3.405094214334895,-11.227637916509593,-0.8980578733207949
1.332,-11.913392821454181,-8.368012743566396,-15.15058739290771,-24.79439519097741,-18.16563834517183,-3.483504524901946,-10.953284257910127,-0.9668648467613821
1.336,-10.60945111062756,-7.681438164529482,-15.810658507085463,-22.749065921582314,-20.2544967388867,-3.4848239198545343,-11.620472104377768,-2.228840734811456
1.34,-9.353510531185748,-7.826975263656095,-16.933736090897582,-19.933626752667806,-21.5277986343699,-3.464419558775262,-13.255971287452667,-4.478858160851814
1.344,-8.062120061280439,-8.28773095805991,-17.929033435862493,-16.575409132219193,-21.503705304453433,-3.486741118491409,-15.481686248407641,-7.265937581729304
1.348,-6.402719325820726,-8.205439795870916,-17.93370669372598,-12.784312461652917,-19.69565081471046,-3.577210725465193,-17.59929435016602,-10.06560313054797
1.352,-4.0519745692963625,-6.885707201992773,-16.264067368300402,-8.677588248041957,-15.910210371886023,-3.7231655558989587,-18.83004128430366,-12.455185088329017
1.356,-0.9821919492624147,-4.214626770943141,-12.815931309602092,-4.535746623733758,-10.481064762636379,-3.9049429410788434,-18.62228820243581,-14.217112029331474
1.36,2.4140160106571784,-0.751669063160989,-8.177810459657394,-0.8403239798481081,-4.278354816844512,-4.112480086001597,-16.89053316222453,-15.33362054491954
1.364,5.458670942951358,2.564287431975572,-3.38801874829187,1.8734094388864833,1.5591221332442728,-4.3336166580047575,-14.073040541427872,-15.901000455218309
1.368,7.51367634777489,4.924935116599045,0.5381544376959937,3.274247104600363,6.0481319794744195,-4.526562760578599,-10.965493359622087,-16.008159379749486
1.372,8.297293925104896,6.066423972330995,3.0500122460098282,3.4393960856268677,8.71473160248297,-4.607754013430167,-8.401383303274088,-15.65342436978608
1.3760000000000001,7.984713159628882,6.33747464154294,4.228313350382905,2.8474262361387446,9.684221360769698,-4.481787279577475,-6.924275117993602,-14.74245195151343
1.3800000000000001,7.024625464720884,6.381641334939559,4.601059703659303,2.130500366381966,9.458122236540476,-4.1054611827803456,-6.591945800571011,-13.163946531956753
1.3840000000000001,5.799879750826221,6.650927740209227,4.729574337444774,1.7153445938402,8.52917025622719,-3.5422006546377816,-7.003812862142695,-10.895786388997294
1.3880000000000001,4.3498213418706655,7.057072123980106,4.8218956325818,1.5692908926985183,7.070419634979771,-2.955774723632203,-7.52581320459376,-8.079551299028026
1.3920000000000001,2.3599489739644923,6.991562184315626,4.610610848847045,1.2216316894691772,4.892503462412606,-2.526725232079116,-7.605895756832069,-5.017168109790873
1.3960000000000001,-0.5557863333342539,5.7106073327240665,3.5661148534945823,0.06613892521272646,1.6861054130140474,-2.3420895366998593,-7.024368743193008,-2.0891430084157037
1.4000000000000001,-4.470905330217647,2.833230258310323,1.304418521347543,-2.233745840428128,-2.6296973030757727,-2.3308392899161845,-5.95957225633083,0.3542496601876337
1.4040000000000001,-8.902656314452543,-1.3430428175670386,-2.072788903394212,-5.481754123634346,-7.679138447458172,-2.2908909547804797,-4.851375649466718,2.088037867257299
1.408,-12.903191863926622,-5.915954853571748,-5.928193778840068,-8.997030633280701,-12.685362519837327,-2.0039233338793565,-4.147187638644937,3.050084963258996
1.412,-15.474299837231229,-9.805352960796881,-9.368245489904439,-11.957855001674943,-16.79041561420945,-1.3834917558870075,-4.066598538149265,3.2978721184008464
1.416,-16.06444190104594,-12.27474723580417,-11.677777315005187,-13.82340340549672,-19.431768787589135,-0.5574705532835651,-4.498857742153632,2.9266355639229005
1.42,-14.837683926956743,-13.241553566674156,-12.6347316010133,-14.563259594707233,-20.541605820730183,0.18253253851435147,-5.078564557206846,2.005088632562547
1.424,-12.531713733369543,-13.187049829908574,-12.519122544666061,-14.54972618843749,-20.437167953267817,0.5496975195874256,-5.390906153821561,0.5667267446006008
1.428,-9.987162219425954,-12.745773577323234,-11.83193495516116,-14.187029606318902,-19.49272379848844,0.454108839861874,-5.19134426482924,-1.3326378114325053
1.432,-7.636386032392693,-12.243256028044016,-10.91637054396324,-13.538536678089258,-17.823429810359812,0.09338560080141178,-4.528760850927938,-3.5403686402096355
1.436,-5.278659004137808,-11.46975232546447,-9.734190286114426,-12.215683756788167,-15.197582626436997,-0.1320482297360286,-3.705635462731152,-5.766616216402326
1.44,-2.3070839423635334,-9.838531749672256,-7.9424775250327,-9.630271573754726,-11.254777279224072,0.15693669658139697,-3.1021262951435347,-7.618880387766694
1.444,1.7505077701207483,-6.813934960357074,-5.216580133956086,-5.470592654463871,-5.883090994708255,1.0779580813577923,-2.9753721351589775,-8.711734229553258
1.448,6.727305242637158,-2.343541534621181,-1.5999826314164238,-0.0945388346844993,0.4913152226099555,2.376897913751236,-3.3358859929539904,-8.805445682544814
1.452,11.698010407102629,2.974218099164318,2.3590562164190487,5.445919957866863,6.910602013721473,3.5297639861582866,-3.955954133762134,-7.901238011112582
1.456,15.37230762404397,8.096195115700539,5.795102872705684,9.819854563158515,12.221103491919166,4.019410694934777,-4.5061505624580604,-6.232884594526695
1.46,16.786887483387545,11.975098702359901,7.930721945878759,12.059660690111741,15.540214472841399,3.636620294138993,-4.744576409959336,-4.173104626166605
1.464,15.881783857135815,13.986819330722938,8.448961297625829,12.056209076592495,16.598814762412076,2.629650492241126,-4.64868690054027,-2.087908886580408
1.468,13.587698692341291,14.122279461420476,7.613624239674209,10.605084562695993,15.77946024128778,1.614956989988059,-4.410759021056947,-0.19146088350680657
1.472,11.323541893485526,12.8586045463162,6.067177573955632,8.937719757488594,13.842166213258679,1.273533251880508,-4.310771050390031,1.5156945949493092
1.476,10.177035471824638,10.82404193804905,4.4488334609204685,7.993854309361268,11.523823324102523,1.986269824396004,-4.536787558545257,3.198882329175831
1.48,10.250622894653134,8.46753951646133,3.084318205229465,7.865162591020635,9.249288805607648,3.617578852130464,-5.039177179101898,5.063392650063179
1.484,10.578180977347074,5.918237154940471,1.9228758491171902,7.737687848357382,7.098835813970254,5.564644168740415,-5.508797603899438,7.20142462410513
1.488,9.691153177871456,3.0794041955741704,0.7293567442775384,6.389231095960895,4.9951096081795185,7.047178186108795,-5.501810267525798,9.488859503624553
1.492,6.525444201166465,-0.14936272811610252,-0.6268523375283621,2.964178894229917,2.9380081162662464,7.4892171675710415,-4.64579585292995,11.574797270321142
1.496,1.1566783674988983,-3.674284497458757,-1.9873324312611658,-2.40682567643762,1.12867274742257,6.797549343385981,-2.8287841778073926,12.981097867625067
1.5,-5.078738478896412,-7.162710884469561,-2.9402217588867643,-8.499929867801256,-0.10056530757356086,5.395531321326416,-0.28486209057155065,13.27978418850762
1.504,-10.170808441367626,-10.152736222073145,-3.04612372205429,-13.483516592288652,-0.47843731870852935,4.001964396340554,2.4645140797765634,12.277316385599988
1.508,-12.413518958725035,-12.226774405724427,-2.09484946628163,-15.742756701534745,0.03383421506077866,3.2793129847013915,4.79201149898654,10.1179930080325
1.512,-11.226432275176194,-13.134217652544976,-0.21727883345010923,-14.603433269227935,1.216700861578829,3.5366347569579375,6.17959563378281,7.248008712344017
1.516,-7.394256553976447,-12.822334073048296,2.196547250839103,-10.597909175810855,2.717255878775177,4.614925948506425,6.3703488531573385,4.238715822772065
1.52,-2.6276875254789047,-11.41033989405787,4.703834536127033,-5.160715014879315,4.218802027422498,5.9920041088080325,5.412403935622933,1.5479001325293211
1.524,1.307342477266502,-9.141393046984376,6.988489686194953,0.05900584579194401,5.543326747609171,7.037654934229067,3.589670371822649,-0.6652517425281985
1.528,3.405715155566213,-6.354707511835841,8.899186913229642,3.8960562495485647,6.630925003883021,7.283662212270428,1.2935923581080715,-2.57115172954218
1.532,3.770916837751429,-3.4671699101463673,10.359381062797183,6.040833300312443,7.439765227392854,6.59413150110413,-1.0988300230728782,-4.518509817440645
1.536,3.3675505392275227,-0.9213275114070711,11.259005611612338,6.953604872067444,7.8733257468175,5.186987263834453,-3.293060688458354,-6.765244815785991
1.54,3.3743517464790784,0.9082556228686371,11.452789102007046,7.44098643435791,7.798273445227096,3.5178330882336013,-5.08389760146747,-9.234232221959246
1.544,4.52374576260263,1.8329169692942742,10.873631928983741,8.151236943509502,7.138643218254401,2.092871367738553,-6.344006869865552,-11.44986576606243
1.548,6.769776679837378,1.9230013482729191,9.663539584434147,9.254144047425143,5.959997807863147,1.296629065698653,-7.022135545354104,-12.704471573972114
1.552,9.395131594064878,1.462709839096533,8.185713624224263,10.428364500676253,4.455835326727538,1.2839640154525114,-7.149523680589482,-12.38640871188909
1.556,11.433782687536223,0.7962032645364161,6.858045121176474,11.106480708943309,2.8295312654936424,1.9581392181717092,-6.842981761928968,-10.297213184177963
1.56,12.142369708146362,0.13821603640099056,5.894725267755348,10.81476015019598,1.1511230758378588,3.0270580319738656,-6.263627852244099,-6.773873243400885
1.564,11.2860373746189,-0.5340339050389957,5.127935690386948,9.42111251888764,-0.6870197824709976,4.120648746142251,-5.535832392608427,-2.5387980977029656
1.568,9.141359380007998,-1.432840334788125,4.071923711413547,7.188236414448511,-2.8537113951206265,4.936997303189855,-4.648483015564125,1.6475666414808074
1.572,6.288323486922309,-2.7793204539475482,2.2385409160588097,4.636694009270286,-5.361860883949703,5.360602070373716,-3.4032351169043977,5.325859266977204
1.576,3.3478121460575494,-4.600502807393241,-0.46651686814766435,2.3049195348739886,-7.895700621456854,5.502507176992367,-1.4848753915084671,8.453311619901797
1.58,0.7978117503698741,-6.641156270399733,-3.515113401576855,0.5315302886137943,-9.830707847908343,5.636136639230244,1.3637080848166079,11.22871289026807
1.584,-1.0813964674562158,-8.44776127674777,-5.889691731204948,-0.6507208328821434,-10.476593528706871,6.0454627128565335,5.1273230395927385,13.73468826564931
1.588,-2.169716183305354,-9.582644496898865,-6.553866490085056,-1.4763180407298933,-9.42914744371592,6.857798400014872,9.386256218971539,15.634683363667136
1.592,-2.4411460817009356,-9.836659203909221,-5.01496192110335,-2.2886866231365275,-6.831059252765044,7.943459566260572,13.359162055967317,16.15143173262186
1.596,-1.9193371670835404,-9.302555601666427,-1.6439685883829043,-3.325694184443364,-3.364945165102654,8.944648113762014,16.146617880729536,14.400003270773595
1.6,-0.6713258748341104,-8.275729985889484,2.4649239136006145,-4.535252423220754,0.041271235247677396,9.442321706297662,17.09857256409896,9.940130398559631
1.604,1.191052536794814,-7.038096385716017,6.029844151673387,-5.516321872804838,2.645496094234659,9.178238010823407,16.113626566289895,3.2270457589402213
1.608,3.5078413860355795,-5.67275603120288,8.212601911769525,-5.638582779709395,4.21465161067681,8.209533981069399,13.711199107356151,-4.338309511716943
1.612,6.060139863064251,-4.034975296282937,8.98629486273694,-4.317027706481895,5.062573764309491,6.900300589455583,10.823637776775286,-10.835790571767575
1.616,8.567039306817605,-1.9020556025880069,9.025725895630785,-1.328961400584376,5.786866466656647,5.744632065034239,8.383198451250792,-14.567684953970456
1.62,10.697543271562608,0.7861604315421573,9.201483879223815,2.9750618304615273,6.8589762001465715,5.109313570239465,6.9147456337123,-14.765262900549715
1.624,12.117406061930524,3.7608035731618656,9.978285435858197,7.6851753887813175,8.308805981761907,5.033642441492702,6.327305250353675,-11.903870474419818
1.6280000000000001,12.578572036036348,6.453873448608647,11.089530125983401,11.60599349626682,9.688558091786945,5.206380857147451,6.016873845826922,-7.451376536533644
1.6320000000000001,12.02072630371913,8.223259710493949,11.680806522401326,13.687010131520765,10.319919197296258,5.135911822904745,5.236340105559066,-3.173221150373138
1.6360000000000001,10.629400536936373,8.652630841024802,10.831515540770852,13.419718634089804,9.675552406155475,4.425904969568364,3.529869174341002,-0.34094382104012766
1.6400000000000001,8.797515334257696,7.747998418393763,8.145462641216,11.023477391944652,7.665295859584148,3.0108261610293994,1.0207355131187796,0.7757237591031299
1.6440000000000001,6.978583870588409,5.918890505388845,4.0374152524382225,7.320512938983484,4.669409404614271,1.2144480793067487,-1.6036366620119225,0.8946157811187732
1.6480000000000001,5.491054794070806,3.7514890503061906,-0.45960996907251683,3.360868122201282,1.3149485582071065,-0.39987663194187917,-3.408433882628742,1.2275514269458654
1.6520000000000001,4.385234620473057,1.7123182413815812,-4.240101781283556,-0.0009585583538864739,-1.8503626334613728,-1.300444649932615,-3.663524289486304,2.797968651928386
1.6560000000000001,3.4474796297272405,-0.05783391352088074,-6.70831770532277,-2.3850947407772765,-4.601755880355995,-1.2474594421801157,-2.21440318482928,5.90465338751892
1.6600000000000001,2.348590740333748,-1.7551264076319057,-8.05938328576758,-3.9103536165303012,-7.070426978025353,-0.404309255987755,0.4088344239280559,9.972854548021132
1.6640000000000001,0.8667216139074299,-3.719296248165847,-9.097795034970659,-4.987207066382325,-9.556902359347077,0.7485253423728864,3.199600923095204,13.82529229435022
1.668,-0.9444468637811951,-6.162732906823294,-10.70522591109875,-6.024035642968556,-12.249190825144069,1.6399234635428002,5.099053905807523,16.201018833769922
1.672,-2.7416209181446902,-8.973224946080336,-13.27617180715879,-7.214309842151124,-15.014339307957016,1.85833609430847,5.438772976420296,16.254631560841517
1.676,-4.036745322800925,-11.692585641892038,-16.446831680455034,-8.496335249343247,-17.379019702771984,1.301294912591402,4.201389810939872,13.821004906400049
1.68,-4.402181999790628,-13.676745340810157,-19.242178723270627,-9.644173810528628,-18.697737388824862,0.17425880712107755,1.9972796389429277,9.39206087670027
1.684,-3.6215094610870437,-14.344790118425408,-20.54104204468331,-10.393524827870351,-18.414975130723178,-1.1452652733714785,-0.22454073618246184,3.8691472331411205
1.688,-1.7064976570545696,-13.38864049296717,-19.596504295564955,-10.510141228648536,-16.287548345098912,-2.2820405608799774,-1.5951215501809202,-1.7509071785279957
1.692,1.1920105411409168,-10.860124874418034,-16.347566828218078,-9.786858550945908,-12.471448622055505,-2.9958798721654603,-1.6876352762083116,-6.630279259799863
1.696,4.887280414161069,-7.116059491956548,-11.402096256289951,-8.029889336737142,-7.454103389713964,-3.2217783295727713,-0.6769752744494326,-10.234768859896576
1.7,9.1744760606216,-2.689014515503004,-5.749928286941213,-5.109092782719927,-1.8994098537114041,-3.029473573620635,0.7800035596483212,-12.362562502436049
1.704,13.747647482106913,1.850894644840082,-0.3808132975900662,-1.083474602570277,3.528357735434838,-2.5494327780488675,1.8884999340134527,-13.098391971692763
1.708,18.098818126974948,5.99487437998323,3.998807680169193,3.6746889259466116,8.29002886215676,-1.9068518583117111,2.113729865879577,-12.725479058150086
1.712,21.516345653024473,9.345324019763211,7.046243911023339,8.463169446235042,12.017929522167833,-1.2000067638909968,1.4438318043412437,-11.614262477298325
1.716,23.25472922238805,11.645024702800583,8.691463382932852,12.411303908364971,14.499551322733168,-0.5186019275970466,0.37594012637782726,-10.108661118589225
1.72,22.814524526073,12.78214797734654,8.991515662211896,14.77484375779568,15.618000028905044,0.01938694852105982,-0.3732085876981728,-8.44249954173938
1.724,20.182146784216457,12.773203540625218,8.040187437469285,15.212745485740925,15.29084784387669,0.25187073424604023,-0.2866599428871268,-6.730855856898415
1.728,15.88819318887181,11.728172541275853,5.9709765901689025,13.894634847292764,13.445989080404615,0.003354088945343392,0.6219655822842469,-5.025968798410759
1.732,10.821276485292401,9.804757960242569,3.011598572297771,11.36169790830354,10.045965016737682,-0.8456529929026146,1.7730469900907337,-3.4024952640429547
1.736,5.870477474967629,7.174489695667944,-0.47741311495610717,8.210544679775921,5.165992013617142,-2.2727822455017304,2.3374080326448166,-2.003381361530046
1.74,1.60062910178749,4.027260998864222,-4.014233153737223,4.804730995710088,-0.902985123309918,-4.048497530282475,1.7566260699277336,-0.98396062086249
1.744,-1.8659919027868455,0.6164236677605004,-7.057839029524075,1.1949046255431313,-7.573776478662694,-5.742023820794202,0.18608409431544715,-0.36587417760529206
1.748,-4.727473309194465,-2.7116636107493832,-9.120438577170717,-2.725712081666643,-13.995733599880623,-6.831255313672955,-1.4311666093635722,0.08669970763367019
1.752,-7.244407723404947,-5.565966534233667,-9.907945756747722,-6.952610712165551,-19.25127406534193,-6.901063833949593,-1.7748897242909152,0.8393365952360909
1.756,-9.531801491002625,-7.660224363173256,-9.459475724484037,-11.1971887066602,-22.6792868735547,-5.865140743055235,0.10556376902604825,2.3366256348635943
1.76,-11.539380201073072,-9.0214253692684,-8.242318702851662,-14.949103797665884,-24.207060551663744,-4.101909964127117,4.0774029071744735,4.614531468672794
1.764,-13.210900231902997,-10.131830601170805,-7.1361064767788775,-17.751816190305362,-24.50605218509554,-2.4187809101567836,8.657116352482262,6.982427364171599
1.768,-14.669445562001783,-11.860886290609415,-7.251117150884056,-19.499353750943555,-24.82687236228412,-1.8116138565219444,11.41784270694734,8.023127088887122
1.772,-16.246345979821854,-15.126107072515879,-9.56952682060728,-20.517739586266543,-26.49587268700452,-3.0812535205295717,9.965695319100632,6.035411427892541
1.776,-18.254635512863388,-20.36654348128468,-14.48704663389708,-21.314009909640845,-30.234049652453905,-6.450145540504309,3.0786666959411377,-0.1955221231764881
1.78,-20.622532625153326,-27.084250515421445,-21.429851877735928,-22.107171557983747,-35.61335232440888,-11.358558307563726,-8.526020918960057,-10.626556462211738
1.784,-22.630078440157376,-33.73137096342907,-28.769508842383402,-22.443259780471635,-40.95691161978539,-16.56838178846192,-22.206566551249125,-23.61351321474649
1.788,-22.983560024038525,-38.09632440423411,-34.17647260225294,-21.190894407489395,-43.817425188489324,-20.557699858527485,-34.2296276081197,-36.24140126489692
1.792,-20.287562217092272,-38.098422220799876,-35.359461833694695,-17.011330268234815,-41.896218182004304,-22.05873998406969,-41.08399855873358,-45.25664392081126
1.796,-13.736299666870764,-32.67141638699377,-30.949443319073907,-9.11980705582664,-34.038091919530416,-20.52330336227533,-40.73204338370033,-48.2393436139937
1.8,-3.6973265041742707,-22.338228680176144,-21.15056219055532,2.0590738025930477,-20.857347570755337,-16.31722738558892,-33.27625030896343,-44.483793435880216
1.804,8.15176578205137,-9.171287049310195,-7.8268267999806085,14.736976256089292,-4.678438729141817,-10.562869139010218,-20.79704222811597,-35.192409721445074
1.808,19.263077715600957,3.8769974260731033,6.060524620646902,26.255432894477963,11.206616699045298,-4.706431359250928,-6.485592803313921,-22.911504979565507
1.812,27.076941600797,13.993054616455993,17.456402282634826,34.02899162503036,23.653320864415946,0.004059950420923997,6.508510531045431,-10.492335933886352
1.816,29.937193773468607,19.43783047287434,24.238392155310976,36.50024679865783,30.680402123170097,2.91594963605894,16.035095809961604,-0.07322058608406223
1.82,27.640790133726114,19.98889490343754,25.834457983177344,33.6503207775113,31.956704036372685,4.092311864211297,21.381561710574715,7.468433965912482
1.824,21.399741455359617,16.75728849616189,23.20046147079711,26.843482407656666,28.61800894022872,4.137984659500944,23.128468831348073,12.42115173811544
1.828,13.257240427333272,11.530701065565154,18.219642565471077,18.12400326557963,22.57053722240198,3.8370298937716143,22.58958725897719,15.656458034283787
1.832,5.245891221670718,5.999350799044805,12.843109177561473,9.345404168527239,15.653941782446054,3.776539130747551,21.156257993020517,17.9486915393627
1.836,-1.3133454988510493,1.236380380922128,8.380833826759499,1.5668016229410568,9.061941875555931,4.123415640484382,19.81001604980247,19.573383802175158
1.84,-6.077516844327874,-2.4012061706980603,5.237333377068353,-5.028617455836411,3.222215909298029,4.636777977779275,18.94338885685829,20.345374146985705
1.844,-9.460285147359173,-5.021359331876738,3.1267489841038696,-10.744096179196276,-1.9154166816933866,4.885377044331108,18.470977458153357,19.986301674842252
1.848,-12.102609286570441,-6.831451327830109,1.5528148889306976,-15.801514408110506,-6.433945906479494,4.548045342622572,18.08504266714226,18.534525204267993
1.852,-14.328629838388224,-7.892860211400148,0.2542443492898201,-19.93522635428053,-10.123997731244344,3.6535519416192983,17.512158202647697,16.520905721850795
1.856,-15.877362710431953,-8.10304980354158,-0.6197948571375491,-22.367160985665578,-12.441198838308082,2.6385392523188784,16.666103873554675,14.792175285321719
1.86,-16.04248283178913,-7.366629037977873,-0.6563520956838147,-22.15867778187794,-12.746385862230454,2.1765461126178707,15.658886040807374,14.081048247553554
1.864,-14.10420955776226,-5.7721280265445785,0.5084479868692142,-18.71314256500773,-10.648648441949263,2.848946150234042,14.70702592429825,14.578467729894328
1.868,-9.803030241805573,-3.616653618621058,2.9276151900789955,-12.14470203741439,-6.245238444686493,4.815452579119665,14.004320116453528,15.76543679032693
1.872,-3.6114324438785843,-1.2621832788645406,6.278078036358693,-3.337610735156886,-0.14769002141019882,7.652806501188024,13.626152698929218,16.60887582702344
1.8760000000000001,3.350602263935798,1.0817541764918133,10.008374080800422,6.317281667621501,6.706237408001471,10.464701995893847,13.503801377120908,16.036034490618476
1.8800000000000001,9.725219995736552,3.495307482674434,13.599410077494213,15.376838373041664,13.350789245771011,12.243770202319865,13.479831608814493,13.468993648295509
1.8840000000000001,14.443137368387397,6.292974162166502,16.771059160381355,22.76956223547677,19.057097013587736,12.330317713360273,13.408277715175245,9.158843990884634
1.8880000000000001,17.105256242848554,9.792078956400928,19.523320665874053,28.01219798978127,23.465649943210337,10.739651934505673,13.235717339506664,4.152265415848888
1.8920000000000001,18.029464184333847,14.026830583522951,21.999658535955405,31.154335528051433,26.556842804747703,8.177061958056584,13.010808161759996,-0.10492890645036823
1.8960000000000001,17.953936889794022,18.583933049200823,24.26417248751568,32.52185893573915,28.508858471348503,5.710203303868184,12.82382546948611,-2.355003190235948
1.9000000000000001,17.564425222469254,22.655764419261686,26.133595965179666,32.40946916922712,29.514055763719625,4.250681372232066,12.71540503763299,-2.0538837160020194
1.9040000000000001,17.097893954292886,25.298975811736,27.162749653222818,30.875962402443747,29.630508521768206,4.100838153761288,12.609353326693963,0.3856208572360629
1.9080000000000001,16.236484828510584,25.784048064805575,26.79869307449826,27.743851179969624,28.73351741829947,4.812781404969428,12.33510871495946,3.763405730258455
1.9120000000000001,14.34945178289854,23.88325259665271,24.634114635086917,22.79822974018589,26.589507597896954,5.4478354092261725,11.743848889875153,6.608994204187184
1.9160000000000001,10.93396297214531,19.98073457837154,20.636106842937807,16.06996409374551,23.027978414660993,5.102147902247452,10.844789910666805,7.822639215211893
1.92,6.002891103385991,14.956015571363878,15.251293349665048,8.052498471377021,18.14501609502031,3.4180693852385957,9.873668923417426,7.159918683842989
1.924,0.19894122009009152,9.901392174793727,9.341527146348653,-0.28362204626319,12.446193065199168,0.8035051221613685,9.229183331597596,5.3305114853646955
1.928,-5.435656339809611,5.784827478621082,3.961534060271333,-7.721050864467998,6.825975815248967,-1.7642034256532497,9.283834709444818,3.6503683479259053
1.932,-9.909151481884692,3.180402641780347,0.047640840444273636,-13.185683382524985,2.347086185255648,-3.2425448018157113,10.159325205842833,3.392043383033524
1.936,-12.687030200874688,2.1669093643176893,-1.8653452908802137,-16.113590376664433,-0.10650830045824478,-3.0544861584312457,11.597909678118413,5.141449958591693
1.94,-13.843200594576956,2.401874419282649,-1.7876169940332147,-16.614784323982803,-0.16453099721093167,-1.3596655702212956,13.028390375078743,8.471769191259227
1.944,-13.887102196267733,3.3273922502330606,-0.22123478702360444,-15.343362280409565,1.8725585178190158,1.0641201071757678,13.806176241364483,12.09697340542516
1.948,-13.378584923812014,4.420290348952676,2.072264584147433,-13.133005207380393,5.151042240981951,3.246189712541309,13.510561359978965,14.44420103365519
1.952,-12.569837378413467,5.390662302645069,4.394294039758279,-10.583222263348489,8.619982281839839,4.508533487540262,12.155444686209194,14.373124869949606
1.956,-11.281618952505596,6.256633120422521,6.369388093678481,-7.821193121968463,11.461918487989351,4.737976880135648,10.181068457920446,11.682431796001765
1.96,-9.080474267300815,7.261491688948354,8.029966941605835,-4.562066952620626,13.382620799538927,4.313598444442505,8.22665637918999,7.1645573229689035
1.964,-5.650830922942987,8.671723036623462,9.69418286461314,-0.42930130381728304,14.618375883314457,3.767048689953299,6.811702374626293,2.2008079503339104
1.968,-1.115102767087592,10.567069784319756,11.70073999792885,4.664466064452881,15.668970755687496,3.403505090059298,6.091302395452658,-1.8780861812410876
1.972,3.891661044970533,12.735059372284923,14.146240506021513,10.308892481067687,16.925573104151226,3.111341548848941,5.818864051272612,-4.333567872945423
1.976,8.443122125670016,14.736533384809263,16.76860837872755,15.687495860501258,18.418084012545023,2.46736758042789,5.5324547835271005,-5.20013403685698
1.98,11.70714468841743,16.098578989122416,19.037294855476375,19.91761198193899,19.810104120771484,1.0537116411551324,4.849368876479275,-5.063799143905271
1.984,13.272453218029113,16.531203247689064,20.4066673934326,22.43777296402368,20.628921653683847,-1.2224994191938094,3.703094488619172,-4.613601477631164
1.988,13.247188650780117,16.04763480038173,20.5825090671583,23.209275402229196,20.561743787463,-4.002498102659047,2.384335640304016,-4.241931925738754
1.992,12.099615061718396,14.920604707504936,19.651554138438087,22.617952760111166,19.625785203125815,-6.609239583227463,1.3671537228992747,-3.900917946377376
1.996,10.34233368576588,13.495461435310972,17.9964377229021,21.13308928994047,18.09923688401932,-8.365055593137185,1.022461316794761,-3.269467953457024
2.0,8.256675206149794,11.965027771361292,16.04971155778867,18.94769968526225,16.259460272291108,-8.909964735876201,1.3896531458058234,-2.072765773039464
2.004,5.812934064727415,10.246142658758345,14.035594902793036,15.838781923014722,14.120330809190818,-8.35393777864374,2.128747825287064,-0.3350157578224753
2.008,2.8090276069183346,8.035852876746958,11.85791367435354,11.347721868585722,11.364488097092362,-7.196968126378124,2.6769219737907406,1.597992025154781
2.012,-0.8811154531176726,5.023567222224756,9.203095158342649,5.178676260051816,7.53948136062354,-6.073738742430578,2.5261637249191153,3.2602910286159386
2.016,-5.111546498283133,1.1442857811684917,5.795160089069441,-2.428364918071111,2.421613046486982,-5.47172267388396,1.4799008364170732,4.3446091931818955
2.02,-9.443853858715102,-3.2859845096822937,1.6533937004719519,-10.590299911110833,-3.6806654731153685,-5.5581614983029795,-0.2530536822050635,4.860880373779764
2.024,-13.289889895365832,-7.618582555105149,-2.79205090113237,-18.022133441374763,-9.876235263524904,-6.173556842656581,-2.1526660584959245,5.070868515574148
2.028,-16.130513884438642,-11.095183691652437,-6.8048005847451805,-23.524326366397872,-14.96491614667275,-6.961707873067098,-3.6139329077013826,5.250505450527271
2.032,-17.69188986646259,-13.135312712468476,-9.618239559804124,-26.463907014828237,-17.90988809705641,-7.545501664344556,-4.201064039528319,5.440829005202431
2.036,-17.986502689661393,-13.53436669398593,-10.742125047169338,-26.998330152178823,-18.26742640945554,-7.663893571361768,-3.806981336271292,5.349617550155926
2.04,-17.22088519734143,-12.49379531972113,-10.141316939503213,-25.91915459142865,-16.35412995391539,-7.226732494924363,-2.6576952604450526,4.486423242233286
2.044,-15.65002922160329,-10.4862705922626,-8.207794529846751,-24.20496406281859,-13.064177627948993,-6.294170512019264,-1.1847837293116754,2.457665096983874
2.048,-13.461916673132691,-8.044449670697759,-5.565802570455162,-22.53049082577877,-9.452377330239415,-5.024453605779854,0.15586522486455578,-0.7646602036384138
2.052,-10.74513208271128,-5.58124376511978,-2.8229916067641625,-20.97968548033782,-6.305077800922845,-3.6224812824721084,1.0400307331433396,-4.762527543840406
2.056,-7.546976472278857,-3.315221900291135,-0.39143458320381797,-19.100550125131576,-3.9046873482502633,-2.3101339567228933,1.3527790680232101,-8.825138463011172
2.06,-3.968050757963283,-1.308499471500454,1.5621995255562524,-16.242837920668308,-2.0734298264574136,-1.3061601651479577,1.1857182873727652,-12.237647764750363
2.064,-0.2282608930358947,0.4434409954592411,3.0556670837636375,-11.986155082859568,-0.42263660236585565,-0.796748923303312,0.7794021227250596,-14.542366228930405
2.068,3.321000490706865,1.929073413147762,4.178876696776115,-6.448313368798608,1.3466342295062077,-0.8969478944000002,0.4360116412899515,-15.63844489157782
2.072,6.252708788308155,3.0951539415818843,5.007132552643725,-0.32218842932047664,3.260042144512454,-1.604668674668119,0.4268459772160895,-15.677186614875609
2.076,8.167523187916686,3.8808809002875932,5.569478049492773,5.357406088748348,5.073733110704097,-2.773869812747762,0.9106704231571712,-14.844232824924802
2.08,8.808532819539323,4.2616983944553795,5.858334721129722,9.589802784034418,6.417232274658545,-4.127050303413398,1.8709082113764453,-13.182273019932836
2.084,8.155371670595741,4.2661994125094225,5.850232776412213,11.75491548996115,6.971580114487097,-5.3177910807448825,3.103243471740825,-10.581530070993722
2.088,6.4545733270297205,3.9477080456322255,5.505758505329823,11.779877850799267,6.576903896526346,-6.037129299762455,4.279939461393951,-6.944179159469968
2.092,4.162126997760879,3.3343717661189203,4.763366640188224,10.082306186166761,5.24857332934198,-6.12894241484446,5.073784597813756,-2.4057437565998043
2.096,1.8021967488029986,2.397105476376737,3.550894092432827,7.3401977124469795,3.1372679823559793,-5.66764144495437,5.3068934682482904,2.5395916144771036
2.1,-0.22618733277431602,1.0527476748850404,1.8336461427641098,4.208160989335283,0.4806378549560577,-4.954421991653362,5.059236168784537,7.118939075739945
2.104,-1.8254520513546595,-0.7973057937140311,-0.3125228357891956,1.0931767687204683,-2.4217661657414737,-4.420777542623,4.6656820945599975,10.541786749304265
2.108,-3.2554330683615262,-3.2075398511649382,-2.6473504752411827,-1.9191844923914232,-5.214856813285451,-4.454900249384991,4.5784249499761245,12.323499975317645
2.112,-5.010743241205091,-6.128241200567572,-4.775507797945465,-4.969864961215308,-7.51005839276263,-5.205221805776091,5.155812527018497,12.50627003594036
2.116,-7.553689256008056,-9.37113075917182,-6.250503566069483,-8.232552927226152,-8.960399692686451,-6.463710299461127,6.466540763163721,11.63590139004964
2.12,-11.006353293026223,-12.61202004971824,-6.735158096230407,-11.702812803361894,-9.36717106553806,-7.69445031196301,8.217298283296486,10.502719972232171
2.124,-14.957508998242702,-15.432387061023746,-6.145265642583013,-15.073974663538593,-8.762531181071154,-8.22440511007835,9.846881584467155,9.759550503197715
2.128,-18.51721247631076,-17.3970895678558,-4.707129844102155,-17.76716627541009,-7.418156957910014,-7.532740942979217,10.747278319448924,9.60683606472412
2.132,-20.626102439282022,-18.15166703676732,-2.8850516012221306,-19.113204179400327,-5.757461070058753,-5.510185074920628,10.522354806376825,9.700289903976227
2.136,-20.4842316777831,-17.505422438063988,-1.2039099275194758,-18.610236113160227,-4.197950201176582,-2.555291448018579,9.147504818681,9.327566177239532
2.14,-17.916199474303994,-15.496886807130977,-0.04815635504678539,-16.15319466332494,-3.0078596272960567,0.5564732979000837,6.959108726648083,7.768992260827872
2.144,-13.482191605397475,-12.405740431885079,0.47313037417529813,-12.124007535497412,-2.2420736037804545,2.9828394785381533,4.494625837088051,4.685616988698712
2.148,-8.26424932458076,-8.688040993166396,0.5375577344827889,-7.279451866204909,-1.771479847271621,4.16820235017758,2.268553265717401,0.36320167437179407
2.152,-3.420719656228812,-4.850126931658792,0.5041004317198485,-2.476516749664711,-1.3767034894531207,4.076435551458417,0.6011262754204836,-4.306748912141757
2.156,0.287263971055836,-1.2988593254393663,0.742968110942229,1.641621768820869,-0.8474165314463562,3.1827051257469066,-0.4279533869030274,-8.106707628444383
2.16,2.765746929959505,1.7665694897411868,1.4861273723488466,4.862860269421958,-0.04175168002973351,2.2266103833858324,-0.905112580358491,-9.927231841262255
2.164,4.528500470610425,4.386299828557185,2.7665824924858953,7.426762048081287,1.1118716583174546,1.849271355892597,-0.9412571858101728,-9.178114794001885
2.168,6.341998643871648,6.7690290947089125,4.446891430793016,9.824746201366793,2.6308163060090237,2.292987277314751,-0.5676357724630634,-6.021810958005517
2.172,8.757994462298257,9.143683326136056,6.296496973816602,12.476778555055944,4.471276185354554,3.314714507152985,0.28115322067719717,-1.3279179250403104
2.176,11.772666516166282,11.608106486978159,8.06309139549262,15.438912176847907,6.496325623453458,4.346228623463958,1.6923145389687306,3.648122190317281
2.18,14.759122288301796,14.015134340248892,9.49021757914386,18.272537094829204,8.422180796849943,4.799504833545598,3.658682184634472,7.727583749493533
2.184,16.707616405055887,15.96372419626664,10.306196795553888,20.15728599748695,9.817647581335677,4.3592767124750935,5.995635503083577,10.244751045881458
2.188,16.654083049472547,16.910360207705253,10.22319140326988,20.201959195419477,10.194491741861839,3.1093351657159474,8.337708828521272,11.265806553370112
2.192,14.081630747772351,16.355111052347638,8.9876919424662,17.814503513956424,9.18016447131913,1.4385087023169945,10.233349565283334,11.498701716103824
2.196,9.127631692859723,14.051274321865094,6.493082907451026,12.972843819009995,6.707708103105915,-0.19645913048589136,11.296578548156504,11.920572206216093
2.2,2.533387884109743,10.159048023519745,2.9092497525239196,6.287347826239852,3.1206056882114126,-1.5071731694215487,11.3578603727276,13.285673272787335
2.204,-4.607025569922371,5.277145696144771,-1.2605581894306397,-1.165139617964087,-0.8785475850410194,-2.4737826977720943,10.540318872581793,15.729604764153919
2.208,-11.169093056510064,0.32276332365233884,-5.264987964789043,-8.157069035857376,-4.44163358080209,-3.2605133657818897,9.227657203586318,18.66147268017403
2.212,-16.262730216441014,-3.722959636016185,-8.328473885300923,-13.647890379467412,-6.872009484257205,-4.017438292372162,7.915692399544469,20.99724395149633
2.216,-19.36475158008875,-6.12432401532601,-9.935666339934414,-17.027391806108653,-7.873824054066972,-4.709690800540557,6.988948882799718,21.619595118645066
2.22,-20.316966351404517,-6.6383344978683,-10.027301788458487,-18.184843134248467,-7.63806497759299,-5.083704989152238,6.527938930631535,19.859113734007224
2.224,-19.248546133044783,-5.59182558565908,-8.996603563027634,-17.412854134658005,-6.726099779140213,-4.802824719818545,6.2424349017364875,15.764097379181749
2.228,-16.50040766317329,-3.7498712192659696,-7.47940075217258,-15.218016217138938,-5.811280675323815,-3.6712335977808834,5.584082902885257,10.051081221636423
2.232,-12.575091019939464,-2.017596986257672,-6.035994294523334,-12.126898790728887,-5.404922066424888,-1.8123845567461103,4.023670448626035,3.7865898299073706
2.236,-8.090634507307982,-1.092473849271073,-4.8953049216570435,-8.563859350733196,-5.6884779603948346,0.3111364580947793,1.3777658646567943,-2.0282973482869693
2.24,-3.6983322403277725,-1.2195239279344037,-3.8889420491552755,-4.821533056484213,-6.5078973118039585,2.0677622607327066,-1.981583235071298,-6.7517978569712795
2.244,0.03662757411802886,-2.15529087793891,-2.614604362626551,-1.1093639846061478,-7.504871258446315,2.92812026638353,-5.165516836488223,-10.160215680217334
2.248,2.7699488032162662,-3.3402628608274654,-0.7302562265704182,2.3744652959608175,-8.291296923715208,2.7026012071564764,-7.075675718700722,-12.293512428717804
2.2520000000000002,4.470457897239612,-4.181474890211462,1.8011819348593008,5.404931793837591,-8.56823949973841,1.617575046320212,-6.867068537101886,-13.226764410798296
2.2560000000000002,5.404099641177936,-4.2948488646944725,4.6559730307448035,7.75139255665465,-8.146815304511563,0.20091068572673976,-4.351911518585439,-12.927982158852046
2.2600000000000002,5.99752720289132,-3.602671570686482,7.310893914014912,9.25026792899564,-6.916705316038303,-0.9548814697162697,-0.13392494787183296,-11.288250213515312
2.2640000000000002,6.635282084809319,-2.25978765507233,9.318794186628224,9.890087418961798,-4.821477138973137,-1.4310563822189124,4.606478632404787,-8.280374476874613
2.2680000000000002,7.481772866767528,-0.48817427425757387,10.52616267455528,9.84959043882418,-1.8934294117186141,-1.1060648329889773,8.590539366759685,-4.116189900334803
2.2720000000000002,8.414495899522535,1.5491241244060348,11.101986388501018,9.448424008320444,1.6587421247270413,-0.12744492103752236,10.95089053506291,0.7128487139209483
2.2760000000000002,9.098018873238402,3.7522869592356756,11.36959508104826,9.015210039622048,5.396006952049788,1.2203411550729015,11.52390113910684,5.561761500088323
2.2800000000000002,9.145083774000284,5.967962694437119,11.558425274895711,8.714808279662748,8.700035612461647,2.6584947467262054,10.8037213104883,9.844761213602624
2.2840000000000003,8.28700706357347,7.860105794359356,11.649253135490028,8.423342976353894,10.956289502571849,3.9951969565645413,9.612224879457983,13.211225314255671
2.2880000000000003,6.466637111689238,8.888515576486014,11.409417969993171,7.7261113838518725,11.799908181903731,5.123182394783953,8.672266316298987,15.587850453478268
2.2920000000000003,3.8171384465509846,8.45664795056797,10.59157522362662,6.068074031897936,11.292268829514853,5.967009184424796,8.314516844594493,17.080548193621325
2.2960000000000003,0.5925144994938591,6.2007235521668065,9.164354395753577,3.026407791919411,9.929017976586806,6.439414500363114,8.443933075481993,17.824798941937956
2.3000000000000003,-2.892998707342315,2.2637628404409043,7.413219416479336,-1.4047828950790802,8.442833528977445,6.452824422663639,8.735741579036414,17.893515560555215
2.3040000000000003,-6.279960952357442,-2.612481352488146,5.829518821946891,-6.66687424377119,7.481593357165224,5.97770773609227,8.900989216263554,17.313369865430786
2.308,-9.140538837571285,-7.265735862218207,4.845270512671732,-11.722653083538773,7.32011254027546,5.094655066396058,8.840055102465215,16.142568473859683
2.312,-10.967972936769343,-10.490937029097239,4.5923433585743965,-15.350700559443709,7.773091680115243,4.003853775076891,8.617868611871643,14.532516237893901
2.316,-11.249931452200883,-11.462765639365074,4.833040089057988,-16.56290657235627,8.344971063934423,2.9688566777714414,8.301412201020867,12.694093290309183
2.32,-9.6440764399685,-10.022566095528958,5.109659400308914,-14.970006722955105,8.525217378168918,2.217586508117506,7.806038041949421,10.77357541799313
2.324,-6.175866460690656,-6.69071595068948,5.0327634693472305,-10.923320298044729,8.081318694893355,1.8545887797924934,6.87300753455321,8.742032383723313
2.328,-1.3427122335215813,-2.4224115506333987,4.522647644346023,-5.3743289382164505,7.1802477786881695,1.8276413787491492,5.209947747917852,6.400614750491968
2.332,3.97117939913835,1.767741802323485,3.853425012783333,0.4869367383738563,6.280974069620811,1.9665036185317604,2.698819221527458,3.5385172982880704
2.336,8.761258423583854,5.145838853930741,3.4763437001500677,5.651213913199797,5.878964014355233,2.068017135092873,-0.46247703730705325,0.16825970449019678
2.34,12.238525239481305,7.419446777583971,3.7282263701951877,9.58225045523767,6.240001275078555,1.981862195671738,-3.779778061594243,-3.3225800199472815
2.344,14.079884362372923,8.68972108930825,4.608108578374242,12.26440374399732,7.274392905305433,1.6594251396045365,-6.638696286116783,-6.241798791320321
2.348,14.462099304688536,9.257846242692949,5.760416529733334,14.01491367122776,8.605182535080417,1.1526957109829254,-8.545809117075464,-7.883527083426088
2.352,13.868061721484423,9.403066930335456,6.671170817174243,15.18492486736477,9.767597162198285,0.573049053976888,-9.292817343638376,-7.898158890919149
2.356,12.794906532520827,9.249473744694626,6.955119806174309,15.92011353004034,10.424042330510531,0.03797961132420369,-8.97887428331444,-6.521158656798207
2.36,11.516772346962853,8.752671764093861,6.552393259892938,16.09210515938048,10.472244670525413,-0.38299626311072643,-7.9106792609737795,-4.504337183750067
2.364,10.030429906321501,7.787620212370257,5.722784846772299,15.416624041859961,10.016906430133133,-0.7048547518724035,-6.461947881982724,-2.761335704084331
2.368,8.194337285016559,6.272263912402991,4.854844811388546,13.67376664975933,9.256222603585627,-1.026176163710943,-4.975759348898919,-1.9042319921443323
2.372,5.947066892385578,4.257130935672706,4.219282656443227,10.895310828933589,8.369040150693934,-1.4966495455980748,-3.7403874825796493,-1.9370710941259404
2.376,3.4577828411764813,1.9509690946386513,3.8238035850449137,7.419128172901594,7.471283735587917,-2.254129384295993,-2.997874736438689,-2.2869262333683764
2.38,1.1082482826162732,-0.32057380687820114,3.4655564785633715,3.8001547470691435,6.652848958656307,-3.3376119353740705,-2.9346867448052762,-2.149278119803739
2.384,-0.6811307679192851,-2.1949910073180376,2.9378358652398333,0.6366070008452311,6.039654840458468,-4.616582815283209,-3.611927230323431,-0.9566010249245664
2.388,-1.6732367801786268,-3.3749259823302395,2.2325475813348703,-1.6032885538602955,5.796493539781125,-5.786491544594583,-4.876096981095316,1.2933749997232553
2.392,-1.9347005040893919,-3.718325128550248,1.593477746289068,-2.676630731911189,6.045191085464921,-6.44844135215601,-6.334449237207195,4.038930654863179
2.396,-1.7792498787599698,-3.2818328418145484,1.372121369985905,-2.56315914834812,6.7459031228193,-6.254525800350507,-7.456528200516573,6.465930205668428
2.4,-1.5681951128817673,-2.3041070491926234,1.7692892825571676,-1.400679969644898,7.6237929563226885,-5.062273122811689,-7.784164332733667,7.934236229812996
2.404,-1.4864846800243185,-1.1180884384802994,2.6397028506811466,0.5961843488303771,8.224747009920804,-3.019717923005601,-7.144542402879665,8.27621051421147
2.408,-1.429040407114826,-0.020479518747663406,3.506017963004467,3.1940607048996412,8.104238731356531,-0.5211167934153309,-5.742515977767539,7.814930493250358
2.412,-1.0576776702274628,0.8505393367098009,3.8039869436753406,6.175091374381793,7.0651917652317024,1.9563974279506056,-4.061294427656435,7.120198046783571
2.416,0.016247183760015105,1.5863063517251703,3.239432207559503,9.363810319200638,5.328661494188566,4.056062017675913,-2.6021587488570503,6.669713118407117
2.42,2.024779943003068,2.4726532553645484,2.037867760214567,12.650621609991106,3.518707238828881,5.682568863842562,-1.6091574560221034,6.616620331104059
2.424,4.917011129935418,3.845284844498167,0.9088402908103603,15.99637878960192,2.434046172872229,6.99686611036941,-0.9465168669578361,6.775624228997913
2.428,8.350664861767541,5.889146827570869,0.70534488938398,19.38901046142206,2.6843231982309135,8.254244658729931,-0.2198040915341153,6.78234729949645
2.432,11.797913089835447,8.485079071061364,1.950864844172088,22.77089197130914,4.368652925716731,9.591306147323621,0.926555639433559,6.318535122390358
2.436,14.70538637124298,11.19572183937936,4.493825951546626,25.968094211455195,6.97882478524042,10.890981646695082,2.5166729531385954,5.273405607462109
2.44,16.624446506631443,13.406265231101713,7.505542678339566,28.665187442105548,9.587966795205205,11.815617124681694,4.15266607672163,3.7797583185713393
2.444,17.290830971614582,14.576518922767605,9.852711580833954,30.464546601141762,11.260511725082551,12.005417096761903,5.219994073956286,2.1571237050911805
2.448,16.65099089725834,14.475110480705837,10.655681108774445,31.016285211946922,11.486445245106438,11.331426769921563,5.279484847579624,0.8249259869558045
2.452,14.83893141803378,13.265546416029338,9.728556726668103,30.148785222424806,10.409047067282359,10.042223513322597,4.415637603442065,0.21849513602364823
2.456,12.11113354211193,11.386594380046745,7.636595938509572,27.911608362870368,8.709848596328811,8.688317307968191,3.2736594479625865,0.6905254120727022
2.46,8.737804825584476,9.258663913267128,5.3081030696192215,24.490080408304323,7.173264249846625,7.832412709464506,2.700622171646728,2.3585848694769993
2.464,4.888165606315965,6.979220799253881,3.4114800322487326,20.04318541382952,6.1584968963378515,7.689733314094383,3.1524918285005015,4.921068718581637
2.468,0.5602713446744474,4.187484676048143,1.8577415323375703,14.57261031193849,5.273475694165995,7.9008824028258005,4.195885547857074,7.536207586676937
2.472,-4.370996139809904,0.21792209864133838,-0.24283051267030942,7.9483097122656545,3.4781242756628217,7.602199944415133,4.471243650474207,8.925006698717425
2.476,-9.975968998366056,-5.49253469472751,-4.092723963584206,0.11440094134582068,-0.3717107240972837,5.806485177132572,2.235570761144686,7.764413778269045
2.48,-16.025709453147783,-12.925996090074932,-10.405972571002906,-8.606917408062031,-6.779741194315989,1.9305966737422295,-3.7006707348778036,3.28119404722338
2.484,-21.798220888153423,-21.177573724673152,-18.717204948795313,-17.285023235338826,-15.043037380236115,-3.7782241270590475,-13.09025103548538,-4.191828069072471
2.488,-26.09508510902151,-28.533818049788465,-27.225577947406123,-24.414569924021407,-23.2154991720912,-10.150652625540488,-23.931476772888573,-13.01102884036095
2.492,-27.545745985687745,-32.977178900214426,-33.33923592292547,-28.293994073346312,-28.7211146525799,-15.432555958698686,-32.991163025555466,-20.59676140916622
2.496,-25.115085371480745,-32.93079037887367,-34.72008294643592,-27.635032164462586,-29.395017005663476,-17.922999887285187,-37.0133646051778,-24.31924657776335
2.5,-18.620511878459183,-27.938970684983587,-30.34691494027686,-22.146642480097626,-24.49041089711625,-16.64835904000074,-34.1125958720753,-22.556175011096684
2.504,-8.99181128368923,-18.957129311811627,-21.061110904609905,-12.800805911653697,-15.145506551287554,-11.770433906586732,-24.665377002953164,-15.433468475488098
2.508,1.8985866968901064,-8.094531401598374,-9.312596735274951,-1.6066326355339697,-4.043805411468952,-4.533221490085907,-11.24452414081702,-4.871945281702665
2.512,11.802341403523087,2.098201797990896,1.7973691938037746,9.039793408999117,5.614161502068896,3.220858423680511,2.399237639458306,6.12197609380155
2.516,18.859871899836207,9.51460499675727,9.729758067452622,17.168029517556192,11.378531714981364,9.75331292783926,12.840084445048888,14.628729059629677
2.52,22.223112337273506,13.166484447718858,13.407976319532281,21.85337913860519,12.461025323603963,14.034351100722915,18.265010489727047,18.923319359556444
2.524,22.266235579255408,13.377120415098943,13.406834274052244,23.37426159986842,9.87963294707663,15.992448671397597,18.9508862724781,19.01535632337118
2.528,20.29083888369314,11.434201819839132,11.393708332252345,22.859686251584776,5.8010356305484265,16.332077247185453,16.762523731522833,16.397868473727158
2.532,17.866196270010732,8.89282466784448,9.16406188243809,21.620553663428723,2.439970597541901,16.04193323441791,14.007223485027453,13.167884954092187
2.536,16.118513808409716,6.875562833261029,7.783208817197874,20.50110983203558,1.0768880214344563,15.856787063391039,12.270641754557346,10.987515714786241
2.54,15.29738648050261,5.677645670004722,7.247934277490572,19.561676264734274,1.651969362088039,15.935520076685862,11.823862284117695,10.398079198315827
2.544,14.785658519841945,4.819525803641909,6.766576837266257,18.20380981966605,3.0701755969280384,15.880311708645422,11.836596196054643,10.780298050063266
2.548,13.512933168007066,3.465186308629768,5.419625005186049,15.624133463160433,3.9645409088186625,15.052281541455386,11.17404500594921,10.90486280863388
2.552,10.560629711864294,0.9617735373392406,2.7996922620153555,11.341985111486451,3.4767092341862735,12.995595017129972,9.250095501384749,9.742145677066219
2.556,5.672211588894243,-2.7665381794479345,-0.7249253114447356,5.528622609507693,1.6505099240354184,9.741948814686793,6.43728067314396,7.086248109809276
2.56,-0.5662113366624908,-7.150231685801259,-4.224257716788657,-1.0084405906351321,-0.7203049626129996,5.847173517160172,3.8408289558983597,3.6861607915166132
2.564,-6.928399460437731,-11.22680041961712,-6.723452226710151,-7.138336225859689,-2.617652128555619,2.162458984859313,2.6015770803014675,0.8538044802035074
2.568,-12.019104908466488,-14.060757125871305,-7.70087990193565,-11.834647084941935,-3.3590383010521236,-0.5194184714237053,3.185399937251077,-0.2162264040844093
2.572,-14.806149853769512,-15.126087201960217,-7.29406100385097,-14.507841971394328,-2.889978030039174,-1.7658844931711428,5.0795146747193485,0.9448324373688592
2.576,-14.982534749941351,-14.477351180722053,-6.133190184740897,-15.114103939755523,-1.7017869067772153,-1.6224028061533318,7.066374568573565,3.8329684427812936
2.58,-13.019206056351095,-12.66621134125512,-4.940910487051724,-14.041450217512079,-0.5045415524763257,-0.5166781605985307,7.890482401634472,7.186460111304314
2.584,-9.913269258330956,-10.47028794519224,-4.148681411500775,-11.873470404990144,0.12110060130885358,0.9748242040941477,6.911338672234706,9.535931794393036
2.588,-6.7665054664591935,-8.582301915225457,-3.7413333027050157,-9.169185008702016,-0.1049034782513445,2.3637098843041713,4.3830912954574615,9.821980489945872
2.592,-4.371350848052089,-7.385998954569345,-3.3732034927357972,-6.339102518439745,-1.1993653198887841,3.3882811495618625,1.2327335829629646,7.813627206477122
2.596,-2.970381998705534,-6.883363974082954,-2.6433068690358823,-3.623635604172364,-3.0376273264602105,4.020343927913018,-1.4945834076072515,4.1631735709274835
2.6,-2.26225688686759,-6.774381060158817,-1.3436356066197277,-1.127361911101957,-5.428545984378616,4.384495463987605,-3.174760959688683,0.10149443884893117
2.604,-1.6219174283739903,-6.624293644339218,0.45634224646323673,1.1409168825375673,-8.078221767859873,4.650083291816827,-3.833315777023472,-3.0792313569559155
2.608,-0.4286709018010697,-6.038454414752209,2.4979901529411563,3.2415095971743995,-10.516769851720369,4.954681922327836,-3.96848003661421,-4.529450720416662
2.612,1.6509987672955049,-4.788815029024136,4.5035294122407095,5.27867996731095,-12.11127957152587,5.374892760453804,-4.123648166694238,-4.137249214119947
2.616,4.532808563892331,-2.8697352769410145,6.296967928515301,7.347370226930025,-12.25038729460448,5.919035519137651,-4.498515631411237,-2.5201468116415526
2.62,7.7713328538732185,-0.4857520510490758,7.81810841665083,9.456183926950303,-10.641986010229857,6.524794940281481,-4.830943219067649,-0.7288863061448865
2.624,10.737059287175725,1.997030497669357,9.041228535050323,11.44499600662084,-7.561325029533236,7.049441281739746,-4.616214360587264,0.19743690296490968
2.628,12.819556036850145,4.122404839278715,9.885875633390697,12.952662984383778,-3.867799843832927,7.27480121766439,-3.498293624080361,-0.3540538784091041
2.632,13.573712789721185,5.4295228428140945,10.19754583741701,13.478713915983803,-0.7281996868384795,6.950291606730843,-1.5824668297495919,-2.3574094194104873
2.636,12.775770701076908,5.550381997626118,9.813053432654215,12.530639212290907,0.8512015562475881,5.877573156301878,0.5273318601541632,-5.210812676287333
2.64,10.402167034943432,4.303041399415633,8.664079933856783,9.804890868737289,0.4491804618119204,4.0147363254086486,1.9874044032130769,-8.022006873821738
2.644,6.59805472722519,1.769077556541788,6.849158034637185,5.335690076338324,-1.6041929185380468,1.5511272998273853,2.131976737742434,-9.982898849902085
2.648,1.675776114947439,-1.6797342159093205,4.618111523160451,-0.45711033706470516,-4.408264712949176,-1.099141827369749,0.8160964542544207,-10.657974397291582
2.652,-3.8659417093379034,-5.444763237859661,2.285570002663917,-6.838312965703608,-6.917958404701039,-3.399797213583497,-1.4988677212186303,-10.073017761214032
2.656,-9.358354128075234,-8.853087560819404,0.12819585412751167,-12.923507081391563,-8.391774523427557,-4.861542288529108,-3.9519754119608024,-8.596317614288637
2.66,-14.059774102091069,-11.368519126235697,-1.677502711609236,-17.885719669106493,-8.652976477418179,-5.222125811485512,-5.687859089789072,-6.714751990917193
2.664,-17.32609478198401,-12.772698375048321,-3.0526573372625307,-21.140293624332116,-8.067264878652395,-4.565855897544225,-6.246406554582109,-4.844586598986098
2.668,-18.791079419341713,-13.221814436402383,-3.97156144955693,-22.451963910802533,-7.295917268690346,-3.3152482339000926,-5.742945036478204,-3.2661989921020904
2.672,-18.47255560709982,-13.150317077648879,-4.4259789512206,-21.943562119581884,-6.980758947759796,-2.0936295896649426,-4.779356604514533,-2.1845861641818374
2.676,-16.745236554923395,-13.047537406449464,-4.429094609103345,-20.019885256474936,-7.507803686353554,-1.5050250557146683,-4.138999107701693,-1.8206285833666698
2.68,-14.172975990832128,-13.208035226612992,-4.0483370989165905,-17.234776909594984,-8.917512995384186,-1.9073261768485281,-4.4162764884365515,-2.428437538808339
2.684,-11.274534404850328,-13.577213940938236,-3.4232201173581416,-14.139164060524763,-10.93014176739075,-3.267357651209295,-5.7590677734153815,-4.18999217803912
2.688,-8.365082616070595,-13.787747190558775,-2.7379568808787553,-11.160368417011796,-13.036925854089304,-5.167213474761411,-7.819456085147067,-7.043013526349114
2.692,-5.541729541610948,-13.373847629625743,-2.1510735930053215,-8.541784555622826,-14.620257354303021,-6.965718179333635,-9.91645570130163,-10.573708824242658
2.696,-2.7928188477585536,-12.045895851287241,-1.714983444690688,-6.344848985130966,-15.092062327995109,-8.054632414953176,-11.320841553175342,-14.073887749178539
2.7,-0.15770408651178514,-9.887527104165883,-1.3458158892867687,-4.511100416578984,-14.066488045517872,-8.110742013027902,-11.525422013326988,-16.77562473645412
2.704,2.18742191404408,-7.351954761984189,-0.8692752803301573,-2.9519201721602712,-11.531834797936426,-7.232750807969296,-10.398756153221257,-18.16154432305484
2.708,3.9796761696657086,-5.059562389916209,-0.1303632515591744,-1.6301134635796188,-7.9441957951971744,-5.89404015097989,-8.186605753229742,-18.172441942744626
2.712,5.012818554931982,-3.5139988982475643,0.8879123956382955,-0.6104757031960162,-4.164514020452543,-4.728621447155547,-5.387593589450262,-17.194554019121824
2.716,5.266341587415354,-2.8900975317715165,2.0067676918338293,-0.06981240735808569,-1.2031092341144358,-4.247066459198322,-2.5898005158583146,-15.826258502643213
2.72,4.903416077675956,-3.0237073616538055,2.884432092429506,-0.26222017002419307,0.14762064861474755,-4.61405164910866,-0.3340424522257308,-14.552373179479218
2.724,4.121440147888279,-3.5964871510384455,3.1275750479185263,-1.452582397625065,-0.37424785742882705,-5.600607673306513,0.9647620798318712,-13.52983165445221
2.728,2.9482447439281714,-4.389581943877374,2.4275153259766284,-3.8299076293208145,-2.411193886123101,-6.724795256029665,1.0476650339337539,-12.604343669604532
2.732,1.1425788501205716,-5.440213421247108,0.6670750389353088,-7.407333461213284,-5.181302772274648,-7.503982418034411,-0.17503068764153795,-11.529975155212014
2.736,-1.6825236195004436,-6.985297142085642,-2.041414587653435,-11.93356328273569,-7.8591618890365,-7.683359932922485,-2.595485334663408,-10.232614284419014
2.74,-5.72406718929733,-9.21453584746746,-5.375054502444073,-16.845613377602376,-9.935087847602745,-7.314572049674098,-5.875719356861509,-8.925989285040487
2.744,-10.62866289150179,-11.98648470345097,-8.858501585627437,-21.31361639619638,-11.351089586738453,-6.6629523701089965,-9.469541335439317,-7.992465989475477
2.748,-15.363991696507355,-14.715278007042798,-11.955815058665962,-24.415063918616283,-12.365289269797586,-6.014844550415546,-12.731701490135038,-7.710929247928107
2.7520000000000002,-18.479649887261075,-16.535523207380606,-14.177798869486878,-25.408654959070645,-13.245330428975876,-5.505590325686171,-15.101211344507192,-8.01831465055784
2.7560000000000002,-18.70541559819526,-16.68412288677314,-15.195674003727731,-24.01628467433386,-13.998673400902362,-5.077134372293585,-16.29453023192559,-8.491895562326135
2.7600000000000002,-15.604999761213776,-14.900963557899331,-14.930046131406016,-20.58605536959965,-14.322193289267489,-4.576975297518402,-16.40333725888877,-8.584978718841285
2.7640000000000002,-9.921594309672628,-11.611035598154785,-13.572356933536526,-16.035433976822787,-13.790582957818515,-3.9192355755944845,-15.828912124139606,-7.985205066322578
2.7680000000000002,-3.3780619638391727,-7.764896492302569,-11.51763048975306,-11.555974677905397,-12.161419036535335,-3.1874155788332246,-15.073337838627367,-6.869645284968101
2.7720000000000002,2.0335945220206213,-4.405089579164269,-9.215269889619435,-8.177785614531786,-9.588502080426906,-2.602970061553151,-14.481023214652396,-5.864270984991435
2.7760000000000002,4.956165437396294,-2.1752952112080948,-6.9969536251995805,-6.380676765949374,-6.589061679332417,-2.3702827452234487,-14.064595831322094,-5.710455386852573
2.7800000000000002,5.293881149709023,-1.0420834073211154,-4.959545774291541,-5.933440156064989,-3.7771653865333974,-2.4947265755072294,-13.509729024779972,-6.815969105090971
2.7840000000000003,4.213739568193432,-0.37471091381485166,-2.9688853541664457,-6.04377172035538,-1.5233669771764653,-2.711487194487745,-12.353747886296787,-8.955000784913864
2.7880000000000003,3.4983085383582875,0.662526904383185,-0.80324971771131,-5.768090771346124,0.2327341682741917,-2.589989780846736,-10.247569468541315,-11.310160192334479
2.7920000000000003,4.5710810029470395,2.617631110688535,1.640396201339513,-4.482708070419676,1.8909590879784446,-1.7652101939302156,-7.1654465600349795,-12.845599632928042
2.7960000000000003,7.704062564359447,5.430586620376289,4.190693718007537,-2.1963302414394548,3.8596882746953725,-0.1704227978070776,-3.4596310876056577,-12.813490208610347
2.8000000000000003,11.833588668390576,8.442583136313715,6.384493729407609,0.4389780668196863,6.170222441735177,1.875437250046616,0.2548908565640886,-11.11699840073834
2.8040000000000003,15.079422827899634,10.715172590920474,7.61026094847557,2.4119149267653484,8.284168688783211,3.7868320486641096,3.3007845266836284,-8.330768380167228
2.8080000000000003,15.687396927607551,11.4732166409417,7.337402016579745,2.777912166804299,9.216067483207553,4.979620295883251,5.120715556627374,-5.387373918769754
2.8120000000000003,12.902052934687163,10.436268529584822,5.319313016549245,1.030353048369875,7.934999886992728,5.147694911309827,5.379111992165235,-3.107842034256919
2.816,7.317469428975755,7.891589485563031,1.6788170946434775,-2.736517794260976,3.8603234249835623,4.399221666083122,3.990527652252922,-1.824721124764892
2.82,0.5526175093575603,4.502123639319393,-3.1518681395475596,-7.906356576542862,-2.803031074893397,3.179195897602767,1.1162425245211125,-1.2885868816752009
2.824,-5.530273344433908,0.9985737869108107,-8.573102305844486,-13.571684308960357,-11.038322698027741,2.026542785508809,-2.8343858234586605,-0.8784451022270332
2.828,-9.633367685903977,-2.069383980028988,-13.954037301198468,-18.78344528049115,-19.308382503009284,1.3003997809555585,-7.208495980635689,0.014592197530419071
2.832,-11.442963280563845,-4.416738801790416,-18.698099909441453,-22.720318246784245,-26.030418568017694,1.0235140387821957,-11.16949363490562,1.6342696809742847
2.836,-11.496626862092626,-5.943687186670218,-22.243592478330243,-24.760912942012283,-30.024272035134118,0.9200737049854979,-13.861195736441687,3.7100934726995547
2.84,-10.652655924256123,-6.596838829527087,-24.066349655931504,-24.509759935227294,-30.775856404336196,0.6122201627117647,-14.662899073413428,5.555855717553186
2.844,-9.51481745035079,-6.2880108756226605,-23.748140455520257,-21.84296572538335,-28.454334193208297,-0.14365608199113922,-13.42598631063754,6.344906885272621
2.848,-8.14876671684874,-4.924016668678689,-21.12127283974405,-16.98455008743929,-23.73373486731549,-1.305577233864824,-10.554992532728306,5.448927583730665
2.852,-6.209767281350878,-2.5158732592919932,-16.41382488048066,-10.559522780649672,-17.527930516990068,-2.5572072454046975,-6.8572915155159535,2.704752042135624
2.856,-3.345039192181275,0.7175397980198568,-10.295661416894859,-3.5488140912600556,-10.746804349538365,-3.474995019078051,-3.210008557588253,-1.4861386336224314
2.86,0.4167787869773747,4.332443347841149,-3.751890529290563,2.897670906181588,-4.143058448699321,-3.754973385271569,-0.20712112477031042,-6.2569927593426655
2.864,4.547022921438611,7.75594539208987,2.19825495359828,7.753627695419027,1.7539884032255486,-3.3771954731721507,2.0256110558250384,-10.545636928665772
2.868,8.234308956068162,10.456449658837528,6.8235603592307825,10.409348406382037,6.64668170101163,-2.6262364447079563,3.7514200652251475,-13.440701978213383
2.872,10.784537150729648,12.108809631372878,9.895401131862513,10.838696387348477,10.449772624152729,-1.9524216603920195,5.330497375118966,-14.48006315846851
2.876,11.959318872605081,12.685421473046745,11.684258784949634,9.56398271631997,13.255734809204228,-1.7428174587689682,6.898987251483504,-13.784816086731553
2.88,12.0420039451526,12.427623181479476,12.732833564426187,7.430088854713517,15.26417831191793,-2.109207234939504,8.221305141976472,-11.9581384388066
2.884,11.621527259252389,11.734778448630209,13.530365241853815,5.300366478641536,16.685952178439948,-2.8026223239171486,8.810871724532262,-9.762644241456655
2.888,11.228170338907603,11.006449887523331,14.242142575059006,3.7875488465969056,17.624167834220543,-3.3038509414529926,8.231770949716065,-7.7315647449058815
2.892,11.036092221098897,10.482281586190084,14.62009370816179,3.104346504896398,17.965010955403727,-3.062947138615982,6.384483324367466,-5.928318702990964
2.896,10.801870220478577,10.148594824255156,14.13480706604878,3.065911080789988,17.353996592099065,-1.7757037965805011,3.5872175915706066,-3.9801285332673615
2.9,10.038987324943719,9.736156511690524,12.245569489977697,3.202509979244951,15.292123827382284,0.43286926343535015,0.40807172093843747,-1.386317017165993
2.904,8.31918758380175,8.82470820432286,8.672089402274537,2.926414254830547,11.345354137542017,3.0156849838056132,-2.6385136427948055,2.0588506341960056
2.908,5.526505719099305,7.0381985108225535,3.54954072395509,1.7113444026127809,5.399003572440961,5.217252413754295,-5.315789511010962,5.982815089190126
2.912,1.9296325926553664,4.252105608115585,-2.5860243901969397,-0.7510553746311643,-2.1627496711666936,6.39510644721895,-7.66708525018953,9.467341145435284
2.916,-1.9270770412847469,0.7311683239111062,-8.942024721362941,-4.435571727558909,-10.437412365573437,6.2934086606062465,-9.805807068006175,11.419786710835979
2.92,-5.435255449199985,-2.8870092882523295,-14.671640938177859,-8.938830097119194,-18.197992704048033,5.1359274071635355,-11.642905198932453,11.094090320365694
2.924,-8.122401814476234,-5.779870199777179,-19.053887697600715,-13.539151876023936,-24.231531502392386,3.4831366070375225,-12.778046779968577,8.468541412225704
2.928,-9.745591293282132,-7.226809377313657,-21.59843806234835,-17.362511580278124,-27.67782583104224,1.9329775515743677,-12.653038701779337,4.2795759178577555
2.932,-10.286863476979534,-6.878497772880166,-22.073190517906426,-19.62999132534469,-28.2302490928613,0.8267328651156731,-10.889614377555176,-0.307782755950484
2.936,-9.88045631506452,-4.867846504704232,-20.486502648249086,-19.9002262768808,-26.115263547045174,0.11664452007153159,-7.604986428680377,-4.213811411321103
2.94,-8.726747572190106,-1.7113916649410044,-17.054111939385223,-18.200148923796064,-21.895478116806373,-0.5237184732004607,-3.482514803727554,-6.855259076282664
2.944,-7.020941264025623,1.948518824875407,-12.160026558455911,-14.979515558723222,-16.212481597055444,-1.4187324318947958,0.4753311213642064,-8.248219346346104
2.948,-4.911624068948299,5.610882754410113,-6.32178783486961,-10.914264591121196,-9.618076824488526,-2.6188220292222013,3.3986081178846916,-8.799820279226424
2.952,-2.490226487668224,9.035198714834678,-0.15030090776849647,-6.651849437185831,-2.5753150600734216,-3.7988450824659594,4.95081753484169,-8.964936517554179
2.956,0.18658014696416103,12.165090823945889,5.700493954956528,-2.6289122323427137,4.420136914578393,-4.408646289139369,5.443208647044912,-9.008960813767771
2.96,3.049893805219426,14.933156363869841,10.607234541236721,0.9620823595852812,10.732164217394825,-3.994414744992355,5.599258292561444,-8.985184626158343
2.964,5.961500912570045,17.103098172037164,14.07278734868089,4.06505532749668,15.620128446892636,-2.4982122786176433,6.115096848238068,-8.886299357049438
2.968,8.680421094637722,18.288008721892595,15.825366148748913,6.607769151461241,18.45430711775316,-0.350035941514534,7.281754251799725,-8.78830994543091
2.972,10.87486035565837,18.142866538903434,15.88344134204391,8.409371119275079,18.99667718219024,1.7139759237199996,8.868277592371896,-8.844958695356354
2.976,12.187380038881429,16.611761720547122,14.543694406744407,9.205243119246859,17.560307111266354,3.014453541424473,10.301123106051932,-9.121535430891527
2.98,12.322923151964687,14.032398008902874,12.260694822349706,8.760308635232832,14.884180028574349,3.265637172100014,10.996288064517444,-9.415782573908473
2.984,11.132569543887485,10.994659056242256,9.447427462536723,6.9949340660342045,11.750269267354838,2.694890650663865,10.633445422896898,-9.241695451369196
2.988,8.649316662300635,8.010566574829966,6.276047995615329,4.040520082310593,8.53475872534932,1.8807106978763386,9.213746491181041,-8.051733593930749
2.992,5.063382380583107,5.197904753795058,2.5903933994902104,0.1973454410695581,4.9618354500479995,1.4064199163370859,6.91939416290154,-5.601803460473548
2.996,0.6672510678180288,2.2034281444049384,-1.9884644900398598,-4.163835291715316,0.2612861046606554,1.5377751115071305,3.9122956796019253,-2.214720363231436
3.0,-4.188241868970408,-1.5414699258767541,-7.774010505792944,-8.676556908328735,-6.297349805689521,2.112415950230343,0.24735250365142747,1.2661729620488131
3.004,-9.094407161306037,-6.345657516614722,-14.658933154084679,-12.97824697941661,-14.754054386245116,2.69273432107434,-4.014394430528796,3.860805662232565
3.008,-13.559849268306948,-11.851859176145979,-21.88598934740304,-16.658379220849724,-24.064842253128006,2.880414590134137,-8.584756461652319,4.969062143095016
3.012,-17.019543903383408,-16.987731842419976,-28.117161947213106,-19.231446319349004,-32.248506134678905,2.588384042245025,-12.811534950280134,4.699768067104515
