Timestamp,O1,Oz,O2,PO3,PO4,TP7,TP8,Fz
0.0,3.353761712787673e-12,8.526512829121202e-13,-3.410605131648481e-13,4.263256414560601e-13,1.0800249583553523e-12,2.9558577807620168e-12,2.1032064978498966e-12,8.640199666842818e-12
0.003999999999999999,0.31192704838360896,14.792873885659503,-26.436184092968347,-14.734466818548412,-1.7353686200112861,-0.47690421612219325,-16.83629843646804,-7.929124768314637
0.007999999999999998,-1.3807784449227256,23.289197682906263,-49.13413237611965,-27.65342923168288,-6.563118439957577,-2.7005586275988662,-32.64241010750965,-16.365744088660108
0.011999999999999997,-5.805934443840272,22.378783044178135,-65.54619270813421,-37.286013248446096,-15.709083489696297,-7.223331106390788,-46.323448063571675,-25.002456028788174
0.015999999999999997,-11.852003976743333,13.651210617724189,-74.94921412567427,-42.755015880304114,-27.671412412913156,-12.909581965530379,-56.73060413610659,-32.45882620350142
0.019999999999999997,-17.037859234901475,2.457661536264226,-78.24599598216486,-43.862406092925426,-38.83296677696106,-17.433836721548687,-62.78149692212503,-36.78642611434327
0.023999999999999994,-18.74880292809837,-4.885950926762035,-77.11962786226141,-41.01026226585208,-45.180324601700505,-18.484222226530505,-63.67560519413007,-36.45102945520898
0.027999999999999994,-15.565884941411866,-4.213925260289187,-73.05512082879065,-35.01700832487245,-44.19328434459561,-14.986024426089784,-59.133701235877425,-31.189102671273076
0.031999999999999994,-7.971030270217966,4.717841204860747,-66.79028279576343,-26.923014842119898,-35.915767971940085,-7.672023452304188,-49.593039830673604,-22.222392763250127
0.03599999999999999,1.9223879610087806,18.61854696896458,-58.43356665322392,-17.83476078586895,-22.72039838764877,1.2853858222364352,-36.27260419095484,-11.698857314327597
0.039999999999999994,11.402553002862533,32.74162809747213,-48.03945955027501,-8.811171214745883,-8.032110013749445,9.324341708151792,-21.03891013239854,-1.704832454791017
0.04399999999999999,18.363453321119835,43.34930373476479,-36.17932523607459,-0.7711316079703749,5.217551519591069,14.611528163559683,-6.072153654754686,6.564042114914741
0.04799999999999999,22.054101712750082,49.196335645753805,-24.0885651989787,5.6038802758268105,15.579012275308003,16.643729396824597,6.5939060554350135,13.022987086594071
0.05199999999999999,23.071627885406656,51.43511889395086,-13.308170899103175,9.950441929437005,23.122449457356737,16.111650707343074,15.522660738423554,18.252236174472046
0.05599999999999999,22.728477338778134,52.30312855753175,-5.07875761767275,12.2439072548826,28.71724937766237,14.23308380824733,20.171436948258986,22.740503850178925
0.05999999999999999,22.232428072169455,53.54406876008733,0.1424657728589409,12.751421417618218,33.12718319671262,12.029475995004418,20.932055644244656,26.349604618076114
0.06399999999999999,22.148632964318438,55.520172485867505,2.762010813291596,11.929443286422895,36.502029169702354,9.964299109571243,18.88963163253578,28.350190470097345
0.06799999999999999,22.362942820023477,57.37465349510086,3.7077299635886334,10.300550128983161,38.475842931190016,8.056779020032593,15.402447191331987,27.98059499050214
0.07199999999999998,22.452629704574406,57.95093694834654,3.8797749763114666,8.343800640423808,38.683544955400095,6.2671012208250545,11.659011437199865,25.136777225720266
0.07599999999999998,22.15072978078166,56.75683009471393,3.7091261292175375,6.418376429955117,37.250870798663186,4.809112979609722,8.374525244401639,20.711529634257317
0.07999999999999999,21.580123846671654,54.31822015440247,3.070958815101193,4.737836632617785,34.87761961928746,4.149959285207103,5.736934862629198,16.340166280709127
0.08399999999999998,21.151328102228433,51.784529607164046,1.563692762273405,3.389537632471189,32.474368526741756,4.713352888125144,3.5835134205646,13.682955133000291
0.08799999999999998,21.235914580571205,50.12562018405177,-1.0660246187714506,2.3732079205225887,30.603532168804122,6.52689283814658,1.6936542355236952,13.654212322991953
0.09199999999999998,21.875083358682616,49.52956852334154,-4.652604824207941,1.633556412348554,29.133838190756165,9.094983725884163,0.008472017934309406,16.040873601020962
0.09599999999999997,22.726238411593613,49.39915045746204,-8.664358904407948,1.0825808857745187,27.353091433393388,11.6120501155699,-1.3527144359274814,19.708888619475545
0.09999999999999998,23.255576963547753,48.86136740553937,-12.497502782546832,0.629096751482308,24.453585525287963,13.375945934068966,-2.2609101191090986,23.238782513805972
0.10399999999999998,23.03184278652452,47.39534428115175,-15.788523821369424,0.21299048169098,20.081821058534047,14.12971712550484,-2.8015550924394006,25.587150772128155
0.10799999999999998,21.94118355883444,45.14604849747056,-18.51824341295908,-0.15250308557395442,14.616377832843114,14.115492663972248,-3.3634233367414197,26.428398742665536
0.11199999999999997,20.220279917453695,42.7794291980432,-20.87440971138041,-0.36801330674487076,9.031602762540416,13.818986597116862,-4.495342302322001,26.05044790919368
0.11599999999999998,18.320433386974997,41.04479188422269,-23.003945177063855,-0.29496199766516895,4.457711833834935,13.593447359027493,-6.596271595163074,24.946155070643897
0.11999999999999998,16.7135329100052,40.35244880614965,-24.809734743893358,0.17599475891627492,1.713127205827817,13.428430459114168,-9.59025354391656,23.42187912794094
0.12399999999999997,15.752738306835909,40.630181370384975,-25.927406501103547,1.0716509170822803,1.0694447261093671,13.014200556629703,-12.795543663017497,21.46892159482718
0.12799999999999997,15.614759538216248,41.48240539115719,-25.892304549661134,2.3243279437163267,2.3199325252192295,12.04023148097923,-15.107912815119533,18.94081253696538
0.13199999999999998,16.31184760827034,42.515276232788096,-24.406652136110225,3.8017991454532023,5.050442094803287,10.516725768406786,-15.454381667397854,15.872963962395318
0.13599999999999998,17.718666579700653,43.59291939575428,-21.56069754130347,5.346704294275412,8.902008251614461,8.888923105152571,-13.30547981760057,12.685654495310871
0.13999999999999999,19.571919617860544,44.83988208202419,-17.860218609956064,6.8051183017065,13.646225407850636,7.84694190017558,-8.963480502757761,10.105838610042383
0.14399999999999996,21.460960914217935,46.41863465645676,-14.033498326455629,8.02988140650416,19.06139971877971,7.934088587930091,-3.4708248790066705,8.832609527502996
0.14799999999999996,22.866941056386167,48.25645443194526,-10.715940390717947,8.878089364966968,24.747371047552576,9.20459528312358,1.8248425795005119,9.157291064166998
0.15199999999999997,23.289279201022737,49.93905158798415,-8.219773404322211,9.209322879345393,30.047640262315156,11.152163923274315,5.813955400164332,10.763255306093356
0.15599999999999997,22.43279012404747,50.85922888459365,-6.518338571936624,8.90062314058224,34.17067778146881,12.957398568388044,7.991014480490264,12.832484144282034
0.15999999999999998,20.352276023311276,50.494819918830785,-5.414864021802174,7.895049673123907,36.44433940724599,13.904112383792153,8.485153803358742,14.40205243810658
0.16399999999999998,17.470249668459815,48.644812643874104,-4.7728397235807165,6.264277451102799,36.55607554734888,13.715858647453615,7.783962938194634,14.773895425194041
0.16799999999999995,14.435054617368223,45.48335476358329,-4.658556606780394,4.2405319246124975,34.6354558396763,12.632856052744614,6.362368756000137,13.778741211276156
0.17199999999999996,11.889872028998184,41.45844538160259,-5.324496130366356,2.177207911803947,31.146698396764805,11.20919452608814,4.452496057289068,11.774165897014882
0.17599999999999996,10.251218145933933,37.13554952838848,-7.0686535456862885,0.4312880432991335,26.66926387502366,9.967122414857727,2.049673645852863,9.405652347207933
0.17999999999999997,9.577149102453859,33.0422146424404,-10.04022855707376,-0.7781846061948556,21.673809054308947,9.128686248812414,-0.8895435304738157,7.275515507477621
0.18399999999999997,9.582325413669025,29.568275265302418,-14.088563100064704,-1.45057275109869,16.41190992617277,8.56736580611198,-4.221485042443646,5.697979345132353
0.18799999999999997,9.769708529356308,26.909493615356666,-18.742803960135745,-1.7794698113751792,10.941006273651453,7.97674104385294,-7.546857325641895,4.645940846138501
0.19199999999999995,9.623890228567689,25.065665762822448,-23.360594498561824,-2.0483379665058123,5.249474732169176,7.133586102970412,-10.369757477337828,3.8811450294336964
0.19599999999999995,8.799908105696886,23.89551305669238,-27.378844323368924,-2.500148470858676,-0.5924442652641346,6.079629804671299,-12.371561190081195,3.1698728151407067
0.19999999999999996,7.246378514287585,23.19225912959388,-30.496169661749718,-3.225072375398554,-6.3272602644784115,5.114137169889773,-13.589375716276209,2.4623962709976013
0.20399999999999996,5.233866638819677,22.771376029171506,-32.66657242353085,-4.110935044640655,-11.478171384513303,4.613939495587829,-14.353836999812643,1.9391868706513833
0.20799999999999996,3.2810804303621808,22.537800135646137,-33.9128691833007,-4.8679106140693875,-15.397517455621369,4.8015448600094714,-15.00695119717625,1.9135168462519232
0.21199999999999997,1.9944973856648858,22.519073997441126,-34.132067887989194,-5.132929688518175,-17.38899368640068,5.608110638402195,-15.596389422805942,2.642330666893031
0.21599999999999997,1.8457206044951135,22.842557527765905,-33.06214816726623,-4.633013039482478,-16.882021816705162,6.697848041036082,-15.779361954058231,4.140844697283455
0.21999999999999995,2.967261165352056,23.63235856761628,-30.43449276338265,-3.323547828774508,-13.628654456390393,7.632791838790467,-15.011443550196645,6.123509900319959
0.22399999999999995,5.056562305847251,24.875677286161363,-26.229709781825022,-1.4512358652823423,-7.860222406757657,8.069833613649052,-12.92318980927962,8.091054000030681
0.22799999999999995,7.440001864870169,26.334155643039878,-20.882481105324302,0.47735257928866304,-0.337110375030818,7.875914473891953,-9.649426274225448,9.518672842641081
0.23199999999999996,9.304577091167971,27.588422784027046,-15.282680343327002,1.823266307019935,7.773847664996481,7.121132122442418,-5.887386245379844,10.063306077947345
0.23599999999999996,9.99606504315841,28.18427038436556,-10.514116026397232,1.9976394128331094,15.169681124094723,5.969253516731214,-2.6241491715671827,9.670557355349956
0.23999999999999996,9.254606389324067,27.80767761795346,-7.437980802262473,0.6482271121466852,20.739052293251177,4.558758900973771,-0.6738921215078335,8.538675979314348
0.24399999999999994,7.282776765299786,26.416547333917208,-6.365557760568265,-2.2249876280648095,23.826027908797755,2.953489700693808,-0.3098915357761598,6.961311171434545
0.24799999999999994,4.606832201122188,24.228591155989477,-6.9879888670847095,-6.2647072828212345,24.30824453179747,1.1769144503721236,-1.2023679710638362,5.135682861471196
0.25199999999999995,1.818536961733912,21.575941265610425,-8.583342947841118,-10.85030360755269,22.479550602936854,-0.7030419053180594,-2.691211550666708,3.0659796528548213
0.25599999999999995,-0.6512256366912652,18.746379822213953,-10.392793028698577,-15.258240676644334,18.83716817340661,-2.5065545151574042,-4.220597358568398,0.6300913632308038
0.25999999999999995,-2.6268907926901193,15.91066224655981,-11.980626252078025,-18.855224801958286,13.894721875510754,-3.9510987972334988,-5.671574613705047,-2.2360458096895854
0.26399999999999996,-4.115638406527296,13.186527593360438,-13.388965238717333,-21.25366040641393,8.121451190215566,-4.743064955647924,-7.392160519606023,-5.356338635150223
0.26799999999999996,-5.153279433762918,10.746547673923487,-14.98949492055732,-22.369098616636506,1.9874733770032549,-4.706954156575421,-9.899944848756832,-8.256072782716728
0.27199999999999996,-5.700624283416687,8.84692365485239,-17.132101389538718,-22.369534695180164,-3.9859308556776796,-3.887757769934524,-13.444746020559933,-10.293633997003326
0.27599999999999997,-5.662434483662537,7.742076720357829,-19.832974459864886,-21.557890410443008,-9.263498873863796,-2.563397728523796,-17.71172743313275,-10.931992727090346
0.27999999999999997,-5.010677688909141,7.531335572554781,-22.721107920235625,-20.262182924944057,-13.456212519872565,-1.1539870491569673,-21.86071688707102,-10.006191156514433
0.2839999999999999,-3.9057423851179465,8.05502749601817,-25.28094883192722,-18.777033786731806,-16.512450339663587,-0.06446116785014055,-24.897043241231017,-7.836267973635586
0.2879999999999999,-2.7073182213750897,8.913974319207568,-27.193146531608136,-17.339026327380793,-18.788114776213547,0.4661240720163278,-26.145352898519377,-5.101501368932759
0.2919999999999999,-1.8431681009132035,9.621072147282348,-28.522302682431075,-16.106009200287303,-20.891796066058646,0.43910439057776784,-25.543331582934456,-2.5308253888440504
0.29599999999999993,-1.6047993648546708,9.824955635715924,-29.630470542980902,-15.130708464529675,-23.324086287931095,0.06458710335618889,-23.615694052818185,-0.5746646319389583
0.29999999999999993,-1.9897210180681668,9.49342104086702,-30.873363414909193,-14.339135500052066,-26.08473709995826,-0.35284844566899665,-21.14508118270942,0.7664722219330997
0.30399999999999994,-2.6927421826792397,8.959043610356161,-32.28082665087027,-13.543416394849828,-28.480324358273265,-0.5550069735338639,-18.750735424949426,1.8659029787561394
0.30799999999999994,-3.27322484422848,8.765916785342597,-33.41768324019051,-12.502289609262561,-29.305900059868577,-0.42857529975049147,-16.594329703516564,3.194340302231012
0.31199999999999994,-3.3973479107460207,9.389729809409005,-33.5107874171332,-11.014932007581251,-27.360790204957766,-0.02396434530623992,-14.361751599639774,5.010330059733178
0.31599999999999995,-3.010338197831743,10.992862969893167,-31.796992357879617,-9.023738710028397,-22.06040459365704,0.5014367049502653,-11.516524782101897,7.18587045231925
0.31999999999999995,-2.33411054817293,13.35897710515087,-27.91897895636231,-6.678007487754826,-13.82906293449821,0.9828978345615269,-7.665760731547152,9.266403010070917
0.32399999999999995,-1.6725622178494177,16.064125423087148,-22.157606176925356,-4.302766521480635,-4.032034833058788,1.341615179498831,-2.8383269066316643,10.732073975159437
0.32799999999999996,-1.1653867262507447,18.736798314518182,-15.360329608068355,-2.2639170428406032,5.524510884916822,1.6213814952916437,2.467139796495303,11.302749207032548
0.33199999999999996,-0.6658984705809416,21.22030676435861,-8.604659857821616,-0.7925785292175078,13.268547992907656,1.9510478776796845,7.470729572686764,11.099740750854153
0.3359999999999999,0.18493424208463694,23.556711771250548,-2.7948470432966133,0.13638739904081376,18.388225467282382,2.460048573808308,11.42662604405541,10.578495559900148
0.3399999999999999,1.729697183030794,25.826699725677713,1.5799924005522143,0.7878511658134357,20.965689887633175,3.2005959780597095,13.888440012901356,10.276009046295258
0.3439999999999999,4.041777853190752,27.973127494646747,4.416759066863733,1.4909934705632395,21.696805601881806,4.110844205435569,14.792517955414723,10.504012261595108
0.3479999999999999,6.800099263233051,29.715381188990932,5.797401061942082,2.407001313650767,21.391668815789103,5.0307882823810814,14.367176962041867,11.16331533986613
0.3519999999999999,9.377719287929267,30.617701496945983,5.807064144287381,3.392838237204785,20.5539802669349,5.763203675593104,12.957016533546948,11.794002340413044
0.3559999999999999,11.104780436395686,30.291002003331982,4.495940125861694,4.051626409157393,19.253467049015967,6.138587006484613,10.864620905563925,11.820649897888416
0.35999999999999993,11.563530478090797,28.615860704309966,1.9764359489007575,3.950383484442682,17.29951614737047,6.054249537632359,8.283362471860528,10.855917029302418
0.36399999999999993,10.780531370691278,25.880395984528263,-1.4460869244782089,2.9023643779390795,14.565278395006544,5.485193937768599,5.329430818069568,8.922480307063324
0.36799999999999994,9.20464541309002,22.713289440986387,-5.234038614777887,1.1514981704491447,11.205745984868827,4.475808652461183,2.127881846269929,6.471377707314332
0.37199999999999994,7.488336464192571,19.824620634939947,-8.737083053717129,-0.662205667427429,7.615008267909502,3.122255139146546,-1.119245638059283,4.188245445270695
0.37599999999999995,6.198035274571339,17.699576686917908,-11.441926790058687,-1.76895880468237,4.1733171717102095,1.565049226052679,-4.138816234365095,2.693982559541382
0.37999999999999995,5.593504133034685,16.40723055150829,-13.226011423428076,-1.6474990043288926,0.977298666282536,-0.004083699613602221,-6.680161252300877,2.2929234759117207
0.3839999999999999,5.571620802613097,15.631434942991518,-14.452033687441713,-0.3231364183045571,-2.229476259967896,-1.3477833062493119,-8.629115879930168,2.8849093410281057
0.3879999999999999,5.780741067663939,14.873645569420773,-15.797893860473437,1.5979887965249873,-5.854990173267424,-2.224455973680051,-10.05699849554071,4.0696657464736745
0.3919999999999999,5.829500564667114,13.708132778089634,-17.865008101557578,3.201073215163319,-10.086240137094137,-2.4599720250423616,-11.154213855761327,5.377807940252751
0.3959999999999999,5.472880118941248,11.966777636446182,-20.77925004293172,3.7012652326977786,-14.578607272022737,-2.026458344382263,-12.07706229217456,6.496201663975626
0.3999999999999999,4.699744608746414,9.789700387233324,-24.018223147545996,2.82171775778113,-18.42378944470977,-1.0856473670210107,-12.801439457850393,7.375463538441636
0.4039999999999999,3.7051190763247632,7.558559902869092,-26.58489232804527,0.913719579386111,-20.44979950528409,0.041158246388022235,-13.073227535026945,8.183295833981447
0.4079999999999999,2.770083182278313,5.728462686191733,-27.449358363534884,-1.2386863898069578,-19.74070305959799,0.9728662259169596,-12.512780599114194,9.140937591305828
0.4119999999999999,2.1216044153268285,4.635802721562868,-26.018493305924608,-2.8041834466238242,-16.105680739621107,1.4019400155520998,-10.832170181666243,10.342258934785605
0.4159999999999999,1.836275426177508,4.37080396560134,-22.408890029442432,-3.2769760303883686,-10.243560291379595,1.2046145335052643,-8.056517866986496,11.663102447232177
0.41999999999999993,1.8244522119089197,4.761530996495253,-17.407341361145768,-2.660021256147843,-3.5108774743159756,0.4740263300109291,-4.632890298298662,12.80512227947338
0.42399999999999993,1.909128231621935,5.478880047843177,-12.155191605529694,-1.3892203270023629,2.6055041884766297,-0.5368534845410977,-1.3391907227139654,13.437496986287442
0.42799999999999994,1.9383736670113194,6.178050030735676,-7.70911328757802,-0.07102497313303502,7.037418194546717,-1.538018634497348,0.9945875385865293,13.352711976824594
0.43199999999999994,1.8693844362369418,6.59905426319358,-4.674878424514304,0.805139636069157,9.442290913671513,-2.341040772143515,1.8270864015057668,12.54202527581674
0.4359999999999999,1.79052185772116,6.6048537450633376,-3.073825704344472,1.0349978104231923,10.153920318218297,-2.9415893259188124,1.145768352131654,11.159546893947663
0.4399999999999999,1.878183637273196,6.178510378725491,-2.4763811753286973,0.6906441574645896,9.84748108110125,-3.4993881909076663,-0.5277328283268616,9.410985303144116
0.4439999999999999,2.3148050912354847,5.412889481532147,-2.316047432567302,-0.023201637695137833,9.133785526265797,-4.235964116528521,-2.379390925540747,7.4442446006323735
0.4479999999999999,3.1911542621455737,4.483712681246288,-2.190565943780598,-0.9204368565991672,8.294759297141127,-5.2940785315063295,-3.681875807216784,5.32181061413894
0.4519999999999999,4.446449316387316,3.6044513816237895,-1.9910016469237917,-1.8843545651279783,7.27211034319032,-6.630644129807024,-4.115715029246076,3.0871304291285924
0.4559999999999999,5.860367571712231,2.969460025061494,-1.8443494933696911,-2.8253487901907874,5.857482128609945,-8.001598128025762,-3.8781855884644756,0.8631960896091186
0.4599999999999999,7.112151330712777,2.7033078943366036,-1.9518554202919631,-3.6139026266396286,3.938629609555619,-9.043467436285027,-3.540578120635246,-1.097474925323695
0.4639999999999999,7.884188415240487,2.8295839419048434,-2.455330673320759,-4.085506770758229,1.637578199244217,-9.417476445988086,-3.7521356887475577,-2.4826005118848116
0.4679999999999999,7.956936831900521,3.2413756701537295,-3.3959661710886166,-4.141872912072131,-0.74714743116715,-8.955384979084101,-4.935454129013124,-3.0920453550706952
0.4719999999999999,7.2680005155207255,3.682846660347195,-4.749193690719721,-3.8721836600991537,-2.9349454350017368,-7.7433434180879885,-7.100054379829544,-3.007477394716261
0.4759999999999999,5.918354740064615,3.7787503539146883,-6.486580028301887,-3.6044598627788673,-4.845074231470107,-6.103127384299569,-9.859839889960767,-2.6399643037539136
0.4799999999999999,4.130414507742216,3.133034964325361,-8.605449933598948,-3.816258920401083,-6.634230870635065,-4.474566816514198,-12.6098314661931,-2.5806960482855175
0.48399999999999993,2.1760293721140442,1.488952565117529,-11.107429180995837,-4.93290512331987,-8.550047623502905,-3.249396686496766,-14.76621546712272,-3.3129765459721057
0.4879999999999999,0.2878212210075617,-1.1318625350139655,-13.92392811083721,-7.113883946202691,-10.699154803640567,-2.631318105365608,-15.952527222069193,-4.927827959247679
0.4919999999999999,-1.4154231530988,-4.39352749042348,-16.827149109265292,-10.14021528014473,-12.879089682764857,-2.580864854925494,-16.06616163674653,-7.005784854750345
0.4959999999999999,-2.9657709312577936,-7.738878128480906,-19.406831789755074,-13.48335139473022,-14.600637896835565,-2.869826787317379,-15.241408165426265,-8.765431340821124
0.4999999999999999,-4.518471502289003,-10.576037072384679,-21.15958353414942,-16.525941893705635,-15.30697994944262,-3.2081890311669667,-13.763818196802731,-9.4277608165944
0.5039999999999999,-6.2535817419600335,-12.465082193203216,-21.66694759779614,-18.809676727766373,-14.659205875744533,-3.387573400591009,-11.989094584969052,-8.622231625799941
0.5079999999999999,-8.244909667007732,-13.241091504271026,-20.76546771514063,-20.160330836968456,-12.730816986389641,-3.3661189998183545,-10.271959642001775,-6.609056877009607
0.5119999999999999,-10.346388782778831,-13.020007524856396,-18.609175568627734,-20.620642769377127,-9.988182113833545,-3.253634570139184,-8.891090172383883,-4.176970708504086
0.5159999999999999,-12.161652579415659,-12.084427794140083,-15.593579061466357,-20.255633189143282,-7.053808367991451,-3.2145849020034802,-7.973723828326229,-2.2533690426657813
0.5199999999999999,-13.131562354830066,-10.713555420043122,-12.192721521425483,-18.97954502430116,-4.392180315629275,-3.3423556193292825,-7.44615145678722,-1.4292184418018223
0.5239999999999999,-12.719694563915937,-9.031926548434285,-8.805254977642562,-16.546616039861533,-2.091961969393992,-3.5763633525393743,-7.051610807088537,-1.6574920321768332
0.5279999999999999,-10.641757784943593,-6.981041134331122,-5.6725812606207455,-12.732238421543457,0.11646532977761126,-3.7219673214999602,-6.468727126106842,-2.3020080928254174
0.5319999999999999,-7.032960100382525,-4.4373920280972925,-2.8876739854174502,-7.5929137715251045,2.6083004802567302,-3.567351525919321,-5.490074422187718,-2.521696958193843
0.5359999999999999,-2.459981374318204,-1.3945251856207506,-0.4745007219727313,-1.632242623035495,5.530738318782255,-3.0317774054055917,-4.17009418167595,-1.7896623682026984
0.5399999999999999,2.254125791050228,1.9132359650850503,1.5199082263818582,4.262088947665234,8.586774942035731,-2.250100026280961,-2.8570840577108356,-0.24381516895391542
0.5439999999999999,6.325185460133298,5.040841220108064,2.9706514838870817,9.103358439941871,11.080931503119587,-1.5311314957161812,-2.0704365221929493,1.3348734799224076
0.5479999999999999,9.278044814142959,7.493301734951615,3.7051939055806997,12.177531617019326,12.205643339002563,-1.2054540116303087,-2.2495685554138163,1.9108976549091494
0.5519999999999999,11.062612126123213,8.920502394804771,3.610908584958338,13.3069690305133,11.419931811393099,-1.437156485236983,-3.4927080204518006,0.7538247449797382
0.5559999999999999,11.961857316049873,9.252705272774733,2.7500449493276165,12.855216910831928,8.72721993865025,-2.1093067010872346,-5.433918869874105,-2.1324808966878663
0.5599999999999999,12.342153961540816,8.702383064078845,1.3946734276228199,11.469512072294947,4.704135872828715,-2.8561216549940127,-7.35301029100674,-5.944089825440642
0.5639999999999998,12.383724750276087,7.643807320039855,-0.061828904872868407,9.698789605051502,0.27433958480355614,-3.2397853723095977,-8.484219548524834,-9.415109467356615
0.5679999999999998,11.936018355706437,6.427308097386913,-1.278686624656416,7.710248777328616,-3.6627947206479803,-2.9837916606102226,-8.368142287602723,-11.388411104692295
0.5719999999999998,10.587684987084913,5.224369613982503,-2.122468540638806,5.26853182449679,-6.558044945323218,-2.1395478660047047,-7.059782135839441,-11.324966534034502
0.5759999999999998,7.9180200112100465,3.9915274103575484,-2.7157396179909483,1.9747832315141522,-8.33623102969716,-1.0890188089942967,-5.067878509684306,-9.486401429893249
0.5799999999999998,3.793789743349407,2.559594817864081,-3.365263512980846,-2.3901917289990706,-9.29464846371377,-0.3700929299022846,-3.0643178189397986,-6.72623574526051
0.5839999999999999,-1.4418772788669685,0.8023382059377582,-4.412728557101445,-7.628228764573009,-9.850390115649589,-0.4131609962685161,-1.5333745982450182,-4.0351404376970095
0.5879999999999999,-6.9938151706528515,-1.2189238684792372,-6.061828727191141,-13.109352958559498,-10.284731246756223,-1.322468518778578,-0.5417072996356183,-2.0732849313599218
0.5919999999999999,-11.845793301992217,-3.2221155214158443,-8.249940863901656,-17.97273826254468,-10.606172497084799,-2.81759410681434,0.2349089660839354,-0.9292737636462789
0.5959999999999999,-15.087704779060005,-4.794061131314834,-10.629043375231333,-21.42165981661185,-10.578648562127228,-4.35866083930523,1.2558916324156826,-0.19074188360377775
0.5999999999999999,-16.184470285211546,-5.548380489799001,-12.660598797906914,-22.949196377167368,-9.872037739226585,-5.3854579631833985,2.7918851117981376,0.7633146867517553
0.6039999999999999,-15.083738666365889,-5.260199980812558,-13.788837943358487,-22.410650090383683,-8.233153352907834,-5.55291364242521,4.712173318769601,2.41860706132411
0.6079999999999999,-12.148970154452059,-3.9341740937441045,-13.61753400724848,-19.951288091273454,-5.6087988054017615,-4.853829143915846,6.512403643867856,4.900796471190233
0.6119999999999999,-7.984178445785233,-1.800401418162778,-12.022450797316708,-15.881583179824588,-2.187494021140651,-3.5890257689948157,7.569697634095405,7.942018278307614
0.6159999999999999,-3.2527939350432007,0.744552147880313,-9.181467129086798,-10.606070700585747,1.6305816196090746,-2.2227461833747384,7.470098733339228,10.997216888219327
0.6199999999999999,1.4347609487745103,3.2185402329261024,-5.5431254971611565,-4.638881817881099,5.297566140938898,-1.2040610923588702,6.217431828224335,13.417233480955247
0.6239999999999999,5.560022527716001,5.1463859478191125,-1.7678698793558283,1.3418385770858094,8.202393562212364,-0.8363429103519593,4.199094824265558,14.601636626930485
0.6279999999999999,8.708183266252036,6.140048020837185,1.3778279629942176,6.5140492848966005,9.766012259421927,-1.2259010811142161,1.9557013575795281,14.125227047276212
0.6319999999999999,10.587477163510925,5.951022322352742,3.188483699921221,10.063927779917776,9.550404982912596,-2.2994891975131395,-0.09654012816429258,11.852889273613755
0.6359999999999999,11.075218362253054,4.5087272606770625,3.2198913155935998,11.425814259865263,7.377509378363243,-3.856414366994386,-1.8316721011616437,8.039811075881744
0.6399999999999999,10.254109210827778,1.9384528304213404,1.4542283053723395,10.485820279182064,3.412846152294833,-5.623272229447593,-3.3857264419593776,3.3726569864591056
0.6439999999999999,8.409506810585526,-1.4263318329881258,-1.6461250300743018,7.628199656259881,-1.8101521337043778,-7.297959274300865,-4.970529457079806,-1.1209288566205942
0.6479999999999999,5.957095663393943,-5.070219423281742,-5.2390685183336245,3.5876950708297386,-7.4597140786777345,-8.594477936012254,-6.657409870091328,-4.328867036569136
0.6519999999999999,3.313169495055604,-8.387586944594204,-8.345829832979405,-0.8254296935090792,-12.577703574872771,-9.301863089448489,-8.270496600629372,-5.421474594198344
0.6559999999999999,0.7691752966700278,-10.82573022586405,-10.168221506718055,-4.995301451443197,-16.308642564547938,-9.342996465478336,-9.445405807983548,-4.177617150813376
0.6599999999999999,-1.5802829375297733,-12.048336077380327,-10.367366212270895,-8.6447337260185,-18.12113698284196,-8.802252033676723,-9.815921895148222,-1.0961486449652966
0.6639999999999999,-3.8178388405689248,-12.0421369829333,-9.183553311920605,-11.810534916822178,-17.929772653312796,-7.8965139623326195,-9.190721035760475,2.7991660014638455
0.6679999999999998,-6.1073847120692335,-11.13785105891668,-7.331541176512758,-14.6914040639316,-16.0944248121574,-6.880492483106309,-7.616434328054879,6.395501994816641
0.6719999999999998,-8.576603167535382,-9.92679427967522,-5.704642661352693,-17.469225976766495,-13.297167121377186,-5.932479104339791,-5.3142193400573206,8.959033472675173
0.6759999999999998,-11.222428948910874,-9.070961455550275,-5.012391958404464,-20.185673396712502,-10.331450818969358,-5.077225274722878,-2.5507155623703284,10.400894036929458
0.6799999999999998,-13.867558418667727,-9.062705423423324,-5.508876748839043,-22.70129637248141,-7.871812835313051,-4.1781391159995565,0.46502904482656504,11.215321903800941
0.6839999999999998,-16.155999509881553,-9.992865282331138,-6.92060501139872,-24.71147875072279,-6.26862877981165,-3.0034327339317315,3.587530508389932,12.138445604178287
0.6879999999999998,-17.58822824095273,-11.445956602445506,-8.57922299681178,-25.775595247476645,-5.435397992826097,-1.3410095594075528,6.663405788485193,13.722367573404881
0.6919999999999998,-17.600803765285946,-12.603281601574906,-9.675952985190293,-25.35417636297126,-4.879026517263469,0.8947891400329127,9.459545042654213,16.048081114300885
0.6959999999999998,-15.70178595028483,-12.542902243013032,-9.534287501614358,-22.903137536757527,-3.8874550939034407,3.6047076041120363,11.667196948860237,18.694094646246413
0.6999999999999998,-11.63879070046778,-10.623371887327437,-7.809156643307858,-18.05063814479155,-1.82343319178824,6.514607195335316,12.9969055402305,20.945616536109583
0.7039999999999998,-5.56152884421806,-6.7811786747515725,-4.580181261322537,-10.838455516010072,1.5765340941068189,9.246073436835786,13.308907967203822,22.098972987918614
0.7079999999999999,1.890861780011619,-1.6129888889693689,-0.32850284807977914,-1.912570576307246,6.007614957059445,11.419428201933101,12.69186758412991,21.691102951345556
0.7119999999999999,9.655166212862355,3.803970139410467,4.1877906108202865,7.483864210447109,10.602696372641674,12.759230669369344,11.42696851524272,19.58458977112673
0.7159999999999999,16.488452735896203,8.29453878258596,8.128682339594548,15.786812688929729,14.173293774088506,13.167969939057343,9.855549295475726,15.935556544492329
0.7199999999999999,21.32128921677497,11.001284947216561,10.789205976055086,21.587407580927618,15.607010621264067,12.751114862697705,8.21957684198162,11.123434717627106
0.7239999999999999,23.58692931712335,11.667072883235903,11.77577976479472,24.10239790185443,14.27315467500523,11.779022550854165,6.567993413429349,5.702896689307636
0.7279999999999999,23.369229615347194,10.643544466150047,11.093420197686441,23.402813601813193,10.25416750865844,10.589995609277935,4.784227026664325,0.3601358686673848
0.7319999999999999,21.29399209861208,8.635540569680927,9.119782428991812,20.27637312852039,4.3049309701986544,9.46378496489001,2.7127279257994132,-4.187135511725955
0.7359999999999999,18.20698885054901,6.3305354039142685,6.4638212970764926,15.7839520300775,-2.432694707850203,8.51390867923294,0.31457914388454356,-7.362132732922873
0.7399999999999999,14.795286806815056,4.104498141656791,3.755726023363593,10.748315961637843,-8.823890419810084,7.657674782119216,-2.230382623269918,-8.91605343881406
0.7439999999999999,11.356744535481084,1.9669899288135753,1.4526877513033583,5.458301300125072,-14.04200307101479,6.693755362147044,-4.525759883820058,-9.009494676601093
0.7479999999999999,7.824374263373102,-0.2607546797681266,-0.24810796860930395,-0.24570418756024992,-17.66321943673529,5.456283501720577,-6.064615318480719,-8.09896595417058
0.7519999999999999,3.999222084939788,-2.6779796652242567,-1.3621564254554812,-6.5786447184209464,-19.570007175429566,3.9619917282822144,-6.3866092981752445,-6.6653876515619
0.7559999999999999,-0.1567202011656832,-5.114828947067963,-1.9861137871411074,-13.3694592798484,-19.772388264508095,2.467272605400467,-5.229969716468247,-4.923372743228242
0.7599999999999999,-4.368479247022265,-7.159395322374905,-2.189989087860738,-19.87713258047188,-18.31052687071167,1.3767245424240855,-2.655670851674188,-2.715616212715531
0.7639999999999999,-8.136224796426745,-8.375292756936005,-2.018738702807326,-25.016044775723287,-15.310155678845604,1.0385179774930293,0.8971772111731866,0.30631884313754654
0.7679999999999998,-10.998197491805058,-8.567104893216083,-1.581005351156989,-27.86271109015729,-11.133917944359439,1.5487759167739341,4.672708100348643,4.320568540603176
0.7719999999999998,-12.800356462414811,-7.9260494727252535,-1.131260099847509,-28.14588760675872,-6.479296200793442,2.6788857069996084,7.781950645990264,9.023111362182021
0.7759999999999998,-13.795692454924563,-6.94799441568631,-1.0418943489466983,-26.41661343119432,-2.27747378475965,3.9846000703063282,9.484135613706314,13.601066555223156
0.7799999999999998,-14.485844561589829,-6.1586925264193155,-1.627219782023218,-23.768442854849752,0.6233340916635939,5.051840742274521,9.483798072642571,17.068526904335954
0.7839999999999998,-15.2853058445545,-5.793515836728034,-2.9106930766718335,-21.26301055101618,1.8643649235569342,5.730988408214557,8.09893608903775,18.796039924676506
0.7879999999999998,-16.221717914370117,-5.649445230967842,-4.4970972641176274,-19.40121530819573,1.817135777987403,6.212558148924586,6.172630873611695,18.902236189835094
0.7919999999999998,-16.867420511115085,-5.220705515784346,-5.6707814822121065,-17.945306383013758,1.4685567787684022,6.887511041225025,4.722474828092061,18.232812206386825
0.7959999999999998,-16.55398815520698,-4.038227073603423,-5.718163046192075,-16.185144046571054,1.9592019746411324,8.06960939311125,4.46221658954039,17.90096815100503
0.7999999999999998,-14.757782391268393,-2.016232222672784,-4.321903575466621,-13.474628899886937,3.980870742349339,9.758543581384174,5.4300184716963145,18.641062160959905
0.8039999999999998,-11.433292616361427,0.4280131526108448,-1.8006652313517009,-9.70460064465064,7.361909196030638,11.600264051745285,6.954499433113767,20.35965342294594
0.8079999999999998,-7.099507250450699,2.565328186218892,0.9852464120128275,-5.416842671488922,11.082787721277214,13.08748800796775,8.002078526079288,22.17058859889346
0.8119999999999998,-2.6203419722478998,3.758460458181389,3.0564796648658614,-1.4907856055467619,13.747416024972296,13.883592561342766,7.751274100566036,22.909660083084987
0.8159999999999998,1.1837844834432758,3.832901150036321,3.833040814786216,1.373013279067976,14.259896422726854,14.048186805886758,6.06652660694516,21.801104940344885
0.8199999999999998,3.8707296516759016,3.168777885543932,3.429704481964393,3.026896804430237,12.323167296670334,13.998928915604097,3.568589089288537,18.863349707037514
0.8239999999999998,5.460644502132595,2.4387615239397746,2.5086214422970556,3.8417975221640575,8.485287166818239,14.196590938516692,1.2072335725699759,14.792399507604955
0.8279999999999998,6.232213465987115,2.1238896700582472,1.7593525634205207,4.280461092964174,3.7104412198422096,14.725825060827447,-0.43629451955911236,10.406390865154549
0.8319999999999999,6.379580527184942,2.0947278753978935,1.3199315772062619,4.367495800046072,-1.2514031238129064,15.041214852984695,-1.6982311099569074,6.0360515887377915
0.8359999999999999,5.77595531710125,1.5534942704177581,0.5333183874590475,3.4399496699436156,-6.281811830669568,14.08731750783329,-3.8369816126015053,1.2965026022089887
0.8399999999999999,4.0139789612934464,-0.5724940960280378,-1.7429432302189696,0.4073470615893484,-11.81745059937603,10.791894215077946,-8.386402611277731,-4.565711783326606
0.8439999999999999,0.7165641491853876,-4.948083996453903,-6.392684129416267,-5.575489999887623,-18.29488785403072,4.703178572921502,-16.16184843584756,-11.945540091693488
0.8479999999999999,-4.056076096577101,-11.229370465866623,-13.25684300314083,-14.378625141861448,-25.453861552272173,-3.5699607782495377,-26.43973443295812,-20.22402854953009
0.8519999999999999,-9.565394465178883,-17.92334405576935,-20.796956475434797,-24.562083560960133,-31.969417171955598,-12.381864358540724,-36.82342370187075,-27.64706549118796
0.8559999999999999,-14.493783370100402,-22.845402509283872,-26.486184586273538,-33.69218151805478,-35.714636693408664,-19.57301907996407,-43.97898191736044,-31.909232055123198
0.8599999999999999,-17.388862020486954,-24.00525099596817,-27.810797376278288,-39.210708214156085,-34.613985821334126,-23.263365985699465,-44.942628325599344,-31.173928660549223
0.8639999999999999,-17.245605150644906,-20.488469121672466,-23.418532215556468,-39.45622177078758,-27.673161325817716,-22.54898711098957,-38.417002527840225,-24.990698098366465
0.8679999999999999,-13.942620224444624,-12.900278233988644,-13.826475915204242,-34.32881230363219,-15.643697118894096,-17.78426110037475,-25.410038686780922,-14.609018481471708
0.8719999999999998,-8.316776863570851,-3.1441737892571666,-1.301519512988449,-25.272296517611494,-0.9370424947406661,-10.34215782758963,-8.890449844520958,-2.501773046393396
0.8759999999999998,-1.8349830979614126,6.361129154603333,11.046476334097804,-14.607121580015132,13.219893954151928,-2.016211738023287,7.356888788111121,8.649877600176637
0.8799999999999998,3.9686062917126605,13.633112631904623,20.513087313459522,-4.570853541899368,23.994376669691036,5.628104330557846,20.129923600568247,16.98903252392597
0.8839999999999998,8.034513836520773,17.81125998601999,25.783312979798325,3.458020148193839,29.95838650333414,11.668026418147178,27.821944742725975,22.02848398831577
0.8879999999999998,10.059761286975856,19.267220501640537,27.20065306998842,9.207332823415527,31.419116019388753,15.865685089043666,30.641377274565286,24.490734958430608
0.8919999999999998,10.427074461017924,19.14467722486569,26.265172461785113,13.19550162301465,29.958558299541465,18.420150129921637,30.05843449522564,25.615520471237573
0.8959999999999998,9.872316860826004,18.622416406179298,24.690539608397984,16.118770221804766,27.467018051253177,19.64840014370361,27.856116490044087,26.361128882151434
0.8999999999999998,9.068806658448693,18.286552652859086,23.53461010756581,18.31675448831166,25.175187963198738,19.784694738587632,25.305096993808718,26.922262631409467
0.9039999999999998,8.344708154091279,17.936500388622505,22.82409268259852,19.595230341778006,23.174690568416878,18.974390998449167,22.81460319353289,26.75867831384403
0.9079999999999998,7.649727320297188,16.86860916285366,21.798382208322266,19.454994878365767,20.607810340956235,17.396366883347582,20.114349950274743,25.041035735509922
0.9119999999999998,6.718656534355773,14.415217106155808,19.555710344191198,17.522418508383794,16.3584618026498,15.359785424807683,16.74515679419352,21.213132433003352
0.9159999999999998,5.321561924603998,10.432931250749903,15.705643386863187,13.89480646613066,9.853575804290415,13.269762554627505,12.52398919456914,15.369584746716555
0.9199999999999998,3.4558392046897097,5.473613819262027,10.681181599567083,9.196752078230134,1.551532326235133,11.466260222526898,7.735788212989405,8.294943663250592
0.9239999999999998,1.3904240576262055,0.5865850599820988,5.574358386316931,4.328761761418491,-7.100222308338971,10.054098894709341,3.0186196407641432,1.206118132249685
0.9279999999999998,-0.4429858076587152,-3.1235237575089627,1.631763782679002,0.07706231989112666,-14.192389372500088,8.85463871215643,-0.9188962446199866,-4.638275302945203
0.9319999999999998,-1.6468784426122056,-4.953861385542382,-0.2933064553424174,-3.1892054350554986,-18.092636281499836,7.532087092234178,-3.556599504080964,-8.291782247833225
0.9359999999999998,-2.033043112323867,-4.853511246769699,-0.05343017814061568,-5.577632389619907,-18.049980472246546,5.835753070693727,-4.6723093018359805,-9.336861585436054
0.9399999999999998,-1.707386962874125,-3.3868246473106183,1.832639972247648,-7.4895017647326085,-14.433699485078535,3.8124927028122784,-4.299972555264276,-7.951663167031484
0.9439999999999998,-1.0252438187811777,-1.443003392064611,4.488427308434211,-9.333345025689994,-8.537457503630264,1.8462081121303981,-2.640468403422801,-4.850831360107577
0.9479999999999998,-0.4599700254348136,0.1419904180494882,7.064166770257657,-11.311949700140644,-2.07922840370793,0.4848902328067197,-0.014674871857778271,-1.11780371308123
0.9519999999999998,-0.4512308755320191,0.8743809345762656,9.006053192670493,-13.381829830573736,3.3683501467536416,0.13885210256512437,3.1303388961518976,2.053124312417822
0.9559999999999998,-1.2691777373017885,0.7157813983212122,10.121996686386296,-15.35658313307863,6.8142755165967515,0.8380954868550816,6.230187746015417,3.6759270115449
0.9599999999999999,-2.9390787691490914,0.0012773518996596067,10.483470314425233,-17.04739326991387,8.025240769576499,2.193868822002514,8.671184473409085,3.2765602523877533
0.9639999999999999,-5.229108773611415,-0.7550698674515957,10.266146629460309,-18.331635870380808,7.436712788221939,3.5901681713717153,9.953688260185686,1.056405015711789
0.9679999999999999,-7.696521650979548,-1.0819083089577362,9.63407606388239,-19.113715411788064,5.877642248061875,4.508350144334827,9.885147525627644,-2.1788344611131834
0.9719999999999999,-9.785701945737742,-0.7167027841034042,8.720402214381863,-19.23577260333741,4.238291319814607,4.79864760417604,8.674963482475732,-5.332489614705992
0.9759999999999998,-10.962493628427183,0.335052971101959,7.67587048581845,-18.44045942470666,3.188290550550505,4.730509765804754,6.859053227272284,-7.460029589016131
0.9799999999999998,-10.868417650595461,1.8354388163537578,6.7099384588299245,-16.457741688547003,3.0082563852356543,4.799019391169622,5.084134359616428,-8.144827233423257
0.9839999999999998,-9.450275424214851,3.4249589987554145,6.0571225320575195,-13.203277096147303,3.560868546513234,5.399391240864588,3.8347015146091508,-7.630069359508525
0.9879999999999998,-7.013665748431322,4.7522361381682,5.870800259394173,-8.973374734686217,4.377819276366267,6.555686292829023,3.241484651103974,-6.6436376728370305
0.9919999999999998,-4.180795035633082,5.559601430914427,6.104240697909631,-4.505606351687675,4.81723274729427,7.852670290391416,3.0766261770081655,-6.018004402218594
0.9959999999999998,-1.7302146344350149,5.703090741934602,6.46074051787059,-0.8204931631830732,4.251627276751265,8.609075975606174,2.9301817465609474,-6.298513460965296
0.9999999999999998,-0.363219177931569,5.11215387025095,6.47053255374658,1.118295021976337,2.242570755108659,8.201642306317808,2.4577482361530656,-7.53447049265651
1.0039999999999998,-0.47209532407714505,3.7506941103063127,5.679307574933091,0.7743963867432058,-1.314478516486929,6.357513140419087,1.5714306692757418,-9.337831767885746
1.0079999999999998,-1.997932066598878,1.620668602147589,3.8723679995048315,-1.7368432794805813,-6.110955760603474,3.268102604697333,0.47825905318495643,-11.148821886242786
1.0119999999999998,-4.454588702766159,-1.1844820172032087,1.217372244344574,-5.68647018333445,-11.445169101604733,-0.5191913638491314,-0.43132096414683474,-12.543311888644894
1.0159999999999998,-7.105337864346438,-4.394970055680801,-1.7437901507071274,-10.014304763918744,-16.347542451516347,-4.356418440883999,-0.7671732063975014,-13.413168666718775
1.0199999999999998,-9.229554486171082,-7.5230859336570575,-4.257284843023172,-13.718093372125168,-19.802963115926218,-7.751627001450288,-0.291207898970697,-13.937641853322475
1.0239999999999998,-10.367901070904736,-9.918056283535293,-5.6247462421004,-16.179465145313998,-21.019092322285587,-10.505477528666688,1.0250594704668856,-14.400531865284393
1.0279999999999998,-10.449631007042399,-10.940872991748392,-5.462380224393883,-17.286664948058046,-19.66197423920471,-12.680770271368601,3.020160592780485,-14.983832312789218
1.0319999999999998,-9.763446062044068,-10.211177368305698,-3.8364729803673754,-17.327426873261516,-15.970220315717484,-14.447231028601891,5.3977939422195504,-15.659892469733677
1.0359999999999998,-8.789611910611256,-7.804248631995733,-1.2208566615455538,-16.736866551563253,-10.681780786046033,-15.908089439357354,7.778526891611818,-16.234142773451822
1.0399999999999998,-7.995986083105436,-4.311918745365574,1.693751133520209,-15.853833335679155,-4.805574029512059,-17.010585471620743,9.726710410053556,-16.489678136911607
1.0439999999999998,-7.674818697799537,-0.6904453059416937,4.2481410867387694,-14.799263381407286,0.6911682924439901,-17.571458287145106,10.79100642291155,-16.326333640723988
1.0479999999999998,-7.868551010131796,2.059313425520031,6.017234316685062,-13.503770399729547,5.152585875679733,-17.38732661238373,10.60613441914279,-15.806631265065334
1.0519999999999998,-8.395063748686425,3.2458838994182315,6.891798215655967,-11.830897499124148,8.35609996803646,-16.36143027602793,9.033234133087717,-15.088558287649903
1.0559999999999998,-8.928392823706872,2.737120545927155,7.038442734915634,-9.69698596165233,10.462885895264662,-14.585761618573542,6.27711354167559,-14.307111317361887
1.0599999999999998,-9.10144285942647,0.9823668345622991,6.778681847770258,-7.111408594840896,11.826800399484455,-12.349931803185427,2.9017621080702156,-13.492127180605621
1.0639999999999998,-8.613010917308657,-1.1955399528246744,6.438003933896198,-4.1474921053204525,12.771944611845583,-10.082173136020629,-0.319997730855448,-12.583148079307648
1.0679999999999998,-7.323825590277693,-2.946820394202632,6.222312431530099,-0.8962696616777066,13.43820887316133,-8.24810655553938,-2.691507367222812,-11.537934809898161
1.0719999999999998,-5.327931558371802,-3.7344806049875388,6.151701641873615,2.5311982942107534,13.743420637537838,-7.239981315417481,-3.886772730060784,-10.462380710509024
1.0759999999999998,-2.9764866531345433,-3.5274010256341626,6.063091603242356,5.940208673769803,13.453676620440547,-7.283211674238828,-4.093754204618335,-9.661524924877085
1.0799999999999998,-0.8369023114532865,-2.7966176096485924,5.669340264219727,8.971871144208762,12.296402323025177,-8.386758170443045,-3.909264760368387,-9.5573589693563
1.0839999999999999,0.4449258990780436,-2.306640990304004,4.6521856487036075,11.088427278960353,10.06675770457241,-10.35245635605088,-4.024926989621235,-10.492436412469942
1.0879999999999999,0.3520167728911474,-2.797170661510563,2.7728645368235902,11.684293118643382,6.694328386559846,-12.84138205539739,-4.850396948393609,-12.515684665314438
1.0919999999999999,-1.3051834889238307,-4.683127541236672,-0.020968214206504854,10.304788256172287,2.278564214158905,-15.48222445403053,-6.272192654162609,-15.2730385675859
1.0959999999999999,-4.3000447803274255,-7.887356499967154,-3.530057593132369,6.870068352865474,-2.892073780628607,-17.981955353639933,-7.693152864465446,-18.07614751013989
1.0999999999999999,-8.06786610852123,-11.870652650399052,-7.305814369836753,1.78218223296426,-8.341116234636502,-20.188300202315986,-8.33661934634847,-20.13419385198904
1.1039999999999999,-11.923436287418554,-15.823681913188011,-10.744544168687753,-4.16500222195782,-13.436624252813317,-22.078382104413777,-7.664253736898445,-20.863812092538865
1.1079999999999999,-15.320173720999264,-18.940886185769386,-13.245691369841097,-10.045259614134238,-17.47526543921981,-23.68351969685,-5.668671983748936,-20.12644013584304
1.1119999999999999,-18.010890413637753,-20.663083761167627,-14.371070570834945,-15.100823507870928,-19.81317150925838,-24.992172422597832,-2.8798286128267137,-18.26938204070666
1.1159999999999999,-20.02768131355242,-20.799055329287285,-13.950643562809546,-18.937598564319387,-20.016565402944707,-25.901054668433062,-0.10011790345834015,-15.95987640907424
1.1199999999999999,-21.50555311961807,-19.507428551421754,-12.092121358249415,-21.518486953720867,-17.98555008008475,-26.2520607094566,1.9869169320882065,-13.888472686211571
1.1239999999999999,-22.45026315315181,-17.14876805001427,-9.107853607106563,-22.974006116203327,-13.992719346765398,-25.930349257120724,3.1115554167158734,-12.483081999742353
1.1279999999999997,-22.61672494551567,-14.099626418210619,-5.410292471830871,-23.357129936890487,-8.619248799746629,-24.964050342208793,3.4574601862614145,-11.76563866799006
1.1319999999999997,-21.583023127607703,-10.622028419080834,-1.4196751640395178,-22.495899166890922,-2.606078965294728,-23.54829185665949,3.444288086994675,-11.410005617661227
1.1359999999999997,-18.987018616240675,-6.840214622674921,2.486309963392614,-20.038878507415575,3.31805751602451,-21.959547438133995,3.403435997291126,-10.958744658142678
1.1399999999999997,-14.807486820095619,-2.8372052430800068,5.984309009612161,-15.683935820483384,8.558631142581362,-20.399295200457345,3.3611886653825422,-10.081989708043693
1.1439999999999997,-9.513262307591049,1.2156541025594834,8.804006134088695,-9.46441805046743,12.717682519814389,-18.86391917614219,3.046489800645304,-8.743384473085825
1.1479999999999997,-3.9661063764410756,4.991836415473244,10.744070032222908,-1.9180346429034216,15.600257100165663,-17.12914264432311,2.128444590401159,-7.187795583529805
1.1519999999999997,0.8782295099522344,8.047919275386676,11.692888554892306,5.965949304783862,17.17704280484986,-14.875029391808312,0.5172943646630301,-5.789761017225828
1.1559999999999997,4.328199928135291,9.963583321296028,11.636435490810527,13.022714536399008,17.531232664030995,-11.900618169957852,-1.4869834341011483,-4.860708779418019
1.1599999999999997,6.191571342242696,10.495936136933551,10.640696238416012,18.29010160460598,16.795180728248397,-8.311902438192192,-3.300303827217249,-4.52387379414813
1.1639999999999997,6.768728865659796,9.669493956693714,8.795820240750345,21.306222457752483,15.087883426267126,-4.566004045585942,-4.372204281741688,-4.734249020164498
1.1679999999999997,6.614459785917461,7.749588521521673,6.161380901081657,22.19350725221466,12.46845766744309,-1.3285522007536201,-4.524994903629704,-5.394397239714635
1.1719999999999997,6.199464235861797,5.1110677396995925,2.7636218843399547,21.495352588739024,8.933970171774945,0.7929509951782165,-4.09798692159211,-6.465153225398353
1.1759999999999997,5.662533229970904,2.0839673528753337,-1.329850508198433,19.861604893758795,4.481529735148342,1.509005064748635,-3.7939638943257705,-7.979513307098387
1.1799999999999997,4.766654790567827,-1.1500983035152785,-5.886021517657355,17.742515948924847,-0.7885607395078296,0.967518130289136,-4.2829277577998255,-9.93153366390834
1.1839999999999997,3.078910570178323,-4.542471538597965,-10.419633163685148,15.238351013783813,-6.554238503103079,-0.3317888945375671,-5.778478013192398,-12.114795048182714
1.1879999999999997,0.2695877955939068,-8.065305810594964,-14.227970672093079,12.164121692902881,-12.216215530251247,-1.7849539491153337,-7.825501313267523,-14.04262403690791
1.1919999999999997,-3.6388881738034797,-11.582217919573395,-16.56865704724646,8.28242875701153,-16.963378748482228,-2.965844450132863,-9.432635653612124,-15.049828201274067
1.1959999999999997,-8.197939182214213,-14.787990178059317,-16.917420525940997,3.5716886843074462,-19.960040861115885,-3.8085411889805982,-9.498622363877985,-14.574832923962276
1.1999999999999997,-12.678663340051571,-17.27608206045852,-15.181476445583257,-1.6103199026260882,-20.601679459880415,-4.600453028790071,-7.323194250410779,-12.476375905259374
1.2039999999999997,-16.349484722804846,-18.68694349635507,-11.755568159114318,-6.551030212173828,-18.716445989059594,-5.799395910752537,-2.9587855401255183,-9.20103297712376
1.2079999999999997,-18.742476550334686,-18.854222189487245,-7.384965485510747,-10.379130203675231,-14.624101148055615,-7.757471346227248,2.7660828447678796,-5.665751052449195
1.2119999999999997,-19.775916107454577,-17.86168761076169,-2.891447194825105,-12.332752062796771,-9.016892095551157,-10.473048514273614,8.558951639478892,-2.8715283380570327
1.2159999999999997,-19.677185660418218,-15.973916058681425,1.1057671177936754,-11.9747641580675,-2.717614469052023,-13.483553771958213,13.14450324324116,-1.438321257928692
1.2199999999999998,-18.768825075244422,-13.499072227368288,4.339219588107426,-9.270562499617427,3.558367996407469,-15.952313250372754,15.693478194913041,-1.3151832875264517
1.2239999999999998,-17.240108459875955,-10.65711942711414,6.844766456004891,-4.52914182630002,9.331684007180229,-16.92164118999426,16.025309852094324,-1.8465391394038306
1.2279999999999998,-15.03147110187183,-7.530358736933522,8.771036184028617,1.7380954845475571,14.343176741574098,-15.647467607944236,14.528169894261737,-2.162943456987705
1.2319999999999998,-11.914363722150483,-4.1293260038605695,10.170369448861493,8.944034849867876,18.435268772414474,-11.899072500622424,11.880850455887412,-1.695871073517992
1.2359999999999998,-7.725638883465763,-0.5227124245361665,10.896735916887337,16.48709093811567,21.427922450332517,-6.101773378189137,8.740395112587976,-0.5213161899555416
1.2399999999999998,-2.6212381045179427,3.0538900940969143,10.67822557510226,23.76407259384132,23.08911182457723,0.742076755315793,5.536939298037396,0.681861103303163
1.2439999999999998,2.8145174269357085,6.200081172423779,9.300382857144541,30.18102390263266,23.227927623545384,7.343839995020971,2.4368416846673426,1.044051830729586
1.2479999999999998,7.684658507081622,8.467826141609748,6.771951062554763,35.207852486262254,21.830202898887364,12.529243293828586,-0.5467934658263403,0.05178050538961543
1.2519999999999998,11.07831212506153,9.531976446993212,3.363068620802551,38.477732059364826,19.130174337029985,15.597692915512198,-3.4001360210031635,-2.0973257743316935
1.2559999999999998,12.427899169995726,9.328470007066244,-0.4999571233320239,39.89054698600012,15.557793539323029,16.50338800712052,-6.013049013655291,-4.55010732851224
1.2599999999999998,11.734863032946123,8.073994588527967,-4.409776173345563,39.65450265113532,11.564326441399771,15.779733439831034,-8.180950414379367,-6.243527677253951
1.2639999999999998,9.543160378994799,6.16245948598953,-8.117032911088245,38.2100096496024,7.42256989926409,14.237948775758923,-9.694267182297153,-6.4988558307723
1.2679999999999998,6.673488117751731,3.999227476092983,-11.548397366073004,36.05331032033382,3.127744356088897,12.589531848825573,-10.446349871195707,-5.416851386100461
1.2719999999999998,3.848917334807993,1.863242517420531,-14.69831025336407,33.53410614404493,-1.5210261693150642,11.159994775985979,-10.49414661850642,-3.842512528242878
1.2759999999999998,1.4163759173843573,-0.1291806537096818,-17.473465729997315,30.730123951351743,-6.679477420371768,9.814227916333039,-10.034090558713615,-2.9173602471237245
1.2799999999999998,-0.7186067822831319,-1.9834715162915018,-19.603868149771642,27.4571182929717,-12.198755932447511,8.107344503801869,-9.297272187724047,-3.46890407050887
1.2839999999999998,-2.9115222305972566,-3.730406129164294,-20.688971992373354,23.414860786599547,-17.49719086257528,5.5682945850294345,-8.413339626225024,-5.584133287355144
1.2879999999999998,-5.4882039446292765,-5.34754530628561,-20.366481558068244,18.384074812083327,-21.665349545783556,1.9609623804681178,-7.326029103654037,-8.604915441877893
1.2919999999999998,-8.513760226165687,-6.7379847434931435,-18.501675040173723,12.38254709122566,-23.770339330281786,-2.60270714733997,-5.7995894846635565,-11.523205114335724
1.2959999999999998,-11.732652716225857,-7.7554075112921055,-15.283051748609523,5.725776504601981,-23.22074245988233,-7.726258155451433,-3.5101053293265068,-13.534819588714527
1.2999999999999998,-14.685201795095963,-8.253831716056084,-11.159308547605633,-1.0045419552529893,-20.016046975424615,-12.890606568927979,-0.20460780160647118,-14.423768496826597
1.3039999999999998,-16.899146438013304,-8.108353989561238,-6.662912569758191,-7.05047454168016,-14.74952745807741,-17.608449272574944,4.139245268194827,-14.568087038529484
1.3079999999999998,-18.023211358750814,-7.204601360541346,-2.222800126660786,-11.58085851569831,-8.368622631695416,-21.490528891845315,9.216581863807733,-14.598788037770646
1.3119999999999998,-17.843109588266998,-5.434606544492908,1.9271328503791665,-13.798969966067034,-1.8291001813749972,-24.21561550833212,14.402330069881828,-14.944578574753905
1.3159999999999998,-16.221033013785018,-2.7248230371815225,5.7061957419773535,-13.073522045426671,4.18699204467157,-25.482574208490405,18.877141288699022,-15.550146941535786
1.3199999999999998,-13.058084203661565,0.8845947911909207,9.070243266392026,-9.096612286384243,9.360800215908512,-25.026825041333723,21.83475222245943,-15.935007371408574
1.3239999999999998,-8.352768526972795,5.166808194021996,11.911273410131798,-2.038154896922606,13.642318872927262,-22.72282221747264,22.712607884954195,-15.537056228256915
1.3279999999999998,-2.3412943744215227,9.708784655916133,14.049544735700692,7.377498641582861,17.071176221341375,-18.718892775541462,21.38201731101617,-14.103871840516149
1.3319999999999996,4.39453719915582,14.018031564914963,15.322612312742422,17.95380128280749,19.64470245046232,-13.502739476811257,18.21510011301598,-11.86801341197679
1.3359999999999996,10.976534446521327,17.703141311698346,15.697906654098915,28.284548721981082,21.31318022137657,-7.824580473210517,14.004861222653744,-9.400591453650122
1.3399999999999996,16.46075131372072,20.606535179698767,15.312368109836825,37.11725960952663,22.052874503199746,-2.4831342460474843,9.752712968087508,-7.236976734864584
1.3439999999999996,20.1543440332689,22.800546226321785,14.369180794661588,43.65431270968975,21.922802212452552,1.9291041461765417,6.3546901721319955,-5.520610540090274
1.3479999999999996,21.841077252937794,24.423147439159038,12.94161495050821,47.6523497372923,21.019565678163417,5.18371443986689,4.305400073787496,-3.896722727769884
1.3519999999999996,21.774156813086847,25.441610393709198,10.820628824008509,49.28160437321549,19.334810960423965,7.394921396575228,3.5357344144495073,-1.7346241535469744
1.3559999999999997,20.430422669094696,25.509119151136474,7.544071172818349,48.83980339916252,16.629691240902503,8.832892468719365,3.4717354770973543,1.4520356186130812
1.3599999999999997,18.17067682110337,24.041902390275936,2.6593783248090404,46.50793972520205,12.462969895732385,9.691062219893865,3.3210557994234478,5.648057159232849
1.3639999999999997,15.04427502945964,20.555143918832982,-3.878027716431461,42.31058235033379,6.453729415397902,9.948924418436945,2.483240335341179,10.26232641945171
1.3679999999999997,10.870516808749016,15.091981394246432,-11.395343935987512,36.29619185736283,-1.3200976625248586,9.409516483963671,0.8970026851393413,14.382575438427011
1.3719999999999997,5.562429390598481,8.491690135288081,-18.49491534123399,28.807979747605714,-10.016052988116826,7.8847361817643105,-0.8545342909146711,17.20817061249545
1.3759999999999997,-0.529589622243293,2.277683773582794,-23.431698002016674,20.63375022882883,-18.043936738654338,5.398861085222961,-1.7745121786356322,18.407887329807636
1.3799999999999997,-6.522084002171141,-1.8811747277113682,-24.7534703225092,12.883306837473356,-23.507651141996575,2.268087317244863,-0.9378173960967615,18.200916025009064
1.3839999999999997,-11.257423559953168,-2.8935462008903414,-21.92338616041343,6.622294183297527,-24.91858571715329,-0.9999561277581961,2.000290715349365,17.133788605668087
1.3879999999999997,-13.797710593219563,-0.7798574265052594,-15.61090510375925,2.4653619144955883,-21.848901997231224,-3.9255385748947447,6.537785310059007,15.717581993758358
1.3919999999999997,-13.873064341081772,3.2920259361944773,-7.479233649478374,0.37388149787329894,-15.176813145598317,-6.259440468367757,11.466480902170588,14.161192043962728
1.3959999999999997,-11.9977105298276,7.546761546651396,0.46223468688003777,-0.19554501602851815,-6.757502163328354,-8.03706449488709,15.391984267610496,12.370466217635112
1.3999999999999997,-9.158198266812178,10.454274219717263,6.649408589561062,0.1388986821002618,1.3378955049402066,-9.444030399967232,17.375264054443505,10.187979405513033
1.4039999999999997,-6.241435798430757,11.46789280239318,10.516860970985363,1.1285342491692063,7.652471126069031,-10.576722729156245,17.346464592463235,7.690992545771223
1.4079999999999997,-3.5600467599324475,11.23944342210234,12.5494898639854,3.0510370054453233,11.816804145399146,-11.270120107863477,16.060467243783023,5.324486896064627
1.4119999999999997,-0.7730855614754546,11.17594337513765,13.825751132443656,6.45852469451529,14.440030338700126,-11.116130348995284,14.614916854296098,3.751711224511382
1.4159999999999997,2.743128832686125,12.578489488440937,15.309126506454959,11.652954191567915,16.521851908252756,-9.687196001927077,13.77566814047168,3.4867874630363076
1.4199999999999997,7.302352939146658,15.83111788572569,17.283678373407383,18.23021056813741,18.736750577454586,-6.845344185067006,13.510431011400215,4.536634592150222
1.4239999999999997,12.491816028534231,20.114321090865815,19.227554993412014,25.015230130326017,21.015757033256705,-2.943894516369255,13.016838961386384,6.286065033429622
1.4279999999999997,17.221014249013024,23.803396384717416,20.160856542940564,30.482985535189073,22.63452519058046,1.2251747456648445,11.230118609286365,7.727298118919862
1.4319999999999997,20.24684788133709,25.3335843595396,19.25388929105975,33.4725934482376,22.721464142319746,4.7357470144525,7.527030500583351,7.94075876797433
1.4359999999999997,20.87166946835532,24.046956352931375,16.338188158222692,33.78078072351036,20.848947506699915,6.933963384128219,2.210958491325073,6.565121332736453
1.4399999999999997,19.37500881136839,20.527508243893863,12.032431440738947,32.270051554531165,17.31902769883709,7.727045092808112,-3.5147397213440854,3.999419342748297
1.4439999999999997,16.895164305142316,16.249366423296124,7.411365827439113,30.387688992117546,12.978935643215664,7.588030055771014,-8.105648259373993,1.2171303645191074
1.4479999999999997,14.799115786214315,12.743519974066658,3.424960607230787,29.337274444848845,8.696527666643306,7.270593904166162,-10.451391757738747,-0.7043517923702893
1.4519999999999997,13.907138199898327,10.7696266877183,0.4228108542502014,29.378838832363726,4.850534578544284,7.392734587941959,-10.414600603055078,-1.077784859611711
1.4559999999999997,14.02078803706172,9.959456855133794,-1.942377144031525,29.66107139237829,1.1686445543537047,8.11508202279947,-8.840168657518007,0.12525358077255078
1.4599999999999997,14.039578288316989,9.111181955644497,-4.373611956346394,28.70083220064862,-2.9718989368284383,9.091499557836869,-7.027034450780775,2.357555635353492
1.4639999999999997,12.60389671318626,6.95914651907151,-7.3694695733074695,25.245351805895552,-7.961085063265273,9.707507044780868,-5.983655787622411,4.8419239783033845
1.4679999999999997,8.89596178231659,2.961878369507758,-10.796048173003328,19.032091321578264,-13.468642391073445,9.460030676253155,-5.894363558192708,6.957943796562176
1.4719999999999998,3.138813351675708,-2.346521775171823,-13.861545389185267,11.01586255611619,-18.385614234692184,8.257717105265328,-6.0997747859855735,8.448119395572576
1.4759999999999998,-3.4703644433229783,-7.620484524086351,-15.52024976399116,2.944563222395118,-21.264082158652855,6.476209211628884,-5.576377372060961,9.355673212980037
1.4799999999999998,-9.325459524250618,-11.415500148173123,-15.06580179271532,-3.458155281103245,-21.03381003000777,4.752976153480631,-3.6005064827459137,9.780621334426542
1.4839999999999998,-13.126862851859187,-12.90909522309903,-12.564977174277374,-7.241187594922849,-17.584110122906168,3.6466037022837554,-0.20829151953512337,9.64862282928516
1.4879999999999998,-14.358509727673663,-12.23301093549253,-8.874718167604442,-8.501488094571869,-11.882772551103699,3.3612350720413815,3.8050236972540006,8.665666837332537
1.4919999999999998,-13.298029894964202,-10.253840319352094,-5.217085200394649,-8.067287895652044,-5.551914457701969,3.6990191237091494,7.327511382503872,6.504847576008615
1.4959999999999998,-10.6383232713888,-7.971925795403877,-2.5540026136550296,-6.83034869848052,-0.13284899731570476,4.2486842210691975,9.515506190025917,3.102528706720477
1.4999999999999998,-7.015949737351548,-5.929906412265154,-1.1067535873589804,-5.144933572408263,3.5633250064211097,4.685319192682073,10.175900946675029,-1.128010761247424
1.5039999999999998,-2.742336693323523,-3.9656794966304005,-0.2938937680564777,-2.6589973214368,5.693868175663738,4.9887374145637295,9.750180282915608,-5.323004330675758
1.5079999999999998,2.1225616909177916,-1.4400974906848205,0.8748433413711609,1.3323684061160748,7.108434136352116,5.443322332790558,8.949211828177795,-8.459219688287703
1.5119999999999998,7.472301331677954,2.2289812059789256,3.184487391631592,7.25121860958825,8.758179679716704,6.424511529863594,8.293204909756241,-9.769499896319758
1.5159999999999998,12.894106997326162,7.07027007358829,6.734632123924712,14.721896243223455,11.138226780182777,8.104572636206285,7.859038909260562,-9.075859150787437
1.5199999999999998,17.658909090792804,12.393167702146457,10.864223478823078,22.50820214840678,14.049298077434287,10.257908172425232,7.36617047067557,-6.862887920349749
1.5239999999999998,20.99139702834873,17.051550531388784,14.499717295537266,28.95200628906423,16.771564926079918,12.296340935452463,6.49791736199586,-4.061946049107064
1.5279999999999998,22.449374950501806,19.972397428234217,16.709042782448705,32.675158326012024,18.49569200876067,13.530229372878239,5.212148314125443,-1.655847612884827
1.5319999999999998,22.158661208144622,20.64148345590729,17.134586563716766,33.158439789353,18.728582103388362,13.513400940442807,3.812811198458803,-0.3002009245901718
1.5359999999999996,20.73686315568557,19.27839128828964,16.063133261610346,30.877842100841917,17.444953349428943,12.278847153134848,2.7292153810740274,-0.14847767068931716
1.5399999999999996,18.94476589394435,16.626308533235715,14.139713531453708,26.952122934852014,14.94295663585308,10.338593590022356,2.1734748652470444,-0.9033833117173344
1.5439999999999996,17.272464748366474,13.515624852030669,11.916212471631297,22.507152264516662,11.547401581734448,8.441075010036002,1.9106044172094698,-2.0291859815879434
1.5479999999999996,15.70941107012186,10.467190475577809,9.520601220593562,18.118592039586474,7.379877450683125,7.213074667026376,1.3278838856567745,-2.99313802164761
1.5519999999999996,13.836552006163402,7.551800780148369,6.652838036886351,13.634242308919966,2.3634136587361354,6.874221782720269,-0.19922074049827643,-3.410021663785301
1.5559999999999996,11.176812258567224,4.555204795574355,2.9051155600245693,8.446691354989525,-3.5344217125521027,7.168670772705809,-2.849678490387305,-3.050817028622987
1.5599999999999996,7.580976897039363,1.29540338993138,-1.8012406716316036,2.0416518207530316,-9.998068330191018,7.541257069839048,-6.094281732721356,-1.7835220307679265
1.5639999999999996,3.421528130691513,-2.1232426269107236,-6.948979046229397,-5.510281994833349,-16.21728423154218,7.450142449593841,-8.827907697814226,0.4437531086296076
1.5679999999999996,-0.5085472983137151,-5.276859601022807,-11.509071152524484,-13.397051067165194,-21.031403487685566,6.6500004050685675,-9.862976826105296,3.5376169538540125
1.5719999999999996,-3.3297316038697318,-7.624345268749494,-14.356857801312799,-20.33325247483299,-23.337027989980015,5.296402686712099,-8.545539704564362,7.1394775117514655
1.5759999999999996,-4.445890536371735,-8.800719440786452,-14.791891625689459,-25.099942109813128,-22.554391098230553,3.8319416846570675,-5.154779874230371,10.568156601064402
1.5799999999999996,-3.742359840982317,-8.811151917263487,-12.867289092759165,-27.058239472658897,-18.90773215054105,2.7389297641348094,-0.8552983981826401,12.934272607450112
1.5839999999999996,-1.5341698563715909,-7.99428837277992,-9.353192026576835,-26.382626836903,-13.360228998602906,2.2999448518821737,2.799460775397165,13.435242816729442
1.5879999999999996,1.6600461082562106,-6.784196792967123,-5.361006793476918,-23.914770528445843,-7.22424199087618,2.493243864410033,4.566799048567191,11.725928912128438
1.5919999999999996,5.355088140442604,-5.4361217360674345,-1.8419487797655165,-20.745812896892858,-1.6547951515494788,3.046431681366812,4.062932304883361,8.152761094886955
1.5959999999999996,9.19895042991493,-3.904209439477654,0.7661763471139693,-17.768927670462745,2.724749999015785,3.592314247586728,1.8823608507827885,3.6918385852641222
1.5999999999999996,12.903060218234259,-1.9722902989246904,2.5854245602502033,-15.42001780439341,5.887135864575157,3.8390342733246143,-0.7638127175241607,-0.4152229527298914
1.6039999999999996,16.109770890336222,0.4565015426987884,4.0473043763049645,-13.70457382303357,8.172123320249739,3.6553197761822958,-2.683664354335633,-3.1750826353381854
1.6079999999999997,18.342739752837588,3.106429895382462,5.521928851778284,-12.435869179917063,9.932012377888896,3.058282865993533,-3.278904029772093,-4.244089694566355
1.6119999999999997,19.129667403696658,5.30666312566791,7.063250332931602,-11.495650513763394,11.276124759768209,2.1585713887070597,-2.7502305296457052,-4.0008207180108
1.6159999999999997,18.254406099178595,6.262218200279676,8.407585280226158,-10.951184421957805,12.057823984961942,1.1098737639440515,-1.8514740485625225,-3.2490699571826553
1.6199999999999997,15.970871747551428,5.472069448973343,9.187889265183912,-10.981486401204165,12.061558642004456,0.09804495308708283,-1.373904880563714,-2.727718711928901
1.6239999999999997,13.015037177949125,3.0592866107226655,9.191480986997703,-11.70183689623991,11.233006138002565,-0.653042335245118,-1.6798248089653498,-2.7141442433639895
1.6279999999999997,10.34316094672613,-0.2131247933693885,8.472284450359439,-13.038867665169164,9.768599038984576,-0.9077397531400493,-2.5578853338629415,-2.9388178508343117
1.6319999999999997,8.700873611578572,-3.2859932184928766,7.244365776523409,-14.759734514236698,7.986408487700828,-0.4978312305538566,-3.4662390599678474,-2.8389932848367607
1.6359999999999997,8.249790564565046,-5.333316954197471,5.652936552020037,-16.642847091286967,6.071551121913217,0.5794539874841576,-3.9678972559104295,-1.9677786907013797
1.6399999999999997,8.468906829608386,-6.1900530385983075,3.6132110830931197,-18.656378645906443,3.892001615582558,2.1236900557742047,-4.047210465505486,-0.2618761562516738
1.6439999999999997,8.414233559036802,-6.406887293576801,0.8602712612109826,-21.002458213716636,1.0650336912603962,3.8081201327622693,-4.099595002442584,2.004039916984766
1.6479999999999997,7.215096066489423,-6.886710195003616,-2.800789682818504,-23.969490695852983,-2.732343054622106,5.35207409371651,-4.586553245100731,4.529728553152381
1.6519999999999997,4.549232367086006,-8.30090253934759,-7.204208228185053,-27.662447893161698,-7.385933958000351,6.696212476093933,-5.607788588265976,7.32226243043624
1.6559999999999997,0.821622087229116,-10.637145218311161,-11.714090677487548,-31.796443634608295,-12.17149300535766,8.040875030626921,-6.724575207645103,10.735621979409188
1.6599999999999997,-3.0542931597283314,-13.168952678681308,-15.425370053805636,-35.712717180215805,-15.969056952789288,9.683108671441005,-7.218368099838699,15.108814012888615
1.6639999999999997,-6.149416347750957,-14.879706573616204,-17.609957196338655,-38.644965183277236,-17.804139535394825,11.712897571964277,-6.679924509167904,20.19059033044323
1.6679999999999997,-8.00714293152123,-15.114872797476892,-18.164209736157318,-40.10941662663936,-17.441617631685403,13.743776008246641,-5.548099890798767,24.74053413346337
1.6719999999999997,-8.840429695315834,-14.056846119628972,-17.764617270690906,-40.181649771827324,-15.656740210859425,14.887525237416412,-5.202514670480014,26.68609079422822
1.6759999999999997,-9.31145167671275,-12.691135048641627,-17.57617917497555,-39.467131814517415,-13.944901068116451,14.058863992700935,-7.417524010494162,23.92249269016611
1.6799999999999997,-10.029463050621416,-12.251200543672894,-18.617643526737083,-38.753100290794464,-13.765368235805909,10.514603222436563,-13.375258115665929,15.434601968183415
1.6839999999999997,-11.06686857006207,-13.43042502442222,-21.100092109335492,-38.51466958234414,-15.685762586350393,4.368574432812238,-22.7588985257662,2.1487090469818213
1.6879999999999997,-11.787203374960882,-15.810665437908028,-24.11549452761028,-38.55253992207872,-18.902711525614905,-3.2135594525170745,-33.46740452795166,-13.014664433329017
1.6919999999999997,-11.101006258822963,-17.87366261261741,-25.901145788275244,-37.990777291541235,-21.465527707197907,-10.303031157453006,-42.20872183762913,-26.04377335332174
1.6959999999999997,-8.02248088527449,-17.63762211415269,-24.60167834665299,-35.669011469005454,-21.139499297183647,-14.8927536637093,-45.77493649203643,-33.35102870996707
1.6999999999999997,-2.233757301532023,-13.633173672531484,-19.16316973920766,-30.745486073254142,-16.502536047031754,-15.67360510446997,-42.406435486713235,-33.19323846905172
1.7039999999999997,5.6496143659969675,-5.711329647256207,-9.910380613477173,-23.20077015910192,-7.712674276321195,-12.543409891111878,-32.5751215625678,-26.310713318849594
1.7079999999999997,14.237764339381101,4.740591984197636,1.476668382247226,-13.988866486572078,3.4546968153781563,-6.610703695543634,-18.796716483504497,-15.48710137830858
1.7119999999999997,21.855183706025855,15.292674144764533,12.582579731813894,-4.757402209683278,14.328783312092128,0.30250838919710077,-4.577258984039872,-4.266072107715445
1.7159999999999997,27.10708547426475,23.43967155341852,21.167172255432888,2.7221818223333685,22.456596889072898,6.39932787021462,6.970046532758715,4.519324192136992
1.7199999999999998,29.259843724037637,27.55054114768791,25.937301753322572,7.1432495910203215,26.536469200388638,10.530936174634917,14.166150361412292,9.68757071413711
1.7239999999999998,28.30618086136019,27.353333537135768,26.846109415396313,8.01333568791324,26.72349887458222,12.438986799628765,17.036062687804588,11.734307021553832
1.7279999999999998,24.774931815773016,23.79194941679816,24.843053435096408,5.6630695575950085,24.223616230601692,12.577674951926383,16.805166033645946,12.074992781417677
1.7319999999999998,19.459290899707412,18.417579513029523,21.27422683484201,0.9846265583882996,20.473534640915204,11.689112364676475,15.005029025980548,12.023442179288395
1.7359999999999998,13.208433393745509,12.68136328397577,17.259462113970585,-4.93957903687442,16.39797809992342,10.387033016815622,12.702555558511449,12.08926047247951
1.7399999999999998,6.830629662712454,7.474962571990545,13.347280164802214,-11.134090240311707,12.133388963832658,8.9622120470558,10.232948678147295,11.932551515805244
1.7439999999999996,1.0573675902887771,3.0811906421604363,9.561866233028923,-16.863744966180093,7.315117649007334,7.456214153316978,7.450824538624147,10.888338661283342
1.7479999999999996,-3.5241094443663314,-0.5588875577905128,5.723746563799068,-21.634783843029254,1.6808439446413104,5.871871476405431,4.223834294241897,8.653652972156124
1.7519999999999996,-6.595374405818802,-3.5121155534307036,1.8042526815015663,-25.1457647047273,-4.427850574151307,4.341566150596918,0.7976830881598289,5.67309254184147
1.7559999999999996,-8.22435174664679,-5.6792871774350715,-1.901443010319781,-27.25988139031324,-9.983900631387769,3.131834885371063,-2.1984577198163606,2.982527418713289
1.7599999999999996,-8.861046038900895,-6.858517101340112,-4.848759509860429,-28.002870395590435,-13.664662888326347,2.4929003117067623,-4.067191703910794,1.6285109614327666
1.7639999999999996,-9.14421396151738,-6.945842487879418,-6.480501762032873,-27.54390027303816,-14.471647843562096,2.4609061256160203,-4.438029494087459,2.027637419192615
1.7679999999999996,-9.584352774578292,-6.090843553868581,-6.473239894933613,-26.127567270523286,-12.212765870575822,2.770427758086953,-3.4676125744808814,3.655831182099064
1.7719999999999996,-10.281755717613123,-4.670440737996614,-4.8607982539979275,-23.966896983999504,-7.576002052040167,2.9515807241950824,-1.7231893530406523,5.2564374782232335
1.7759999999999996,-10.84605667845426,-3.0856911621740437,-1.9966355787373686,-21.15861885259801,-1.780066933791204,2.5634269193178625,0.14895177632570267,5.44812087174796
1.7799999999999996,-10.596132460250374,-1.53594776931277,1.5958825352336135,-17.688998053483374,3.966749155724756,1.4385955427351291,1.7545454696901288,3.408029772930604
1.7839999999999996,-8.93371707937149,0.07465415389197005,5.395033877369315,-13.53920628243668,8.896455599518958,-0.2031813727262488,3.078614491638291,-0.7246866873792897
1.7879999999999996,-5.696765159769711,2.0148057289607095,8.979203843097821,-8.855238774458485,12.780027256088943,-1.8440518541938218,4.333062749471537,-5.920872656713982
1.7919999999999996,-1.294436371901611,4.460267736501919,12.035008567007026,-4.0719594826050525,15.708440972646713,-2.915085177472065,5.650051367570086,-10.73701114301366
1.7959999999999996,3.454921738280973,7.265217469108393,14.326483852236379,0.11202387704270222,17.773978820884622,-3.0725200505949033,6.858060524993562,-13.929593587092313
1.7999999999999996,7.665454387670252,9.9054129599308,15.677635542012467,2.9232028588894536,18.877075033127767,-2.364853223281898,7.493680015611972,-14.917244276470228
1.8039999999999996,10.711947473550026,11.647988904271187,15.999110027025381,3.796197324818422,18.78507280542908,-1.207965603820412,7.0579944429591706,-13.90388349843306
1.8079999999999996,12.374381104489657,11.865739927941831,15.333309818365251,2.6167164792295807,17.372564956339374,-0.1747976422029751,5.356296594390187,-11.653665976338743
1.8119999999999996,12.753631466992374,10.326052337317378,13.86596630546228,-0.2134049892611074,14.83938498335192,0.2903612478858122,2.691468820058617,-9.082587739800147
1.8159999999999996,12.072457928887161,7.308491332650192,11.864584963504967,-3.9329783906923694,11.715871813726153,0.08831562151681283,-0.23001611954077816,-6.886268771952018
1.8199999999999996,10.513847930113116,3.483375108101427,9.563436424517931,-7.7264830233089015,8.606976314486928,-0.4924638228585536,-2.6486886334696464,-5.362956962297176
1.8239999999999996,8.189533527612184,-0.3803292280754249,7.060154604414038,-11.040496078372598,5.830842806062719,-0.935713375256455,-4.16224381340362,-4.467512757139048
1.8279999999999996,5.2274252999468445,-3.717761884529864,4.288878559471414,-13.752942598768641,3.1948429484045846,-0.7847023044996604,-4.959362042288376,-4.007983224073541
1.8319999999999996,1.8724457224789148,-6.330580413869939,1.104757058744326,-16.117062174982493,0.08272130736440886,0.0911688101987238,-5.724027558329908,-3.844282644460691
1.8359999999999996,-1.5105473846415407,-8.340884085016114,-2.5640178601524894,-18.52212661437534,-4.155701042232977,1.3895335402376077,-7.242678333646836,-3.9791805889253737
1.8399999999999996,-4.556294000237358,-9.992821030948107,-6.577496607843386,-21.191948120901543,-9.723835769333164,2.4954525916855346,-9.924910444138732,-4.509600965726349
1.8439999999999996,-7.05712809304714,-11.425188228301522,-10.536274803228935,-23.974643205842312,-16.088418719969013,2.782671056178515,-13.512135653292717,-5.4993593115232215
1.8479999999999996,-9.034207107858492,-12.5470294839306,-13.876088771141895,-26.333449580651177,-22.073129171039,1.9506651530900854,-17.151022569395536,-6.878301170680061
1.8519999999999996,-10.646959045592666,-13.073723762902773,-16.06549081749108,-27.546717905873265,-26.315406713782068,0.21564922759898764,-19.799697548625772,-8.44776631014247
1.8559999999999997,-11.98323303608322,-12.68444810006713,-16.805604902735467,-27.019906230242213,-27.846134040018114,-1.7548540454354224,-20.745075271728638,-9.986735227752433
1.8599999999999997,-12.891145341268384,-11.216684782626999,-16.132408873844724,-24.567252184522204,-26.494267084865896,-3.153249488095753,-19.95950498705679,-11.398411691579895
1.8639999999999997,-12.987676316777652,-8.784436598726643,-14.365324896172751,-20.531008891846795,-22.904858693603273,-3.4366056820254016,-18.09120551928754,-12.797217921235642
1.8679999999999997,-11.887206408116981,-5.759006711612528,-11.934964501245304,-15.688676496087282,-18.182739984764794,-2.6156615195577615,-16.099030968258376,-14.45344434535582
1.8719999999999997,-9.524022410989346,-2.6247100551177027,-9.198616884991225,-10.997616245924291,-13.381775075799396,-1.2716522181162873,-14.750260712807176,-16.60806142056572
1.8759999999999997,-6.366401177725493,0.20866313134365555,-6.353505635355759,-7.293772345085927,-9.120289086143657,-0.2837770921323681,-14.262708344856946,-19.25230506618027
1.8799999999999997,-3.354944005548532,2.5281439796654013,-3.484283758743004,-5.064279110014013,-5.514004050053245,-0.4054095991905342,-14.282889557402086,-22.006624653948165
1.8839999999999997,-1.5534936312233185,4.309834415864771,-0.6973945561553592,-4.378691610545502,-2.418415015382834,-1.9111618191509478,-14.19122872952812,-24.200569835158603
1.8879999999999997,-1.6863469240688573,5.598057690699079,1.756848531936157,-4.988021224987278,0.21357305700485085,-4.4983616004992655,-13.542368026889562,-25.14560619425174
1.8919999999999997,-3.807165052295204,6.3502498496627595,3.472689388087929,-6.526141302583255,2.106375392312202,-7.486097872048049,-12.366369229898737,-24.483931805552857
1.8959999999999997,-7.292011350054054,6.357617955738533,4.015245371794208,-8.715336228235174,2.725359990861307,-10.185510789939144,-11.15936950354262,-22.433015555809106
1.8999999999999997,-11.166587009721297,5.297820947531363,3.126057575153027,-11.474544567854991,1.5755877661358682,-12.232962350399248,-10.576682234768668,-19.782720910563512
1.9039999999999997,-14.585071767868612,2.9052290851636826,0.8905279523182799,-14.88633496604507,-1.4540210769760051,-13.702006488003462,-11.021318219422028,-17.61033384768234
1.9079999999999997,-17.204316253089928,-0.8291487679493912,-2.2475137954993443,-19.051201694257543,-5.929480963102378,-14.949430334156204,-12.393495673655707,-16.83302228924549
1.9119999999999997,-19.252513769732104,-5.542963023707216,-5.6433142620803665,-23.901892923094692,-11.00442160421835,-16.310269276922554,-14.153683615880254,-17.80310115280372
1.9159999999999997,-21.270085530563847,-10.54557493023185,-8.708797498672538,-29.077525014160983,-15.773994809958822,-17.8330100872372,-15.652271970449874,-20.14178328154776
1.9199999999999997,-23.691177701179186,-15.023319855757563,-11.132195496687928,-33.92337160577881,-19.651832257597107,-19.210296031698817,-16.514652830243904,-22.88523221808282
1.9239999999999997,-26.512962097632226,-18.30757090871066,-12.933489861965427,-37.63085886892759,-22.54638811922314,-19.939466345485016,-16.84086458961974,-24.87031697335624
1.9279999999999997,-29.227020550957604,-20.066194323677337,-14.334006506353035,-39.469461357765795,-24.75003317528308,-19.60010915602288,-17.09444026366964,-25.168603020920273
1.9319999999999997,-31.04528245588517,-20.338569019520037,-15.530726630936442,-39.025227880060356,-26.62315202685795,-18.078398559268862,-17.75753162284309,-23.374410798327517
1.9359999999999997,-31.284371181700408,-19.405657503838484,-16.516031450662922,-36.34862760965461,-28.262393200651786,-15.610816280309336,-18.965096847306086,-19.64092182506829
1.9399999999999997,-29.693572725896047,-17.591593501367697,-17.04777973044702,-31.944123257447245,-29.35969432842876,-12.637617638964912,-20.344321208099245,-14.495335826843075
1.9439999999999997,-26.551075355688226,-15.116836055774911,-16.78086916310076,-26.595195026084184,-29.326079567105353,-9.576487777142574,-21.15915651760315,-8.5743392362765
1.9479999999999995,-22.509744070515808,-12.08777612179665,-15.480110339697603,-21.100563932398018,-27.605601501082674,-6.665353540018259,-20.681959275779263,-2.437918469135184
1.9519999999999995,-18.298112933319317,-8.614396780255447,-13.185584463495161,-16.032724771828725,-24.00387842793225,-3.962742033896575,-18.58906167276473,3.4509521588115604
1.9559999999999995,-14.441219231968716,-4.9495900042707035,-10.23593942266234,-11.623475657208019,-18.845351054876573,-1.4868423477437318,-15.162324390287722,8.621532275563368
1.9599999999999995,-11.14256815769113,-1.5414972396770281,-7.13931330038622,-7.8147389620239665,-12.895017863461817,0.6274733615946388,-11.18440375605951,12.498915793545166
1.9639999999999995,-8.349477442037823,1.0749868952725592,-4.3663564720363865,-4.428257532567386,-7.092017038258291,2.081438326551506,-7.5899441961018965,14.44653409539751
1.9679999999999995,-5.921285366413031,2.507718444319835,-2.1874691473822168,-1.3602702816369856,-2.238739859508314,2.524307238801157,-5.071947528351302,13.98219599251388
1.9719999999999995,-3.7937312647509316,2.7194032274392157,-0.6394685980912982,1.3024323685631316,1.2057332767471962,1.7703681033553949,-3.837799190631813,11.073416652830929
1.9759999999999995,-2.034888126659098,2.1001629357019738,0.3827773308016731,3.3094882130480983,3.167145119230554,-0.020083563978914754,-3.6161724259727634,6.329529135611665
1.9799999999999995,-0.7869283604732118,1.3163157149747349,0.9823878973279534,4.394662500875256,3.8474930884599416,-2.324769777790607,-3.881008980280967,0.9315817697115563
1.9839999999999995,-0.1433176432728942,0.999710446404606,1.1806846463819056,4.460331397765458,3.5710050269030944,-4.441107740969528,-4.143408027664009,-3.7201345662706444
1.9879999999999995,-0.04765630330439308,1.438544929152613,0.9435830497932329,3.6913375285757866,2.6686803831121324,-5.7752236951600935,-4.159519615047884,-6.509823660492657
1.9919999999999995,-0.28717193104148464,2.4298593543089737,0.27975300699563377,2.527018021319691,1.4279483658492609,-6.0854642338645135,-3.973084146536621,-7.028994994034292
1.9959999999999996,-0.5779669433727577,3.391984602638786,-0.6705431669008703,1.5011864312405123,0.09847625747670463,-5.5488367766711235,-3.7903253464037334,-5.695812397244481
1.9999999999999996,-0.6930381372180818,3.672441821663597,-1.6331767009664873,1.0352396631105876,-1.0943156344847011,-4.6115590336230525,-3.783372124915786,-3.491705720801292
2.0039999999999996,-0.564841588973195,2.8858722114437114,-2.301277465961448,1.2802142114228445,-1.9598349325447089,-3.7183223610281857,-3.936788842558144,-1.4423525858128414
2.0079999999999996,-0.30998683717280073,1.108750203778527,-2.4803329029925862,2.0865609106608645,-2.3715989046277173,-3.0755332161925253,-4.007444957481766,-0.09785498628389178
2.0119999999999996,-0.16342829910809087,-1.1708927987542666,-2.184660307175818,3.1001422854455996,-2.2892567741419043,-2.5768691075418246,-3.616401578076875,0.7149560357347582
2.0159999999999996,-0.3492278227827228,-3.2994294745126354,-1.6236599695907898,3.9288664634545967,-1.7498451027013289,-1.9224915054419398,-2.41591272012829,1.7402325381908668
2.0199999999999996,-0.959716128866603,-4.766062846089881,-1.0791000200308645,4.2994265812812955,-0.8441975091354834,-0.8595473654913803,-0.2584215898509683,3.820198237315708
2.0239999999999996,-1.8943407395190661,-5.3969565452403,-0.7449919645655427,4.145586287609376,0.3102931484936562,0.6059912251121204,2.716909564268917,7.353937994263106
2.0279999999999996,-2.8731746819935324,-5.335366091687774,-0.6252287503223215,3.615515025555851,1.5833923262666758,2.1624337435468988,6.119187144274747,11.990300345899414
2.0319999999999996,-3.522674803557493,-4.8471707905359835,-0.5464782814312912,3.0178235565508658,2.834143120931003,3.3375216575232116,9.44290482401675,16.71848717613284
2.0359999999999996,-3.4942229748012323,-4.078692950750337,-0.27445210612700066,2.7404019909267845,3.9252835142681306,3.7483189919503275,12.240939179435372,20.298935422888462
2.0399999999999996,-2.5733554740113505,-2.9322671094005273,0.3478912486336867,3.170043870996551,4.761608097349381,3.3105674861008083,14.257010707173777,21.807325545012645
2.0439999999999996,-0.7441102846910326,-1.1452216952923209,1.3343318549307241,4.612109308302706,5.3551494283469765,2.2894211080165405,15.469316664962662,21.011363423324838
2.0479999999999996,1.81661348417947,1.4823046836752383,2.5971987326825,7.209120246916655,5.877500816932979,1.1648769423418344,16.03009296417622,18.398565231871544
2.0519999999999996,4.792245814084254,4.848309739149954,4.046211687880714,10.861735536093875,6.645871140226973,0.38106210690511944,16.14216696443873,14.872823151775265
2.0559999999999996,7.8036112265649535,8.460065971882159,5.661520926865251,15.176572198947042,8.022316248507423,0.12254661826318625,15.9513792970738,11.307802917507615
2.0599999999999996,10.478861053177297,11.561325535169999,7.476731374028759,19.490086679777733,10.24444285190043,0.2383482977929816,15.515783566075243,8.216358759194918
2.0639999999999996,12.508447373718354,13.432807287094874,9.476664857155356,22.99464278211167,13.267460556865444,0.3549177029890416,14.854329417069948,5.687029298434936
2.0679999999999996,13.674486669948237,13.705627149828615,11.478044809624635,24.937752693660514,16.694427069685617,0.10963013600212435,14.029318977816729,3.5661709311889354
2.0719999999999996,13.864941395843744,12.517011880020618,13.096773725058938,24.839875698675314,19.843623843747764,-0.6282205894731305,13.181747661785266,1.7387417064428519
2.0759999999999996,13.086224382082037,10.434830754531049,13.854424285578261,22.642819475971237,21.94304465920959,-1.6713135329800934,12.470980621943454,0.30203335105488804
2.0799999999999996,11.460874785455871,8.17421411173109,13.384497657820248,18.7153535126954,22.360259353897163,-2.606688513998506,11.956258191739835,-0.4803137834633162
2.0839999999999996,9.202545521698994,6.2516820466321406,11.633543077969762,13.708815996785006,20.780331768905626,-3.0171039498404753,11.499325777282138,-0.39268860787979065
2.0879999999999996,6.558588432125362,4.758602823680349,8.928555598268304,8.321712357290835,17.268120379554603,-2.7070078575925436,10.770015061755203,0.5046553888687413
2.0919999999999996,3.7326863460339155,3.3649075999733213,5.852083193013868,3.0753542732184087,12.213813321592397,-1.8163056079224589,9.38721186821067,1.7988270188561728
2.0959999999999996,0.830888609431895,1.5565982377024739,2.980184479992886,-1.7948678885759364,6.217455945336724,-0.7568868201610712,7.1497967369000435,2.8784127473345507
2.0999999999999996,-2.1367356439286596,-1.0335475831811891,0.6292080688604074,-6.287915953446145,-0.03763722256462643,-0.006205873921317107,4.224329752290487,3.2356761143291806
2.1039999999999996,-5.178379591508929,-4.368211836071168,-1.2386572128614262,-10.452638959793148,-5.8765171698294125,0.13079911059821825,1.1614276477912426,2.746811681071449
2.1079999999999997,-8.193810780298918,-7.948977768456189,-2.9007669344587157,-14.173133749675117,-10.696352228685782,-0.3285797368062049,-1.294590179034003,1.770773779733645
2.1119999999999997,-10.872466011894176,-10.995620566000525,-4.6264343887451105,-17.054196561603476,-14.037396601626597,-1.0529863517281228,-2.5127956833343887,1.0049943930334848
2.1159999999999997,-12.700089910852967,-12.766912340855242,-6.458466432099613,-18.49228933945892,-15.66801595952029,-1.551941968734809,-2.2496041610684188,1.1683730749382448
2.1199999999999997,-13.107364179814795,-12.869357247422158,-8.158748023423186,-17.91232299583089,-15.658745183817928,-1.4005931780816354,-0.7450119134516626,2.6804228057435466
2.1239999999999997,-11.716431565305356,-11.412331885177537,-9.348573653667586,-15.067006491333132,-14.384499378947567,-0.42699785103923205,1.4146121752605723,5.484574290928322
2.1279999999999997,-8.57287329909036,-8.946912996703759,-9.75440255900537,-10.247860692466702,-12.412241019515022,1.2228087240364403,3.5816248367923436,9.078367455210355
2.1319999999999997,-4.227625800911483,-6.218063713396305,-9.388017196460169,-4.275437194384494,-10.279992333419159,3.1603783557470706,5.330124633410378,12.711304233347619
2.1359999999999997,0.4065851120328716,-3.8423838270271062,-8.526995277212563,1.7516851439747825,-8.247384433881962,4.926375029456267,6.59097842358824,15.64406763281022
2.1399999999999997,4.389284772138126,-2.06441898582284,-7.494043918687794,6.855813602230796,-6.149887727366604,6.175986846215892,7.5838181034669105,17.360909358465506
2.1439999999999997,7.132856690011977,-0.6877263658009269,-6.363997389835276,10.546094839447846,-3.4454774233990975,6.799948501944527,8.614613919985914,17.675190332394777
2.1479999999999997,8.625578230341489,0.7889333467055621,-4.811014573156399,12.960180618391291,0.5216107982305402,6.925692578776307,9.871305787551819,16.718534138331506
2.1519999999999997,9.370441107258102,2.8973453467385752,-2.2308329406121175,14.70481812516232,6.143207872155472,6.8154738063149125,11.325167161927993,14.856055988711432
2.1559999999999997,10.05777977692128,5.912514366519872,1.8907411871596196,16.467890698020938,13.238845122452176,6.712823101525828,12.769146798070551,12.56962764666423
2.1599999999999997,11.127289300017765,9.664656943404907,7.552215352831581,18.59241910242895,20.961067953880388,6.711829466547897,13.939700659221671,10.33043716944394
2.1639999999999997,12.463131488309955,13.536230122465895,14.012161911209091,20.833846585719016,27.987076608746293,6.704818587667887,14.620874495965609,8.470002112784641
2.1679999999999997,13.40179795429799,16.648100384622467,19.929182442969818,22.43611878077172,32.9335182936552,6.435721982123141,14.682832957113305,7.088340956162938
2.1719999999999997,13.069024294642986,18.165092876861195,23.840196351985128,22.497259106857655,34.829552393149925,5.6376574267424076,14.057526209306843,6.043727109288739
2.1759999999999997,10.882904011536993,17.6093183257384,24.764113246540546,20.439454588735316,33.4576016416554,4.1961441952321366,12.722894079107391,5.049746557105664
2.1799999999999997,6.94614962643027,15.040539447721244,22.62508378470079,16.33966451579363,29.412881508980377,2.2538927843438614,10.729430692188089,3.8604460508418015
2.1839999999999997,2.095087905687933,11.02763524363661,18.280536568219077,10.945977595665909,23.86921237217655,0.19751615038831005,8.271382472305959,2.4585343140724945
2.1879999999999997,-2.434123251368419,6.4293431487319594,13.139647254227611,5.37607111690636,18.153909747954458,-1.4683340645487988,5.739670920159824,1.1434483035127414
2.1919999999999997,-5.563254049001898,2.073096026942949,8.564753965243199,0.6541029546647223,13.300185355162284,-2.3084827749130454,3.6773542411519884,0.4475294838252921
2.1959999999999997,-6.866189724760943,-1.5215038782819192,5.348776656786299,-2.674937144295427,9.750890331845426,-2.123893601880809,2.614733659120475,0.8985539285949926
2.1999999999999997,-6.730926554245798,-4.256360336833495,3.5049467181340788,-4.654734099367488,7.302435982110637,-1.0091724840540337,2.8401973821987667,2.7437989903501148
2.2039999999999997,-6.099309140709465,-6.362023549303217,2.4395294894607105,-5.715461130683707,5.294000169403148,0.7204617313095696,4.2243501360260325,5.784817706966351
2.2079999999999997,-5.914732607656788,-8.150618129648137,1.3810376768363994,-6.287238166718566,2.9558778306538898,2.6913692173184245,6.21610274594741,9.432788707938016
2.2119999999999997,-6.592708193133603,-9.763852817106226,-0.19073009995997836,-6.465890162834285,-0.23583245599934344,4.624756019485403,8.03537848818155,12.957075165744982
2.2159999999999997,-7.796902276013384,-11.04071656305473,-2.3295314573288692,-5.9210087109552205,-4.31495588575433,6.399829063693687,8.983707252421482,15.797511516839677
2.2199999999999998,-8.640860266916093,-11.59538149801756,-4.696318939391745,-4.0974453740282115,-8.791844060154176,7.997705514915651,8.732977890822895,17.76205017409302
2.2239999999999998,-8.195536670369847,-11.0576797502315,-6.822350051588273,-0.5900204568173422,-12.824208742786595,9.374734916391844,7.4543490014966665,19.002046457547294
2.2279999999999998,-6.019331672686462,-9.338912545115022,-8.380260758793838,4.522454498826107,-15.518416702186187,10.364125997275323,5.715645953787202,19.79256521455636
2.2319999999999998,-2.4143991819555595,-6.765981439530037,-9.298412791007195,10.579811858492349,-16.240386939287873,10.689856578342187,4.214722655254718,20.25903157668472
2.2359999999999998,1.7239552087526135,-3.9906818121905303,-9.68394614622639,16.53095959018765,-14.816735186864435,10.098469588764601,3.4746060872909084,20.226686081242406
2.2399999999999998,5.382416416949468,-1.702118223087382,-9.627168512451476,21.32876071815275,-11.552238477697529,8.546299587635986,3.6568108328381186,19.313472098772763
2.2439999999999998,7.941686820227687,-0.2922254676544185,-9.035407964836054,24.318534161606408,-7.070401992940845,6.316570102325841,4.568115216479555,17.210459537463066
2.2479999999999998,9.440715398276325,0.3431081590537133,-7.6229084971184875,25.430355470972472,-2.0701660178524435,3.9715529958559728,5.821431556972129,13.972863215760754
2.252,10.458697468889795,0.7437260629837965,-5.076925826287834,25.096451138189536,2.881474536347582,2.1482193915592234,7.0441107894921515,10.132766427024762
2.2559999999999993,11.700864251403118,1.59235598804446,-1.3055694872817867,23.95719743647618,7.434027361732888,1.2906609934311746,8.017621926166953,6.533150212510009
2.2599999999999993,13.54665713010445,3.3339310584623263,3.387487438597873,22.53888511895883,11.400391139990745,1.466576420488991,8.690545917604823,3.9640632091591215
2.2639999999999993,15.830639330346344,5.905781836820893,8.315949275852404,21.0741961673956,14.630172094438535,2.3719444206137723,9.093972240222001,2.796323206681336
2.2679999999999993,17.980987525318255,8.731090411782077,12.623589520927396,19.537199231952854,16.910529025688902,3.52152715998443,9.242692097516965,2.8180148986857603
2.2719999999999994,19.40267583008415,10.976662600030863,15.594592689682202,17.83252393865712,17.975744149361958,4.512889606404428,9.093478195706382,3.369562111813366
2.2759999999999994,19.849458730303922,11.941122762321015,16.901404864675044,15.986816208896471,17.62233895517602,5.20726715059709,8.581108274110647,3.698476552021475
2.2799999999999994,19.548885865190528,11.367216500283064,16.672095104120928,14.212744388625651,15.848167951927735,5.729817424849443,7.705213035135898,3.342948025696387
2.2839999999999994,18.997365794945893,9.521129249086243,15.349852514901642,12.79562020005855,12.916601023269209,6.299923456467013,6.57937826430225,2.3211785223029437
2.2879999999999994,18.564671305335366,7.015033877390607,13.441546795547708,11.887803860169441,9.289232281037783,7.013266759561475,5.400259755796071,1.0436547929530207
2.2919999999999994,18.179263381874534,4.485924999054646,11.30000879477376,11.360015769341516,5.451602417186024,7.731371324015527,4.340385359744232,0.03297308785158748
2.2959999999999994,17.327331814226284,2.3228326232157315,9.04200454228257,10.825526820375131,1.7364569056783523,8.146230914348735,3.4323251537139186,-0.37112516447041344
2.2999999999999994,15.39454659458005,0.574133983865579,6.630807855970431,9.85090708813459,-1.7466910106826958,7.983776184001499,2.531538865835671,-0.14501705793350084
2.3039999999999994,12.165300775647609,-0.9263471157921117,4.05619947937717,8.246560556584825,-5.015225631239218,7.219575101113605,1.4011083625726428,0.5121845541328867
2.3079999999999994,8.154019408864997,-2.3286740968542006,1.4692435237676875,6.247688769674596,-8.02577547978629,6.152644636275227,-0.11754194619823011,1.3940853854825264
2.3119999999999994,4.524950935621575,-3.5931415104241466,-0.8210856655453256,4.465059214379522,-10.52650014184178,5.281254337224141,-1.9464021865042582,2.468150623095198
2.3159999999999994,2.5957497787678108,-4.477734316772171,-2.493202706635543,3.602691504641598,-12.070848165441163,5.044671151563421,-3.7359856761131027,3.882188404625481
2.3199999999999994,3.158671580982798,-4.703244055126504,-3.4177917151216093,4.075370590172355,-12.23404293026934,5.578425549659528,-4.985931960824928,5.7837923353893075
2.3239999999999994,6.007113373840411,-4.170108245682968,-3.7799882879826043,5.7447917534486805,-10.91262213466581,6.626988123553588,-5.284414029055881,8.07953790027841
2.3279999999999994,9.95635705923354,-3.079026669484392,-4.030012982018036,7.93659926693411,-8.52014444802245,7.67020535571055,-4.5338216342858,10.317468454752543
2.3319999999999994,13.365445760993168,-1.8743020599703755,-4.671643006027722,9.736169790222164,-5.929584048096785,8.187886453518104,-3.0245978563509652,11.804229357421605
2.3359999999999994,14.910328048313545,-1.0222976965356452,-5.994503219842443,10.417726124403941,-4.131881652742038,7.909638114264794,-1.3088785172657822,11.920892772040702
2.3399999999999994,14.189174586917034,-0.7630147888031047,-7.894495969228728,9.778144866200194,-3.763235146692182,6.918878063540205,0.06268598218929355,10.477066728673663
2.3439999999999994,11.844755569249514,-0.9751938962817803,-9.881850515867882,8.202583288115193,-4.7421287118423265,5.561626377273228,0.8079263154339174,7.886574621581076
2.3479999999999994,9.151721289546686,-1.2439160006139787,-11.28748711329456,6.429645526108288,-6.241327146722313,4.227133253275497,1.0345276835678874,5.038603599000453
2.3519999999999994,7.310744861331273,-1.0993442786579521,-11.563776135799174,5.150502306179362,-7.0487750836178975,3.136866544519876,1.144827964866522,2.913621667925554
2.3559999999999994,6.8601000297019255,-0.27032842467144746,-10.520061027466738,4.670989665720924,-6.140303561249937,2.2614383623789536,1.579918293451101,2.1376007376898087
2.3599999999999994,7.502111393489599,1.178869877810257,-8.387928251686446,4.805580905661714,-3.1949425537769116,1.395633153387962,2.5538742362519997,2.6991665312959867
2.3639999999999994,8.397481315784148,2.896724303662211,-5.700612881391976,5.033401184327204,1.2171392794830922,0.32264174893555264,3.92558758536768,3.9740633444491777
2.3679999999999994,8.718210884263954,4.443053356891937,-3.0608881140801145,4.810393923771699,5.881283927150378,-1.0309482890031632,5.276310656498936,5.043110333462664
2.3719999999999994,8.114413593467816,5.507607767099387,-0.9189585894309857,3.8502279187267163,9.482119168956046,-2.539482929825226,6.1353917924293455,5.123300937499607
2.3759999999999994,6.841338290037243,6.030301098995096,0.5338725007557628,2.2271554261193955,11.16609336536709,-3.9378145394649664,6.2181716659465565,3.88949667896577
2.3799999999999994,5.4928446392463,6.154186548582857,1.3279872065434688,0.270709653583026,10.830920208600787,-4.955904331037232,5.531175145932252,1.5408552418662111
2.3839999999999995,4.557076037021716,6.071766861830383,1.599540838242035,-1.6410631734643175,9.026382940612734,-5.4433156822923365,4.3120409922328236,-1.376762800629649
2.3879999999999995,4.094419719561074,5.880043810980851,1.4771248339159797,-3.2521313849462103,6.559778033795851,-5.418572863587883,2.860648231306982,-4.254793404638349
2.3919999999999995,3.7366306300469887,5.537816690152283,1.0368086195296087,-4.469977728680135,4.044870995379938,-5.02768948431185,1.3814431273488026,-6.639040450202629
2.3959999999999995,2.992305160218052,4.954214136614212,0.33189208765867306,-5.284171231757966,1.6508325514662943,-4.450119268803974,-0.05356655660000342,-8.280346064448622
2.3999999999999995,1.6396593119953877,4.126437287966212,-0.5538768181155547,-5.655665364989488,-0.8343442362680662,-3.8127009891748003,-1.4203136095725313,-9.04523713111962
2.4039999999999995,-0.07089637705405494,3.213295091466705,-1.490087198648041,-5.484678671116342,-3.706575856616439,-3.1652389290893552,-2.630788805872612,-8.816924921679401
2.4079999999999995,-1.5381037794888925,2.480559869982244,-2.3464841251075654,-4.687410718366152,-7.02353554619657,-2.5199418695247005,-3.500810348159007,-7.49622260694332
2.4119999999999995,-2.1851396837097354,2.1320572902275785,-3.0750640985833115,-3.3222437285006094,-10.467462891956643,-1.9239057111281,-3.8511882486766353,-5.123731641482209
2.4159999999999995,-1.8464069134084866,2.1341081691512045,-3.762118908141531,-1.6567070584586077,-13.467471668526684,-1.503591332288579,-3.6796203727491275,-2.0224099805034257
2.4199999999999995,-0.9086952610905428,2.1652548721705216,-4.586501074774446,-0.09523073502583657,-15.489000688963188,-1.438141986491246,-3.256764122206391,1.177696738873692
2.4239999999999995,-0.0961895698681019,1.7586198679055087,-5.683287757032815,1.0164300057591618,-16.289594812903488,-1.8723967300388722,-3.037096215986139,3.7108147344324607
2.4279999999999995,-0.02415135198657481,0.578006157259324,-6.98626222898605,1.5969343836063103,-15.982279515036282,-2.8101796274640947,-3.390429398406127,4.989215734116669
2.4319999999999995,-0.8012916348549197,-1.3265236563887584,-8.149484870752019,1.9014155864596205,-14.882613803090123,-4.0484177198698035,-4.305287814240955,4.888324263315553
2.4359999999999995,-1.924063851598362,-3.4359720066757404,-8.626325063255592,2.3879151431619334,-13.256051529685863,-5.206863083291864,-5.278691358758806,3.8089317462581675
2.4399999999999995,-2.5559381442564018,-4.946087120375012,-7.904828221690707,3.429798707366558,-11.16355845760836,-5.863221538684911,-5.5192062405635625,2.445240426905457
2.4439999999999995,-2.0328820599577284,-5.1414676572496205,-5.791817259724098,5.040645364142733,-8.513530949001392,-5.7374246881540785,-4.39377673896729,1.3766825705367864
2.4479999999999995,-0.2879003780883522,-3.7688857796131856,-2.5903281020098916,6.784579749781528,-5.281601208088091,-4.8307688912477715,-1.8781089490406657,0.720664525939128
2.4519999999999995,2.0572801334631095,-1.2104896390053455,0.9506496403406572,7.94947298611288,-1.737586537393895,-3.4368731090191886,1.2895667849579695,0.07819056813309544
2.4559999999999995,4.0045465608181985,1.6592058253773985,3.921151644278723,7.908851362376083,1.5174140603545538,-2.007728229320037,3.897429865728782,-1.173357348768377
2.4599999999999995,4.715885189538426,3.8620145483488386,5.650435202133394,6.477842289835792,3.7686119557599795,-0.9313778362948142,4.876877090491007,-3.4016324335220816
2.4639999999999995,3.97560143646092,4.763508559617549,6.021180580158102,4.065153793897821,4.555775588777237,-0.34408127910432995,3.91672785145704,-6.361908802729204
2.4679999999999995,2.288785206848843,4.339803203688348,5.514528118603039,1.5087709302254098,3.9660951735011167,-0.10090488483706395,1.699963889899891,-9.215977420476975
2.4719999999999995,0.5568698537488217,3.1243635440165463,4.947719481248555,-0.32828963574354475,2.6457548040067422,0.08034323753850003,-0.414446165717095,-10.939717034816795
2.4759999999999995,-0.45863402390182273,1.8896468445512937,5.040319218935281,-0.9805545794789623,1.4996233083568313,0.38771699322933273,-1.1129466739057534,-10.891299187027016
2.4799999999999995,-0.5724608988202817,1.2409350281260458,6.038027625840073,-0.5897330695784149,1.222104910346843,0.7466243745773227,0.15381657529326276,-9.187605614239828
2.4839999999999995,-0.24460901132761137,1.3564712520491184,7.610038462268392,0.21963505593680566,1.9351607143089495,0.8455943099108936,2.87525025322725,-6.630608051616036
2.4879999999999995,-0.23790681093930743,2.006412631545345,9.08075352071188,0.7316867827154283,3.146521213809933,0.36026884723378316,5.793075754715801,-4.203620120687674
2.4919999999999995,-1.088945942565715,2.7973404803093445,9.853869137194465,0.5720694127805928,4.04533920717347,-0.7562486271508533,7.639047485498395,-2.442916619167363
2.4959999999999996,-2.7315982880923,3.4672698015407377,9.755141424740259,-0.07602085857445218,3.9499371643642007,-2.1189343265230036,7.838059446818079,-1.1085056343422366
2.4999999999999996,-4.535954691436245,4.010055554007749,9.059135778967061,-0.6167297559644567,2.6140881461594745,-3.047472721215854,6.728471656851525,0.5891247367358119
2.5039999999999996,-5.762364890796562,4.5411739388764545,8.160957720923875,-0.47726864333435515,0.2102690087466499,-2.966852031924418,5.149287718722462,3.2990180778169815
2.5079999999999996,-6.155689621538841,5.002230407169009,7.091135344823215,0.4164519578500858,-2.9734499757796584,-1.8537310683755095,3.6510620203309827,6.7853517945677595
2.5119999999999996,-6.290094330159263,4.922232184668928,5.207771105605161,1.4161337064008421,-6.890014169354686,-0.44650475760454356,1.8678620062576101,9.62905446111563
2.5159999999999996,-7.391154704632072,3.461291202224629,1.3412111158277185,1.3582496703435254,-11.846904554639195,-0.02795907352492577,-1.4852625909970811,9.666177767579484
2.5199999999999996,-10.666098608469838,-0.20842518114773156,-5.580914291473505,-0.8567751980780258,-18.23946627564692,-1.816145793885653,-7.883261831550499,5.027947617525115
2.5239999999999996,-16.48118516478712,-6.340345204004279,-15.717840755368911,-5.591655669210468,-26.02517370300359,-6.257244769789395,-17.887383061962282,-4.7379503025231315
2.5279999999999996,-23.860100670625798,-14.178530200869773,-27.76384591652436,-12.057539151640754,-34.26577375793988,-12.600025229174662,-30.313967088258096,-18.07252555427567
2.5319999999999996,-30.649959331325135,-21.95068787075445,-39.05083539062275,-18.418957641124507,-41.09476071688778,-19.03409300181397,-42.24837220715244,-31.73182729950304
2.5359999999999996,-34.340968325036556,-27.368682455545922,-46.37144803718434,-22.420944101803343,-44.23448582262165,-23.381511075822118,-50.0219401822269,-41.94430140042323
2.5399999999999996,-33.16738121451931,-28.464307184864992,-47.202230904253156,-22.28072924873311,-41.88317431737937,-24.028321052158162,-50.72642253604704,-45.86662082115845
2.5439999999999996,-26.933094020948374,-24.387096412798314,-40.760911629598354,-17.44101025826592,-33.54831582999191,-20.63611394026384,-43.52188611426391,-42.65125776553123
2.5479999999999996,-17.14404243554077,-15.784583537299795,-28.380379891203688,-8.836530231359689,-20.3862032665495,-14.284518768581393,-30.06047580229756,-33.636152232903896
2.5519999999999996,-6.377602332629067,-4.587958073649702,-13.00159504613191,1.4444116758990049,-4.855799999823375,-6.984210407822729,-13.80183738950177,-21.626253052554148
2.5559999999999996,2.784020737682795,6.6933852605159245,1.969154433958579,10.936560127797861,10.158225791788027,-0.8203268755130466,1.4289424259525276,-9.682244283228101
2.5599999999999996,8.711868172646064,15.83194028882076,13.886572980684491,17.657049061622956,22.32445617810697,2.850484475997746,12.911363033939779,-0.01845812758710963
2.5639999999999996,11.135747090566383,21.52888281880223,21.6199722006844,20.688685617345186,30.502407078607575,3.7807137043316743,19.831059699952675,6.516306917952534
2.5679999999999996,10.87536720675962,23.611178640073717,25.544848495202928,20.281166229188898,34.78853012516129,2.668946098296601,23.10352179268125,10.256287441712175
2.5719999999999996,9.141985087284183,22.779989022959285,26.894650316021284,17.50946022128801,36.050015186098676,0.6278816673843721,24.444002824403242,12.088167059538591
2.5759999999999996,6.858215975006715,20.131314181288758,26.89971516580465,13.715528844488631,35.28203204133024,-1.3890751610865664,25.26538271068307,12.804695654888292
2.5799999999999996,4.359425223261951,16.70438211095359,26.191920280891395,10.010931905016946,33.148724588376695,-2.9096171411956675,26.00929134114449,12.79629024603446
2.5839999999999996,1.565873109479071,13.236718250037711,24.732144755941363,7.023135626775002,29.90674743315276,-3.9109779106338465,26.195425172913474,12.14464505477872
2.5879999999999996,-1.5879046946840845,10.143521061298316,22.18669321410573,4.909369594263694,25.63994782484872,-4.557964093680312,25.023082945513806,10.930227582645784
2.5919999999999996,-4.817632812598276,7.6085963814600746,18.427520301947197,3.5371538671980716,20.553436481260405,-4.9333414836178235,22.084951086308138,9.468834352314389
2.5959999999999996,-7.493532091998077,5.663880507382942,13.801269482697762,2.685052140164885,15.09329214422337,-4.941445422902234,17.73469800614157,8.281977047082364
2.5999999999999996,-8.978851673801273,4.198462900934487,9.005426828858162,2.1700555381912636,9.80552065607344,-4.415221595912044,12.922710659509221,7.828562375357706
2.6039999999999996,-9.053359956026043,2.9415961724449744,4.685685094043947,1.8866982727040522,5.059656893931219,-3.3088322263856753,8.666087174561198,8.193829328191896
2.6079999999999997,-8.104445775600425,1.5126557118489927,1.050297786218266,1.803268495921884,0.8591038319132167,-1.8135301023735337,5.51401816118846,8.965127119325643
2.6119999999999997,-6.935843405241485,-0.4272862360031695,-2.2173950765765085,1.9589076663456808,-3.0932682448280957,-0.30115026793964716,3.3473172314927524,9.411042723445917
2.6159999999999997,-6.284203775039941,-2.9594360685067613,-5.673466957341475,2.4640766209855656,-7.0767833102238455,0.8705233263017362,1.6093795805393256,8.871457651596756
2.6199999999999997,-6.362725662447701,-5.767563761716588,-9.629276724555098,3.4584416747832165,-10.991933798035006,1.563013354531904,-0.21829425639498368,7.133196570842301
2.6239999999999997,-6.721494378339003,-8.179739146617976,-13.768240748875996,5.012469716351802,-14.192938917480205,1.936269248068129,-2.2120579204784008,4.574972810700274
2.6279999999999997,-6.529221662594864,-9.41233545915793,-17.133340758658733,6.9962071286944365,-15.670235397241868,2.344057780196181,-3.932166035723867,1.9923852835759135
2.6319999999999997,-5.107741105163768,-8.904829401992174,-18.51663459855206,9.011530902675759,-14.515208543018389,3.113820880790172,-4.702406212036749,0.20710228906000339
2.6359999999999997,-2.388083744138612,-6.5761009985158125,-17.06349631002638,10.463018516362467,-10.429911450977897,4.334677196547091,-4.059520776501131,-0.3351649640321739
2.6399999999999997,0.985270684749139,-2.8745983523290306,-12.769638174699935,10.778130312529584,-4.0037753075571345,5.76980639197518,-2.0886511351757235,0.23567432820345857
2.6439999999999997,3.973838494895517,1.4095381703266412,-6.5935696222402385,9.695672981497978,3.417021734074524,6.941542994399242,0.5652652071332795,1.306337771365179
2.6479999999999997,5.695290211304382,5.465238148296521,-0.1156079964765695,7.465899712282862,10.225069635607497,7.337496051778544,3.004032569197534,2.1096036234398525
2.6519999999999997,5.875618583470896,8.742162089311478,5.099177557401731,4.828927760916486,15.170252857667037,6.629483470746891,4.525927989056754,2.107172320677819
2.6559999999999997,4.947644633390837,11.066676749204134,8.119651414735245,2.7402597850095844,17.8042552398349,4.802247242285375,4.950893760775443,1.2268170207453295
2.6599999999999997,3.7551770216832665,12.555404677409342,8.951043913433978,1.9565622268949028,18.538574742293576,2.139716634676006,4.644550083238073,-0.14852083474033861
2.6639999999999993,3.0586971261120652,13.419879290425797,8.40161933570505,2.6838989151174246,18.311564310432004,-0.898825929265513,4.247972671278603,-1.4209481660795973
2.6679999999999993,3.1359101311525137,13.794369593412966,7.605545443771689,4.468263431362402,18.045053220105046,-3.8504681316999267,4.285692225345429,-2.1069895024884318
2.6719999999999993,3.695667623139343,13.67698314409995,7.452667733309909,6.39954082052941,18.171414170636353,-6.395974430952265,4.865530286336934,-2.0834480483304105
2.6759999999999993,4.126979567444778,13.003107045110028,8.204783794737295,7.534740427561701,18.465961889832215,-8.426704730021356,5.629257595418494,-1.6352271084529093
2.6799999999999993,3.8906534537491098,11.767731833273956,9.451471700033153,7.325564359267446,18.232685080871306,-10.023082106727088,5.97061434340003,-1.2874333098534407
2.6839999999999993,2.8198307568491146,10.102246633030063,10.387736032442717,5.842412525376176,16.7315310789686,-11.363284418062449,5.361414732746653,-1.5214727498982938
2.6879999999999993,1.1775870164151456,8.258296122020056,10.248912024681431,3.7037394069679976,13.621624528441998,-12.597056292248453,3.6164088800235277,-2.51470011449328
2.6919999999999993,-0.5339256335223581,6.501759133165251,8.673919735769232,1.7584325398161127,9.184929980212928,-13.743629355351914,0.9555965574825223,-4.036878315211652
2.6959999999999993,-1.8538792312847363,4.9981156495171035,5.829914493875094,0.6926133845604454,4.230886752350671,-14.66252218007503,-2.1484387813529793,-5.557471575116324
2.6999999999999993,-2.5654960541005494,3.7474266971421457,2.2692616035487845,0.7467457695179291,-0.2654903735467542,-15.116498393826078,-5.234716734723406,-6.513652339248438
2.7039999999999993,-2.712342303421792,2.6150036034750883,-1.3669173660716751,1.667936505162288,-3.590568823653257,-14.898014401695036,-8.065646709038901,-6.600558317398281
2.7079999999999993,-2.4729679055753877,1.4273291669226182,-4.6303506725973875,2.881042270880698,-5.568442814271748,-13.965031476347576,-10.668886407156151,-5.935145804925924
2.7119999999999993,-2.002435522972064,0.07068272877654636,-7.384979396848394,3.7736815177247536,-6.557698102156337,-12.513346105328765,-13.19442069868228,-5.006586674961909
2.7159999999999993,-1.352732618795926,-1.4542666397749144,-9.727328642807379,3.9421639662309644,-7.181429713376474,-10.943880430909303,-15.696158903765081,-4.4495744068444765
2.7199999999999993,-0.5236579911793342,-3.0511951288183354,-11.785598225447984,3.2911846815477475,-7.950602844054629,-9.728031600192935,-17.989425257224866,-4.742645539186924
2.7239999999999993,0.4260145346720492,-4.586863434496536,-13.533641352427821,1.9740659046728979,-8.982900609951685,-9.235922175631458,-19.67962848551997,-5.986995354131977
2.7279999999999993,1.3134081356274692,-5.942927153427945,-14.733054886581613,0.2422775673733213,-9.95797794726127,-9.610552643853225,-20.36308404131978,-7.871439834492776
2.7319999999999993,1.8680452573139519,-7.042039967973551,-15.03543093410076,-1.6970590776329573,-10.327490644460568,-10.746970880085428,-19.880830008120483,-9.832443266291193
2.7359999999999993,1.8660406945855357,-7.830331294989605,-14.16603736152797,-3.733358048939067,-9.63605679097327,-12.371990656192338,-18.459652397247964,-11.312018114760576
2.7399999999999993,1.2733183324610309,-8.249202779495135,-12.079400185430131,-5.801546582885294,-7.7740803876904465,-14.17131720731868,-16.632450754457295,-11.97061423694322
2.7439999999999993,0.29990818392275287,-8.222558452067233,-8.999202057485945,-7.77773893497897,-5.028497537963176,-15.893375148946689,-14.970469417163258,-11.76713920538441
2.7479999999999993,-0.6765244783355229,-7.673162903578259,-5.326780031604699,-9.40467436484198,-1.91935797973656,-17.374383128430964,-13.78590621985677,-10.897628364839875
2.7519999999999993,-1.2803070722372922,-6.570295280158348,-1.4889258187207588,-10.311377572934475,1.0554837715399117,-18.49443834443082,-12.979650647190283,-9.653955751572994
2.7559999999999993,-1.3022736755738151,-4.970165319403009,2.180918611672041,-10.134287048614283,3.6237447828943914,-19.13021011795172,-12.143557677456329,-8.30317158808657
2.7599999999999993,-0.7813136665959064,-3.0360278947485995,5.462994040907233,-8.696340375489171,5.764349428357036,-19.158807410481586,-10.86073681426683,-7.049984462084922
2.7639999999999993,0.03613279226897248,-1.0239904477934942,8.184603540218745,-6.158719342891345,7.569383810392992,-18.527914429881093,-9.027661215304079,-6.070687583808649
2.7679999999999993,0.8297392507352015,0.772847852288578,10.144992657439616,-3.050848456434551,9.05907146244499,-17.34988086192925,-6.987618105484444,-5.548258898250424
2.7719999999999994,1.3465528330257257,2.097290816384202,11.109935959237873,-0.1405722318104381,10.083071410341745,-15.93579842573763,-5.373095166593885,-5.6447960670157045
2.7759999999999994,1.4832114379883024,2.7984571300321477,10.903039947181583,1.8162649796602182,10.38513549860545,-14.71605822098627,-4.728478101348628,-6.405990470751021
2.7799999999999994,1.2787665872765501,2.867988423855877,9.538150163233354,2.3446534409163178,9.778215440817803,-14.069104380310819,-5.151733754583574,-7.661374842246914
2.7839999999999994,0.8396031503509676,2.4290602650014534,7.295357222499661,1.4186111908782095,8.301412371603647,-14.142631166737374,-6.184731415681199,-9.006787117969907
2.7879999999999994,0.24587389241082747,1.680953168298629,4.664837745833324,-0.5515986837563105,6.241910111947618,-14.768032358005712,-7.051312083630592,-9.92282384928967
2.7919999999999994,-0.507596646126558,0.8152983202573978,2.165815761481781,-2.9106438017727214,3.9827223336887982,-15.532672878660378,-7.130172725493367,-10.006420890633763
2.7959999999999994,-1.5003408166046484,-0.05931915789369668,0.1301092513142521,-5.037166432972526,1.776339825700461,-15.98198430429602,-6.380936401451436,-9.191441089333694
2.7999999999999994,-2.8179910897390528,-0.9485307534851017,-1.4280983658291007,-6.577653980706941,-0.4060553575600352,-15.835422732889128,-5.447225940145927,-7.819362809734685
