Timestamp,O1,Oz,O2,PO3,PO4,TP7,TP8,Fz
0.0,1.3642420526593924e-12,5.684341886080801e-13,-2.6716406864579767e-12,6.821210263296962e-13,-6.821210263296962e-13,3.410605131648481e-12,2.7284841053187847e-12,-4.547473508864641e-13
0.004,2.9252799178908617,-6.076765160353602,-4.082554630832988,-4.675387949020603,-16.081307496384483,16.09620963770385,5.441310688725707,9.451142425052126
0.008,3.61242486370827,-11.387396845379328,-7.579189325449079,-9.453433124486594,-28.682940171366482,28.043903850301604,10.115655851313818,18.351044581068436
0.012,0.9345399873061524,-15.420443659338957,-10.072878897739884,-14.298435893570854,-35.73408325106726,33.52861884760773,13.543487330281891,26.37557179860613
0.016,-4.579950553712706,-18.03030483673905,-11.378515969680166,-18.944033938418215,-37.25943146537293,32.970476474345105,15.690594652043728,33.515097226319995
0.02,-11.03343765049567,-19.335390455457684,-11.462675721424944,-22.873349909505578,-35.00371415250663,29.05593995299091,16.930342066492415,39.977270170900965
0.024,-16.085751065097952,-19.47760410597789,-10.286179599159937,-25.384016010626056,-31.26536548688634,25.221068189823427,17.8556156146268,45.9600937166897
0.028,-18.023222616471003,-18.424837511597275,-7.720253573171874,-25.754140808033185,-27.64120620157047,23.944346736504144,19.033773994861406,51.414804308626174
0.032,-16.415954988327712,-15.964397025639187,-3.6178000203261718,-23.471703240411443,-24.39019380604273,25.76335816487358,20.823294806748834,55.95228800050654
0.036000000000000004,-12.06409704263558,-11.89732367932703,1.982128350779817,-18.44626518914248,-20.712192232273907,29.455508215623922,23.318079714153498,58.97023826440176
0.04,-6.381503126456096,-6.3254930987286,8.64218541949424,-11.139432078525715,-15.664785758310671,33.10332912885701,26.38390555898144,59.931495365460194
0.044,-0.6394636425516182,0.15569809396544088,15.470124138782637,-2.556063826484433,-9.087140217185521,35.3065880332756,29.727002336398073,58.64467909181451
0.048,4.504675202081216,6.513946712851919,21.308250162573813,5.943325235556074,-1.9327485519898175,35.827849432372034,32.93975354453448,55.40234406542544
0.052000000000000005,9.003823436452194,11.586092695647409,25.113600578888907,12.97449642319853,4.158772192218947,35.41554605830129,35.54435825869382,50.92414606958482
0.056,13.057970483402187,14.48484781864147,26.342526373326166,17.49970880507857,7.734640822348695,35.07681209482945,37.07480249677383,46.14098974549117
0.06,16.69635762937463,14.910107140126541,25.147424282612064,19.113858075631583,8.303880803838439,35.34557664395987,37.20379820055524,41.91910573725437
0.064,19.588358633939606,13.203985971906832,22.27741991087771,18.130624857552505,6.548723162841327,35.99984841276472,35.87462474072231,38.831071818008155
0.068,21.199357753469144,10.15222199815932,18.741163429771746,15.431452540527687,3.884753412868605,36.33389632619901,33.36687868868006,37.0437516918864
0.07200000000000001,21.159537294267523,6.640899510849408,15.398896772931721,12.124874701580154,1.6518894939142967,35.740258284591164,30.232913418815713,36.346080830352804
0.076,19.595681029585762,3.3453036290481464,12.68291114130119,9.152157453877948,0.42035608916231126,34.182383463412634,27.121118797653992,36.286521692550224
0.08,17.19762167568439,0.5983641875655223,10.57389497950976,6.990466476511074,-0.19322503191821738,32.23130450001565,24.547253442896704,36.34008592222051
0.084,14.944167732630262,-1.5558301700420714,8.804108193788238,5.561153434900461,-1.1438904731039656,30.6693561035749,22.72624421132315,36.0568006670253
0.088,13.644831784071812,-3.2040439092880604,7.1346710402705185,4.368668401446996,-3.2821989551891306,29.954224958020006,21.554271780878935,35.16191005296119
0.092,13.571928403269908,-4.426514298750192,5.552851373448647,2.7985955472276487,-6.8121320516454205,29.92969467747872,20.757684020966735,33.60934019639029
0.096,14.393537934116182,-5.251929868693281,4.307779555444284,0.4528753301888173,-11.173601655062157,29.98246466146429,20.126011840375384,31.601693391660348
0.1,15.415013079063442,-5.687711244601928,3.7913127156764403,-2.6301289499204756,-15.340292329753566,29.496808849149602,19.67973082042579,29.554777420795233
0.10400000000000001,15.982299647183709,-5.752850286640864,4.3664083069794515,-5.949440769124493,-18.281119037702723,28.27839811971279,19.67298542696369,28.002350464628535
0.108,15.82207686754532,-5.448883558063528,6.236567230541397,-8.703589869764272,-19.292168630567147,26.659039519110536,20.422551276906773,27.452770865074797
0.112,15.158906127054593,-4.68655753627371,9.398977738752166,-10.06612470209268,-18.07156158811776,25.24681709563646,22.081583036367647,28.242418679350976
0.116,14.577942177200612,-3.249837658866511,13.653249477652736,-9.45877222911227,-14.612707194190392,24.527447925242257,24.513446821021034,30.434863979552375
0.12,14.700584450911379,-0.8681351793445913,18.61702717227155,-6.737731291694303,-9.079858411138446,24.57939745970299,27.328650984958784,33.78237800865304
0.124,15.8419790832898,2.6007500687152856,23.7462603512553,-2.2381208756438866,-1.8013356708775063,25.073745634369743,30.061473265620663,37.75398972619138
0.128,17.83051858900251,6.980678137345905,28.40074861163498,3.3358220590312726,6.633964901124386,25.54245195965467,32.37519334988917,41.63053791447862
0.132,20.076179347149605,11.699008524379025,31.970469263730905,9.122058766016721,15.286983114578845,25.73512573618609,34.18329051947342,44.650884668487066
0.136,21.85942314572509,15.909100380274538,34.05682634182426,14.348156928517028,22.94169979532677,25.828707144184648,35.630054209542664,46.18555691706493
0.14,22.680887909997466,18.7966547462361,34.63854853045075,18.530454092484803,28.412997216397088,26.33004849741235,36.93954389498771,45.896054701839546
0.14400000000000002,22.481894828830946,19.913624442851898,34.09180724740423,21.548956303451376,30.961599376065237,27.710774322232908,38.218774787008954,43.82395587163845
0.148,21.636472949403583,19.36025455009417,33.01068483960984,23.585164300254263,30.593960821306638,29.994422356694827,39.33270792530516,40.37853404523264
0.152,20.735346491789755,17.702489254961847,31.891587129010418,24.952268245645712,28.045656465052957,32.587914265855716,39.93443008025963,36.23105748249685
0.156,20.2892785160808,15.669258588077753,30.848507107854118,25.90216605645591,24.422857290555953,34.508705167305834,39.64450790410024,32.15157058675467
0.16,20.490649170709617,13.802434893450709,29.54319678718747,26.486306658192632,20.697864362064024,34.86829062030307,38.262380698242396,28.819433332537585
0.164,21.14801906292371,12.257091848723462,27.418069681779627,26.53261621772907,17.33644149985139,33.3483892091059,35.897090624749524,26.661264583393177
0.168,21.81714345022374,10.864339663353348,24.126619327760352,25.755054529271092,14.259377895863452,30.398885015703854,32.94952060038679,25.77090288902184
0.17200000000000001,22.048543241302355,9.387515267234733,19.89626356268934,23.93570274906108,11.103641120699535,27.05145103018947,29.95655940869983,25.934060265754113
0.176,21.616401059253462,7.784157246170821,15.5711802943473,21.08480261685355,7.582340262316961,24.449926849725557,27.378710375519233,26.75032078279918
0.18,20.601302419283115,6.306788113209336,12.259322709064179,17.501939210411308,3.7298870382645646,23.3290639886053,25.43025967816766,27.787021799904835
0.184,19.283970325688415,5.3702956326353615,10.741947700870469,13.70498953388153,-0.10773919396200426,23.68169687706859,24.02361534189407,28.6964674336225
0.188,17.929437583599565,5.276727651771466,10.98609328509599,10.256912617171167,-3.4843449428140616,24.78864493534479,22.850099307066444,29.275757261872457
0.192,16.6088483510091,5.975130702691331,12.069383501525294,7.577237048849042,-6.111195481670677,25.618221974802964,21.56294919538982,29.475006182525647
0.196,15.184244498998737,7.023268554503943,12.622532066363476,5.843749796194572,-7.974778937867939,25.39362915956451,19.987280662838202,29.388356545236547
0.2,13.446978129747208,7.786206913732428,11.56872153364941,5.01389933689029,-9.230667180113187,24.013276824187415,18.24232935599639,29.220670573596635
0.20400000000000001,11.313298230318537,7.764320453964842,8.762687846432243,4.941352895404407,-9.946502595507638,22.093415844845026,16.71236747185219,29.227173884932654
0.20800000000000002,8.946422163855232,6.864977633417766,5.1484495327989634,5.506809383745804,-9.893578708789562,20.60976421059422,15.870515489757963,29.614083734188966
0.212,6.742900329688837,5.459131494996825,2.314844797049318,6.684203495363761,-8.585281573143106,20.356252408761407,16.046907746485658,30.429082066076546
0.216,5.201478430675593,4.192260301987858,1.6816967005019023,8.506291735533978,-5.588059188320074,21.530973179873513,17.27018081419044,31.4908422947571
0.22,4.750207478140851,3.672530519608756,3.7722192224382525,10.963429407587341,-0.910226995064761,23.650875488744532,19.248700776945725,32.40430025552638
0.224,5.601362378588192,4.196349975153737,7.969030147916101,13.88588622824335,4.781456311575653,25.81302693565499,21.49747094206805,32.67220319723236
0.228,7.6700883122712185,5.631219691390299,12.864807193208435,16.869402048686823,10.285912185676693,27.140585939140806,23.538447411580137,31.881107825490517
0.232,10.578761697485447,7.48505622450989,16.988833066039433,19.307220535132444,14.299404141698233,27.18313119520417,25.071960307554264,29.907226035606925
0.23600000000000002,13.716958190556852,9.09906615340293,19.48776850421075,20.537341612040223,15.958761304207314,26.062708508356877,26.036324926544467,27.032264225317135
0.24,16.34009115601657,9.863324295535051,20.39091777665203,20.053907530952813,15.205053153015001,24.30943941454916,26.542982022393403,23.892328191849288
0.244,17.723941059329945,9.386270374600485,20.34759978066927,17.704652024761742,12.75879832645137,22.53687489756726,26.737268512426567,21.27422442323234
0.248,17.35399453772493,7.591475320337736,20.054477882121546,13.786161858724427,9.735035176273357,21.142507491060655,26.68099927553817,19.81906954907663
0.252,15.12126395408086,4.760040905485994,19.768065809719474,8.996066458598307,7.117175341744769,20.181525413055397,26.3153624885814,19.759092974822465
0.256,11.444206803578709,1.5065331113388538,19.202606983379155,4.24626450410301,5.350436507240715,19.458504071008747,25.514073742541427,20.819313584401925
0.26,7.222652460900008,-1.3474841540534044,17.85136574939122,0.3939418899572047,4.240385925997771,18.75650091501325,24.212628772969992,22.34088914370443
0.264,3.594743770590185,-3.005174747848855,15.473338613909505,-2.013926889833783,3.163714640867056,18.04603444789882,22.509724530601375,23.57475153785731
0.268,1.5356962577100148,-2.9823702607704945,12.407579503465058,-2.883698104922587,1.4682977174917369,17.521429078483152,20.671757494012354,24.005395431155762
0.272,1.4644721970400951,-1.3298976235539612,9.486106446930876,-2.5421330617107287,-1.1394404662232773,17.44736805201478,19.049784976351816,23.56120248616503
0.276,3.0689776268759488,1.3392982270738685,7.588461121787645,-1.5419857183103431,-4.412264233179485,17.93905847374299,17.951482480096047,22.622024668006134
0.28,5.473688003108919,4.0763659799066545,7.1431098879651245,-0.3777006876073301,-7.643314816833254,18.852367408766668,17.549135881667326,21.833865238789713
0.28400000000000003,7.685389689668227,6.006890085094824,7.896137614669101,0.7464932542636689,-9.941847349162458,19.85763814207712,17.86402374302702,21.81704895598955
0.28800000000000003,9.08261354209094,6.744389396296356,9.121020509149048,1.9919502679859988,-10.528114099743561,20.6296636975228,18.80656619398087,22.895209648408127
0.292,9.674195126446648,6.58322020714877,10.139599947442662,3.762509772841895,-8.92755070229964,21.008290243931697,20.221277407244884,24.940219943129023
0.296,9.993923101291102,6.346131259148365,10.809859709662646,6.438485920930248,-5.045561505112914,21.035675850911275,21.89447019300087,27.392898840969224
0.3,10.717926100726345,6.945996990432491,11.657639147102714,10.11250538789966,0.843655311048451,20.874005435857043,23.55234273016049,29.461835962879945
0.304,12.257317689390447,8.902280749786655,13.537860635266611,14.471569195301981,8.133913807019098,20.685178727189395,24.88149009341737,30.425404782457008
0.308,14.555273927494682,12.074000916333375,17.033064611026248,18.87974809621437,15.957821726424186,20.54271218870076,25.60128187540522,29.89978658162306
0.312,17.1774430665605,15.744479426348448,21.955668655882505,22.607290451657832,23.304542209813462,20.395159550104836,25.562951353726703,27.955765229957933
0.316,19.616806388036366,19.001911951588568,27.27151820732911,25.0935577566471,29.190980924230985,20.11317946026861,24.830028684368017,25.057106350676577
0.32,21.598527089003255,21.18050494359852,31.52587902539176,26.1225877240646,32.85922848414566,19.58641883752557,23.69457955107532,21.87386906709287
0.324,23.179137764432653,22.102629134789026,33.53600245515645,25.82552004139336,33.928429344372034,18.81587305948301,22.590717278840884,19.042021810428764
0.328,24.566441100713746,22.00586126747828,32.96022130684423,24.535558724977477,32.464599947094825,17.925588405105145,21.93300650299375,16.975255175623033
0.332,25.788618671811264,21.241991623873673,30.415789511880917,22.578870099917253,28.929447146536745,17.09096226301176,21.93196584867019,15.78721381437947
0.336,26.467243969687615,19.96854943090159,27.091904401774286,20.11352490888885,24.018799007661755,16.44864457344056,22.484443665261324,15.34154305438392
0.34,25.89343501854478,18.040898887143157,24.093754604408787,17.099062843578167,18.451345567691646,16.055743994794057,23.209926959828408,15.389163202225063
0.34400000000000003,23.409078152722486,15.1740314468708,21.889620857728687,13.393030071634826,12.774335858013501,15.91972487100611,23.612668770815617,15.713374981454422
0.34800000000000003,18.868330089888786,11.25381440483011,20.17871446958418,8.908836124064578,7.2756787040750055,16.03692536555809,23.289365685266148,16.20805533272403
0.352,12.879970484828391,6.57639482202751,18.219170606002194,3.7500497394837566,2.0297293811033796,16.387173131984127,22.071873414628044,16.864085108359063
0.356,6.658332516831024,1.8329808221028543,15.373793988987245,-1.734928929045509,-2.9723060121617664,16.887609124546998,20.048518092108907,17.696692900299354
0.36,1.5503541938305716,-2.165718379258692,11.548174231562143,-6.986674689119354,-7.675228417466542,17.365570905454433,17.498795874535972,18.687148200443858
0.364,-1.509347002805498,-4.853780005245085,7.262822611140791,-11.333534633907107,-11.874254618093914,17.60379485164526,14.789132553311447,19.786864097926127
0.368,-2.3516627823767067,-6.150565920903091,3.340537151409535,-14.131498222911546,-15.225391738098779,17.427787293500614,12.27695238946717,20.958828025486923
0.372,-1.5675013850252526,-6.425194345581531,0.42852740581088256,-14.913711400310717,-17.33787335546276,16.78300848533422,10.24270764841549,22.207103543562994
0.376,-0.16682741345312024,-6.216324943677478,-1.3421869537812654,-13.52221182542155,-17.930630337880416,15.761253209551342,8.851713132185523,23.55116677406056
0.38,0.9087804539051376,-5.8920990323849765,-2.3428081993558862,-10.180152580481376,-16.988677448786007,14.572362251571803,8.163625949047628,24.956235925484634
0.384,1.185566118806264,-5.450874505806496,-3.1090763751687973,-5.465064666559897,-14.84619846579119,13.48103786785805,8.164704380449166,26.27095900268432
0.388,0.7843419575128792,-4.574014656599843,-3.9015138291883886,-0.17072577122758048,-12.121775314309843,12.722704040311328,8.805821855637532,27.218017827198764
0.392,0.260624166656271,-2.8785595910924258,-4.445518132890129,4.911713378387162,-9.48938701027123,12.434696556832023,10.03417377639812,27.463389819077747
0.396,0.29628278976315414,-0.20109933125161206,-4.030374437598994,9.214624043068056,-7.384877337492981,12.636704446980275,11.802256120725588,26.74441501842739
0.4,1.4027140948064698,3.2510864960310073,-1.912354632154802,12.531432086107316,-5.791706301533054,13.265310820292598,14.04948414090336,24.997916933948204
0.404,3.7446020045940713,6.947599630357331,2.198505068728309,14.990799972978834,-4.25250209356966,14.234174489149837,16.659237413188976,22.41977773464157
0.40800000000000003,7.103408867678127,10.235554776808272,7.862784489266232,16.880006605684457,-2.116760526804228,15.463848086749522,19.423969399874295,19.421079491629257
0.41200000000000003,10.940561104286871,12.56784850703832,14.00106241276626,18.400726805938575,1.0730162386904567,16.853881392099083,22.049506958299844,16.496821280811105
0.41600000000000004,14.524273943804701,13.644366350915107,19.298613758965757,19.482278439578522,5.2344610638065205,18.250743001125784,24.206665183935456,14.077390974731998
0.42,17.101843876130033,13.426974064885258,22.710559687396426,19.75944686958701,9.634979096974234,19.43382783337256,25.640713105758095,12.430529454439238
0.424,18.09499973689799,12.069159862242941,23.790478291796717,18.71973024063061,13.094317699749013,20.162811597698692,26.258898696384904,11.624741246796589
0.428,17.255757180443652,9.822923291439565,22.710220911533725,15.946048254802236,14.448025756967581,20.234876503978967,26.13340075581482,11.526529669263596
0.432,14.724946670165536,6.973607408259227,20.0109694210646,11.33549427679327,13.076465479855074,19.513406032331204,25.400297330094418,11.811329099698469
0.436,10.964980730816933,3.8132501205896006,16.277630868131837,5.199110208869456,9.233955084915237,17.942262324885178,24.11880511110712,12.004243833218652
0.44,6.6003315752373055,0.6382625589619693,11.969469492032204,-1.7556683705377054,4.021910022211841,15.578762990925952,22.224735075608123,11.603648411582526
0.444,2.243491770372202,-2.2600786401433197,7.4651482059289265,-8.545042564684081,-1.0050155284681068,12.664398391886152,19.633480804767714,10.286141674175724
0.448,-1.6116918419515969,-4.608221641735554,3.2473405763694245,-14.079322387894763,-4.403393676161841,9.67817848842833,16.469607183795233,8.13304912411104
0.452,-4.609746174650354,-6.169893613907334,0.0104403534019184,-17.36820886517944,-5.340330886746983,7.282387910685429,13.24380075616591,5.73096283085647
0.456,-6.50541059743,-6.786642137900799,-1.4940035986269322,-17.753077391065972,-3.8575823486017953,6.11807294417622,10.772845730786912,4.011477634298217
0.46,-7.176155563541215,-6.4619193383330185,-0.8631637715257057,-15.156089398450604,-0.8465508525306404,6.497450850231871,9.8025371096237,3.8172415139897566
0.464,-6.718498099365206,-5.476095421029413,1.5032962999889605,-10.274276814224095,2.2109064276313575,8.135703400563216,10.459493699775294,5.366341834119794
0.468,-5.5885301868675015,-4.462846058451078,4.229685523070202,-4.577065319251005,3.6446943039879898,10.08579072206112,11.861059387688556,7.898264288667633
0.47200000000000003,-4.657712172214815,-4.3414731356674565,5.298457044338875,-0.004197992102263015,2.0600815880958407,10.986910192592859,12.209619974219322,9.772349985584015
0.47600000000000003,-5.030296839795483,-6.043383947054963,2.842503213800228,1.624193508790313,-3.232955259830419,9.60495141388651,9.46355202478162,9.08702662108999
0.48,-7.5840163479160765,-10.058721294579755,-3.909199327936676,-0.6685316719674574,-11.897241303057626,5.465294814544677,2.3746693495270392,4.615107192620371
0.484,-12.417136431245126,-16.00308153642709,-14.034664614208396,-6.482859836243733,-22.481116815198675,-0.7540287695624102,-8.618304466528343,-3.3989327932465585
0.488,-18.53261744723477,-22.472983881307755,-25.02987021371041,-14.008579733941474,-32.658077186674745,-7.325700507002011,-21.17418704465763,-13.04750903725153
0.492,-24.022849567422327,-27.36872571832248,-33.66669895804557,-20.599316146302158,-39.80127565530529,-12.113827905636526,-31.751186240653396,-21.36515944572443
0.496,-26.773336809776083,-28.656305554257187,-37.25058747661865,-23.776726976118766,-41.78117754256027,-13.47874448349603,-36.988667228247095,-25.511306904601952
0.5,-25.40411480740522,-25.2761712924181,-34.69110730560101,-22.237380645710118,-37.72116344018684,-10.993648344170197,-35.11486753229201,-23.973894583691504
0.504,-19.97164254070003,-17.74568854941242,-26.890904169644728,-16.391591981992974,-28.39520936524434,-5.593670798268704,-26.693183719697345,-17.197172242579427
0.508,-12.03042285581978,-8.09173196450297,-16.258888248594303,-8.152109347662645,-16.02130741008739,0.9137721920201329,-14.323115532009751,-7.3182900009518335
0.512,-3.962021508342559,0.9457632743994964,-5.607228507793934,-0.06427245088593736,-3.463671058619525,6.714003356542662,-1.4573252941850114,2.8373142568389085
0.516,2.1008736958578993,7.082614938447364,2.9837015192490526,5.7877509847864985,6.817135860630856,10.760157329512367,9.039638943082991,10.9749481874519
0.52,5.201093206695532,9.450527053110022,8.797979518867123,8.5754991052288,13.601425938638727,13.089919026527468,15.893470593366828,16.16301166178107
0.524,5.847329091060146,8.854729682456764,12.343193971187247,8.850238690285664,17.135413107537488,14.54867526122689,19.52221485022892,18.8873737449793
0.528,5.522047196795029,7.193975804909314,14.625865621364028,7.998375980376181,18.679649078606303,16.121354739802428,21.297865134435824,20.399728395472266
0.532,5.699009616050716,6.357970910712538,16.307091277303698,7.368139196414063,19.646561932405575,18.286649400475426,22.47724603507868,21.793134541700624
0.536,6.954373673813961,7.2169043047965715,17.244289929380557,7.564766223686206,20.79574424132545,20.752805556098338,23.438019474981274,23.338472327706654
0.54,8.688355379848872,9.246034236139849,16.669707396909644,8.288540451667814,21.905615520312267,22.694056509239772,23.621172517227933,24.423853970636515
0.544,9.616750556395345,10.969154933838013,13.841950957616291,8.73875225702102,22.051233988123045,23.311891113240335,22.114057209224484,24.06032735396502
0.548,8.700687130089818,10.92312594749069,8.74256073219135,8.28366971262642,20.289035868664428,22.342599669096217,18.430814196583924,21.593380741016745
0.552,5.929958038316727,8.56706104362354,2.3694001095182102,6.962243094356268,16.334226193817813,20.196591323871644,12.975380563894305,17.171186879370453
0.556,2.4744290688765886,4.606947689402091,-3.582080686476729,5.509370377593996,10.832782292676256,17.68492793920109,6.908012636223475,11.720216541936225
0.56,0.1023744166573124,0.5735261733494781,-7.468902180456098,4.919188374764531,5.094780641102034,15.555523187529616,1.5631421671866974,6.504382078986509
0.5640000000000001,0.197422035335876,-2.063752130842431,-8.483938293574056,5.819213509908536,0.4532346096946185,14.146781589847933,-2.20036059645372,2.5669794552256917
0.5680000000000001,2.9334204880663037,-2.7089387885247334,-7.029197939311871,8.044244670675994,-2.3655818780529216,13.339617176843149,-4.319002193602728,0.35929714264534596
0.5720000000000001,7.085145336042615,-1.8991383587435848,-4.481854615069437,10.671370238963164,-3.505729551194122,12.777714065523242,-5.353866333722635,-0.2871943426753205
0.5760000000000001,10.581620319012018,-0.8969137159280081,-2.499962582977332,12.472892267674183,-3.7788911923070145,12.168566349644152,-5.999776856012204,0.0879007175009292
0.58,11.500145047243905,-0.9044464304729445,-2.229664602090452,12.522142106417277,-4.152006124294417,11.445806435932354,-6.607146282163967,0.8941892844150061
0.584,8.97303283934616,-2.3887681282106996,-3.829610912245471,10.601626837790604,-5.243010924609848,10.723883193644497,-7.023062166043701,1.6944872079494644
0.588,3.536783239667784,-4.910667527300234,-6.5246961368821985,7.2039157056822205,-7.085930496247784,10.11705070060384,-6.822350118763552,2.22531479080385
0.592,-3.2053479657295156,-7.506205152455095,-9.096511536965863,3.1761182721375008,-9.234825568952942,9.58049180296075,-5.726301369439398,2.316187983733016
0.596,-9.371220995842577,-9.333420047016148,-10.516259449420431,-0.7494100643571073,-11.092612705505985,8.929162643046084,-3.9062642356088872,1.8320303988497244
0.6,-13.59227738210052,-10.152781404833263,-10.376801192750918,-4.2387828147116124,-12.227868235589995,8.019820211363822,-1.9560674986310005,0.7138270337749191
0.604,-15.407051300521061,-10.352546507789611,-8.95236730636941,-7.31570307493223,-12.52427806599519,6.963145969249808,-0.5719944939596644,-0.9248889410081347
0.608,-15.155605085990828,-10.543152227669339,-6.910331712366087,-10.07124357774137,-12.113029378316469,6.168415544127129,-0.16408706654988237,-2.7555192061435037
0.612,-13.550608816902468,-11.018866744075808,-4.8837816145595525,-12.358416725849679,-11.180047903061336,6.1463782084308605,-0.6472432254250862,-4.318918744563348
0.616,-11.22966655331038,-11.46661228880862,-3.1652300210446356,-13.711037213732084,-9.817847870056198,7.175647069056367,-1.5479237366066627,-5.219383934070038
0.62,-8.539817579989858,-11.129242488560294,-1.6626485808316147,-13.558907081165557,-8.021243668380748,9.06172820443453,-2.32656950360672,-5.309844466993127
0.624,-5.6051912814484695,-9.315924401304642,-0.10306724456916072,-11.60574917811482,-5.81662224792035,11.172448574901182,-2.693049698117761,-4.739167947345209
0.628,-2.5555797133856686,-5.937178136175817,1.6836656445802873,-8.128035834968273,-3.4088613735832496,12.733251919684562,-2.712989786547382,-3.835934503736439
0.632,0.28516381894519327,-1.7177352256919676,3.5740724454166184,-3.990298889350811,-1.2209083121103959,13.222277187893951,-2.678359395328357,-2.9081519417707113
0.636,2.4103372252720874,2.0666541631321707,5.151734936579942,-0.3357067861502401,0.217132865622375,12.60813760318274,-2.860530837929673,-2.098585721076688
0.64,3.330804337992049,4.180420506480232,5.902100610220373,1.8936427478337237,0.48675252760415333,11.306178735054345,-3.3213273954132774,-1.3844332833183444
0.644,2.834098355425567,4.009056802090981,5.464494505754942,2.3446612494609553,-0.5290535103521847,9.890692466400424,-3.910982445894092,-0.7028032686004053
0.648,1.1186126481049996,1.7986542751873458,3.803793084565541,1.3387554874389025,-2.581728951677121,8.751126598645442,-4.444817797331211,-0.1105333014667167
0.652,-1.3030095165743205,-1.5602560443165885,1.2125396727178668,-0.3812981687590309,-5.143318994758204,7.888546174906651,-4.910366657136478,0.15640515613768002
0.656,-3.866076763408728,-5.049597247170709,-1.8506802172749985,-2.096348467463372,-7.614477628919417,6.9748491135529775,-5.539720779438426,-0.22348803967804542
0.66,-6.219407424521478,-8.02483616468561,-4.979252701533142,-3.4834752605700032,-9.558492158841943,5.618171083713378,-6.679862978934466,-1.4598151464621196
0.664,-8.324395043743152,-10.408875238345559,-7.973584984008085,-4.705941477337092,-10.862336489612517,3.668539414283714,-8.535133717359258,-3.471551421737445
0.668,-10.336224664440351,-12.498333592423876,-10.8415159646363,-6.186348483935319,-11.751703955939718,1.3565013420065952,-10.94912449384799,-5.8540676177346995
0.672,-12.379412223968075,-14.555351640240588,-13.658269859321422,-8.230807568875036,-12.658454879286865,-0.8191942954558726,-13.384046587505054,-8.031782845059638
0.676,-14.364580814038845,-16.474835008925368,-16.394280647682763,-10.729968785820063,-14.001279360258252,-2.3633637889852253,-15.1473995381333,-9.508756958808647
0.68,-15.970292550897625,-17.757144998301555,-18.8117714236123,-13.12102211172322,-15.967087636309827,-3.0206125428035193,-15.73407938291598,-10.071771349002745
0.684,-16.815978346193674,-17.82108554414532,-20.524411575549266,-14.651841006496625,-18.402330081461116,-2.8451269675827007,-15.10583240646963,-9.844559961873074
0.6880000000000001,-16.717433785572553,-16.44910776549409,-21.190656889617117,-14.791688352586903,-20.843117292545628,-2.110728259770326,-13.76304287801429,-9.18578020645299
0.6920000000000001,-15.857676389872495,-14.064784227342898,-20.725248681760718,-13.551569194613819,-22.665042706139104,-1.1391876362602034,-12.557788148011582,-8.506428291371037
0.6960000000000001,-14.73934473903455,-11.636763268965524,-19.40623404464759,-11.529077829317657,-23.302915518657812,-0.16942539130479872,-12.35072317344816,-8.110847078469362
0.7000000000000001,-13.918132286819741,-10.231804031077104,-17.7838204717724,-9.635707158618288,-22.449635402475963,0.6564463335220125,-13.673167047902211,-8.132524959089608
0.704,-13.666580838844993,-10.467544109328571,-16.444713529227897,-8.652417664396182,-20.172399818194663,1.234946148228687,-16.535962642260074,-8.553212455461676
0.708,-13.766579964601988,-12.171499936823352,-15.737334747490877,-8.837401620461776,-16.88787672119463,1.4577160361234291,-20.439930133208122,-9.264414461356068
0.712,-13.58638649896045,-14.456130111538641,-15.609013242591686,-9.796208759169986,-13.211536859623038,1.2345180970497722,-24.563608128139663,-10.134812819587069
0.716,-12.412899750690826,-16.174991452428458,-15.662286961981977,-10.670750021546667,-9.749279067529528,0.5753289429073902,-28.02715811620601,-11.044128455396617
0.72,-9.868890161744275,-16.517294823362988,-15.394681836866084,-10.549704152773074,-6.920153001560152,-0.3261603911681732,-30.127645649427336,-11.899629401154982
0.724,-6.183833850551537,-15.414598151131543,-14.496506024225312,-8.89835525917755,-4.894683029149917,-1.1068024516937385,-30.504682027827812,-12.663562175433015
0.728,-2.1451555540965046,-13.530152187860665,-13.026870735701777,-5.788282345420953,-3.63923778035263,-1.3726062464119195,-29.191430938980034,-13.379707853839363
0.732,1.2476009518898081,-11.857779962081167,-11.381714496201369,-1.8387649036657763,-3.022243284806848,-0.9121431933912163,-26.579716226506548,-14.17547519108308
0.736,3.2302899438723216,-11.176242217582114,-10.088215695188524,2.0574659938633886,-2.9223324553845487,0.14544514136730413,-23.315222799082903,-15.218595374935262
0.74,3.5713096947569056,-11.679655484757575,-9.554699049212331,5.066987926524746,-3.28487136890692,1.324968407626784,-20.130002083969316,-16.628661279147707
0.744,2.5678609281090985,-12.981478467868044,-9.937477218626043,6.642758320861503,-4.124212231140405,1.9990523358394512,-17.65554255115785,-18.381806775763835
0.748,0.7786571908418409,-14.444825772993624,-11.162237380026397,6.577328938344408,-5.467528353529417,1.6795604557734123,-16.242976916898556,-20.25986367350066
0.752,-1.336110612991888,-15.61184010234058,-13.058158693150972,4.908081891310985,-7.276090363149535,0.2551163415080282,-15.864470867443288,-21.895341422403135
0.756,-3.640652861041417,-16.46186360340755,-15.484378733064773,1.7781134104579905,-9.386845051100181,-1.944734524218802,-16.138157612682676,-22.893311080798128
0.76,-6.26839707683348,-17.34143353227836,-18.33137861293818,-2.6250331381207843,-11.492364522917796,-4.310265627252875,-16.473249418910427,-22.961669928565698
0.764,-9.339813366854628,-18.63511012287563,-21.411832469429157,-8.027924556631831,-13.186540195647865,-6.215040383959945,-16.30530360321643,-21.98566926889123
0.768,-12.66346323274604,-20.411139265911572,-24.327198304223884,-13.978575080107873,-14.060228679134866,-7.238633464609279,-15.304372847467448,-20.027225700080805
0.772,-15.63320106215508,-22.270406958418675,-26.446028279083862,-19.783385034725654,-13.80525444867368,-7.284618015460751,-13.483923184434047,-17.27712840758852
0.776,-17.424913567462,-23.50889677083194,-27.08187410294545,-24.576374829769918,-12.314983934799216,-6.549468031800188,-11.17339300645665,-14.009910403336107
0.78,-17.3800922255881,-23.488801089608785,-25.798131234669086,-27.516002655258205,-9.735992703160832,-5.379614714097102,-8.87080953262381,-10.569785471465366
0.784,-15.344201335854791,-21.975350929820422,-22.68256565579668,-28.025957467019623,-6.449979073661041,-4.095919514647562,-7.043603865722105,-7.361191111035282
0.788,-11.760196235526564,-19.23824720633428,-18.406581706211796,-25.970517748573343,-2.980191231261813,-2.8724992192010177,-5.966206907354888,-4.799972586390311
0.792,-7.451022198639521,-15.862245440205356,-13.98647968096651,-21.67818140248727,0.1626600834062515,-1.7169599799443631,-5.648847267025303,-3.200779664953245
0.796,-3.220762368194528,-12.39863052100145,-10.351831862322342,-15.80792696579124,2.632331004359628,-0.5408123913213103,-5.866267486850347,-2.630115223546227
0.8,0.47745981249636316,-9.099434885396875,-7.940438205905139,-9.136124375852262,4.333536820403083,0.7286782375643952,-6.251258273291626,-2.8232964001344385
0.804,3.6236501467946027,-5.898749145956799,-6.550977536990388,-2.376113287871135,5.396701612628419,2.058678911144966,-6.410146208638366,-3.24346717428881
0.808,6.44651243884266,-2.626972178923097,-5.5222600138918665,3.9100047657234995,6.0738920295008825,3.282223019694925,-6.0081721236614385,-3.2964275889062264
0.812,9.110820944426905,0.7072473219769222,-4.143165096855114,9.304103077360367,6.6143936272615065,4.1136770496793815,-4.826648458799923,-2.611571351019734
0.8160000000000001,11.49563950435163,3.7707805060331907,-2.0903588278543452,13.476594214466218,7.16879548534115,4.23629962911275,-2.8060892420347727,-1.240966238427177
0.8200000000000001,13.213407025734341,6.007249119074913,0.35754934416195283,16.160214260856094,7.761639085885577,3.427771235920204,-0.07109360216554705,0.3590859956053123
0.8240000000000001,13.857540719533176,6.932178550565197,2.4274208316857653,17.195078534782283,8.314681573791944,1.6802872770258546,3.07375210474936,1.5799128435294278
0.8280000000000001,13.289497102107134,6.420755044327677,3.2203730037618357,16.602477232338856,8.688169048140338,-0.7240510536453257,6.1923811099893555,2.0098721548234266
0.8320000000000001,11.749974143321765,4.785685059079583,2.137342806521417,14.611728000593757,8.702289580359604,-3.2557552039645543,8.820824174007043,1.67779404274728
0.836,9.720989940099912,2.59281273001875,-0.8595940134892999,11.598018842463716,8.140996466738585,-5.293897888167976,10.591100629604625,1.040114029977076
0.84,7.619494892758212,0.32769805421554565,-5.249239556838347,7.949692032034818,6.777575656531269,-6.350655038084142,11.344222881450833,0.7189777000799609
0.844,5.53761061806847,-1.867645393211319,-10.202975956491969,3.92706740117427,4.427979309008094,-6.261499530783226,11.172498636905573,1.1439306421175388
0.848,3.220410021127691,-4.200759665986908,-14.913652583430007,-0.38591851654243214,1.0565269230547472,-5.256055553894839,10.365830478833686,2.318174647513331
0.852,0.3016214553744021,-6.9748864438676605,-18.837075639009925,-5.001567305401011,-3.114580072141507,-3.8731072002308338,9.287225527083308,3.849708661185275
0.856,-3.3356916308918017,-10.23932559313974,-21.762606163073656,-9.863117867982425,-7.575635974581473,-2.7457073244042363,8.220987384283887,5.223699400618244
0.86,-7.314894837689792,-13.579452384019476,-23.71315670772117,-14.690040174200135,-11.624380195715702,-2.3538483596905735,7.278473860582437,6.137707570540414
0.864,-10.809369588642369,-16.20187810095331,-24.780152166391076,-18.951942010997897,-14.583059707042224,-2.838127847312535,6.398605294733329,6.677037486980225
0.868,-12.870177636877088,-17.273213602506786,-24.98674887996333,-22.002194107833162,-16.028160074355384,-3.974520613005893,5.4512265938599285,7.227954283802376
0.872,-12.87603061906151,-16.330944473314048,-24.24985586352375,-23.327751718622437,-15.913192003975439,-5.316019231586438,4.373881954720787,8.174325821330001
0.876,-10.843757912602769,-13.5335941176767,-22.449023122834717,-22.779840690142265,-14.52398580707137,-6.415449016644402,3.2701652384812405,9.588982483432858
0.88,-7.426999898372685,-9.61138560577487,-19.534134007130092,-20.64832325737234,-12.289869084083932,-7.027313629695698,2.4144703057515358,11.124346141632003
0.884,-3.5962625166508815,-5.543897475741801,-15.612104661385558,-17.532753042562035,-9.563858627572955,-7.1730387228039945,2.1410954855567184,12.200853179085328
0.888,-0.19552581383481993,-2.15528032006182,-10.980499814111568,-14.084542160060494,-6.511785155543976,-7.051850257841693,2.670808666948915,12.356637819872162
0.892,2.3731882908456328,0.1597646732080591,-6.096774521318707,-10.76146584799909,-3.1612345039527554,-6.883729192348028,3.963015791241048,11.540682032606298
0.896,4.197348367454822,1.4654914201118743,-1.5063443348964825,-7.724984871839752,0.42704563096316406,-6.795661429334757,5.669398940088172,10.152777440285405
0.9,5.639611315497291,2.103990035372078,2.2568854523188975,-4.913446069064406,3.997654181987599,-6.80524200124529,7.228413803605861,8.801484841406506
0.904,7.029376387843058,2.4507303428895284,4.770832346540033,-2.2302623362706413,7.073240124120133,-6.890765036091068,8.071938187019612,7.92767888113417
0.908,8.449862701729444,2.743212411717195,5.815756682014921,0.28234849337729884,9.107015552544055,-7.087745116248925,7.861566166741397,7.5398715778526935
0.912,9.710994993184045,3.0404299618756454,5.427010495871741,2.3862486943010026,9.736621751229507,-7.537856695819528,6.641755578816401,7.221062694412353
0.916,10.491147261958076,3.286649463873914,3.8878952135973464,3.728103208837865,8.981644057129131,-8.419308219362392,4.831349719470438,6.412246810313093
0.92,10.523645373142699,3.3891093323750283,1.6683268372553925,4.005229298277754,7.265121770539736,-9.815328701961107,3.0634759159623854,4.809612944141918
0.924,9.705043536199128,3.2452817051780585,-0.7057863271276119,3.101697554729469,5.203964399292431,-11.60059736024482,1.9370158986026809,2.6069620800326447
0.928,8.07899670655388,2.7264816965599152,-2.8014698511768756,1.1149276424759478,3.289378432286071,-13.414039180146801,1.7877509730225256,0.44471311101113997
0.932,5.7440756498990595,1.6776767026777293,-4.398313578538591,-1.7167669608704728,1.6427518095813411,-14.802405807117339,2.5646966699396216,-0.9136930981960631
0.936,2.791381478436392,-0.012596028046345964,-5.532136025860268,-5.1154067111324935,-0.0020828785909543512,-15.46885144882583,3.859084422232627,-0.9740866982608622
0.9400000000000001,-0.6591358585822036,-2.287816390266414,-6.428959680335765,-8.805438936035443,-2.0614965871471327,-15.48267406364198,5.079682251151098,0.2485361260588661
0.9440000000000001,-4.357475857994245,-4.833437804044877,-7.373997224329742,-12.486724066477791,-4.763864308332245,-15.310091233498497,5.675206351483553,2.2647717671949295
0.9480000000000001,-7.852449762286938,-7.109218172839178,-8.55439291670291,-15.778199279773617,-7.897211071318679,-15.607547156487271,5.327294070424955,4.389846340383542
0.9520000000000001,-10.547882923569887,-8.531544884686753,-9.941416045030792,-18.217583362433857,-10.802505039825178,-16.866460726492733,4.035697244785979,6.066153434805528
0.9560000000000001,-11.906120851582727,-8.73223732754957,-11.276814630648573,-19.386229858580464,-12.642682751040752,-19.091509347829287,2.078208838503542,7.034002637420826
0.96,-11.711860788682088,-7.754053333663364,-12.15661909257119,-19.1114308187025,-12.799043060781628,-21.683106802146995,-0.11651676484677864,7.290556479552606
0.964,-10.228901918631891,-6.057817378445748,-12.184378435079225,-17.62448898470211,-11.19310028718553,-23.64224770702117,-2.1234012270840594,6.908070093360493
0.968,-8.131292462078818,-4.30989629243777,-11.129819248995432,-15.534904852485852,-8.355664857164015,-24.022484286986128,-3.6445971525251935,5.876026457084549
0.972,-6.205852723554017,-3.0548108311518263,-9.03094343195994,-13.573395098419951,-5.192719547849947,-22.40402996688954,-4.571540676635095,4.102743132831506
0.976,-4.960393409397739,-2.445983514379577,-6.198282621367412,-12.215598044003627,-2.572705889770532,-19.15406979092245,-4.992124153145596,1.5742091297436218
0.98,-4.352098540744919,-2.1908815207011685,-3.111601155601079,-11.387263783206663,-0.9439302732426995,-15.330753122669421,-5.127370365311663,-1.4591198812979655
0.984,-3.7986240123318566,-1.7471187599740006,-0.26346875493197786,-10.457706655475477,-0.1870791883638958,-12.2499064324129,-5.242885138316069,-4.435746424020294
0.988,-2.4818003745835995,-0.6529747525923995,2.0021145964241214,-8.56433083065167,0.242514334630755,-10.905223125196244,-5.534241999641154,-6.654965309391628
0.992,0.18968302008943283,1.1970719916986354,3.5876357192360047,-5.127534084157105,0.9774517327667809,-11.543243538053275,-6.036265139453917,-7.602610437646945
0.996,4.196155225740995,3.4835819598538365,4.62653338714199,-0.2844469508761449,2.3846160234147646,-13.596143066342847,-6.591711431787644,-7.243326415591127
1.0,8.804711939395474,5.633380105515926,5.373030716227731,5.019874597673834,4.3807150214040576,-16.007833044414838,-6.8920703870792295,-6.106658849947962
1.004,12.833401082924865,7.133100010302883,6.038092875263828,9.378143336851053,6.496401851311248,-17.759837753012107,-6.603960358466111,-5.072182375052421
1.008,15.15597846025912,7.790493180156091,6.653650837055466,11.54680662248279,8.121174206516685,-18.324354202516133,-5.535129587480242,-4.95749982152779
1.012,15.192700849262792,7.791129520516051,7.0329477591837986,11.017153414425138,8.790127208794274,-17.82720453429397,-3.7603217164087255,-6.134577031332128
1.016,13.15647810504288,7.529719995959113,6.8380247925406366,8.227700427887612,8.36175805864275,-16.850150719186786,-1.6512524405818567,-8.37151345094162
1.02,9.92065880628229,7.320214456724216,5.746463951392343,4.299116916700314,7.020523606220991,-16.016202689560032,0.23654811776327733,-10.976888793679564
1.024,6.588272703517305,7.172848420008222,3.6351289247179466,0.4351174628418448,5.122669029213512,-15.596050574282117,1.3887111689687117,-13.159296658027529
1.028,4.003400909152788,6.7835775432319,0.7073842223815063,-2.648342708999735,3.0158048261785098,-15.400097232697817,1.5693382483041205,-14.376634444276078
1.032,2.4414377088778565,5.74754562741407,-2.4939472739924895,-4.943805688159955,0.9436679861543098,-14.986133220944112,0.9380287461654007,-14.494046552306145
1.036,1.6137982595646463,3.8712738558738238,-5.203435471897137,-6.923152494074884,-0.9234214819923636,-14.039478950303419,-0.018761302894290566,-13.695026584375682
1.04,0.9615040619378306,1.390684974318674,-6.6242975304026,-9.012984377816792,-2.3654452021814905,-12.69429153590363,-0.7149445790294067,-12.246689107637621
1.044,0.05869568389698543,-1.052411535201827,-6.145375737943596,-11.126967593294466,-3.0235933764586207,-11.561169192506895,-0.7566785870715194,-10.299784189719958
1.048,-1.0921013306860914,-2.6775281333784733,-3.5126559763186833,-12.555729534078864,-2.4358407717281807,-11.40569562383098,-0.1432958111595326,-7.847606491304759
1.052,-2.0346056434036655,-2.932877634805436,1.093549585423716,-12.299096199581754,-0.21168468757036862,-12.656820990559481,0.7467393558683852,-4.870790784883411
1.056,-2.099430204233613,-1.7443736024440568,7.096589904411303,-9.641390554023246,3.7428935648511015,-15.035635320946312,1.397908348560577,-1.5322018818942524
1.06,-0.7636507348711348,0.4954563892158603,13.667347766429657,-4.611992217409352,9.076939826633406,-17.564559545193333,1.4920683286281928,1.7268001974669005
1.064,2.077679276371782,3.193317897970246,19.921284810451652,1.948661996785404,15.017624928517534,-18.998531085620925,1.1436154911061749,4.289849426940009
1.068,6.066830401269726,5.915999328810358,25.123089217169536,8.76320594069125,20.579903998771442,-18.47177883713448,0.8977645380923605,5.630422042622968
1.072,10.565374168165363,8.619268337169615,28.850731627573623,14.706895978254352,24.873950158919115,-16.017479946144704,1.4744413752791843,5.5806794951420216
1.076,14.941518781630293,11.60146811092136,31.064341170356556,19.267775437907403,27.370049690704946,-12.636643289561107,3.3722466839071785,4.449846442126727
1.08,18.77301769233236,15.185794032942795,32.04718454216163,22.606468861606572,27.994717649473387,-9.851311808031824,6.53968330906082,2.8976241608816053
1.084,21.87590359906926,19.329681659667358,32.225652875579044,25.208379499410057,27.022251063820704,-8.948788774868717,10.29689866972376,1.6213659179322804
1.088,24.18104808494536,23.41535891376816,31.945956527518547,27.38409844139028,24.849865739046663,-10.295875561102093,13.584408035661,1.0389603859389354
1.092,25.56755984001211,26.38875046076305,31.3073146857746,28.959678915862924,21.796479273748446,-13.114952825007549,15.422863383290405,1.1362906549472882
1.096,25.79476174876436,27.20965325681459,30.125382516348054,29.35705277523357,18.031437442634797,-15.864307317496241,15.342155904991614,1.5549682943003518
1.1,24.595919484418573,25.382740112444253,28.076894292837096,28.00904656267585,13.666656433736762,-17.048465260692865,13.579570259376396,1.8472480748762337
1.104,21.885491964446373,21.272298166288238,24.938553257275544,24.826325389443582,8.913063429630256,-16.012454078079372,10.934592288577733,1.7501335519546046
1.108,17.938890936945427,16.009007666133584,20.81010016041273,20.400852061758542,4.182956706846198,-13.280314344813178,8.37886925394514,1.335735325968244
1.112,13.392176880508487,10.992085434820865,16.179353552801786,15.776944668826445,0.02813674281310341,-10.262078621743058,6.623987782172662,0.9381111740194683
1.116,9.033235385702937,7.247239157943568,11.76339274680413,11.912863392416284,-3.0721305749787007,-8.471149991776201,5.850352257041777,0.9259855118398264
1.12,5.483303297851762,4.988993786191713,8.207887885680975,9.173816457615658,-4.930259633046717,-8.68231425704289,5.743048546192767,1.4821742772999187
1.124,2.943798582839463,3.6138267419239583,5.771737689084603,7.1654619699504565,-5.762827431761252,-10.50135547426953,5.758540945664208,2.5012375705719023
1.1280000000000001,1.1626674698927673,2.1274009918361116,4.1940984741545435,5.041817794037797,-6.0928125903233195,-12.582333561629184,5.4697812505714865,3.6772712507338383
1.1320000000000001,-0.33849311595395193,-0.21434152121810257,2.860607714386333,2.1347750130225904,-6.448384981168147,-13.370524034949085,4.809990669959461,4.714270039303301
1.1360000000000001,-1.9031237443387,-3.4088427529002274,1.198074117507531,-1.4757669909804463,-7.026213883579658,-11.977428931321356,4.074060042907149,5.505020094968131
1.1400000000000001,-3.4615656466912696,-6.632392712893079,-0.889631443192684,-4.803121576912645,-7.4975322194343335,-8.697702108539943,3.728394090506299,6.165740048983025
1.1440000000000001,-4.4910170038792785,-8.61971480404327,-2.807344663967342,-6.331148491425438,-7.093495125659729,-4.863484946306016,4.141519311206139,6.90570261651601
1.1480000000000001,-4.246992185006093,-8.293107557640724,-3.4287541942894677,-4.747607815995252,-4.957518810923375,-2.1295790011199642,5.389028559735834,7.809954741160254
1.1520000000000001,-2.15370441729101,-5.3055742149590515,-1.6053987013447113,0.34950764883524243,-0.61480341666811,-1.5874488762519832,7.215450901310305,8.666045880534966
1.156,1.8655709875629327,-0.2063607065119868,3.210921095002959,8.156421746200067,5.673630151881298,-3.1782198478840655,9.151498721146709,8.974460722805816
1.16,7.288839424889375,5.827882677816888,10.55276683199736,16.93433862681104,12.856863590603552,-5.731968845254414,10.703855055143777,8.14951901452423
1.164,13.185348585763677,11.531568975090067,18.95610700198995,24.714088011418426,19.3837247230731,-7.5842518407444,11.526060076360409,5.840528980663294
1.168,18.572797111029104,16.047594269012734,26.446450887294304,30.063028735537046,23.716190230479697,-7.431299505360585,11.502096228261053,2.1833542326726274
1.172,22.74655882533625,19.14057882486486,31.29826771237822,32.547214669437835,24.87300650270663,-4.973660086734526,10.756205084082012,-2.1557788305299255
1.176,25.428855551919696,21.060472759639197,32.70645151793087,32.69493006939729,22.773877165632257,-1.0229211833166119,9.60810796010901,-6.18790395133874
1.18,26.673728195795775,22.16950145134706,31.04728207816288,31.51630385238377,18.238796576156346,2.937582621531874,8.480609074162203,-9.002012947921685
1.184,26.638655384029335,22.586007611022524,27.60096182398729,29.866744537402155,12.649694213514067,5.485363954165223,7.77611967013172,-10.153107507460845
1.188,25.384810081183787,22.057745849715047,23.888748992335422,27.998723943826462,7.418769879446245,5.893719824203799,7.750662192073833,-9.83477472800223
1.192,22.835953445579435,20.124579044106667,20.969356859549407,25.52022768982306,3.482673635849551,4.3665909281235145,8.40101135871646,-8.753048695318284
1.196,18.939623815592313,16.478377748696857,19.053288758131202,21.756582268486,1.038743681111555,1.8249535799459409,9.43898472868841,-7.745902847539583
1.2,13.885175281114243,11.27887639861001,17.605194962237874,16.288128263367526,-0.38519533272074113,-0.5967579496518738,10.402114307533338,-7.343568013938693
1.204,8.226898744967912,5.234209907927379,15.830324420152465,9.355318386859835,-1.5827092008807995,-2.0784911163145807,10.870053938690035,-7.511662592425182
1.208,2.809985376635268,-0.6061515850487922,13.256553738980983,1.9117909849537682,-3.205015308980819,-2.401153559046179,10.68559841215847,-7.70100512482577
1.212,-1.5146311601401976,-5.253482702412384,10.064911368008325,-4.727328028643569,-5.4083133254334825,-1.9058407171796716,10.038882723849383,-7.217012307292407
1.216,-4.253670541982501,-8.175620677492134,6.978964946117685,-9.461221839571408,-7.78004027272118,-1.2440567215035117,9.33020426780331,-5.705501872601872
1.22,-5.531750605254274,-9.504055424441049,4.800364879243261,-11.912702576360516,-9.57120544209647,-1.108180677882956,8.838184999493023,-3.5099958270798197
1.224,-6.082794087831644,-9.948275633916182,3.8734690761589263,-12.600153333012713,-10.118956182637703,-2.0358239612160105,8.387141172554948,-1.6804844365351528
1.228,-6.928292926943868,-10.445859454657239,3.829192228266038,-12.647183132426562,-9.224916344500798,-4.313351692248943,7.2543781903223135,-1.5789074262447684
1.232,-8.866864821771742,-11.70345361781392,3.79734687549535,-13.14922412701435,-7.265860438461459,-7.936484333344197,4.452357549581393,-4.240771136297553
1.236,-11.989218853053899,-13.817207146305009,2.9875823869297164,-14.497642032814383,-4.962025124145839,-12.560550305347533,-0.6891307457935909,-9.784581568433623
1.24,-15.46794103929642,-16.14060705271595,1.3087282642081846,-16.014193881959727,-2.919081837507747,-17.46508474899565,-7.924276475671832,-17.174984745801794
1.244,-17.749410129386888,-17.456783085145616,-0.3708085359112374,-16.124917006297437,-1.2115309043488196,-21.58865339314798,-15.839657689561136,-24.471968031491997
1.248,-17.11292384051194,-16.412201237100817,-0.5371500481678595,-13.052075268745284,0.7136988461011242,-23.72235234704476,-22.17474889153891,-29.506338925677483
1.252,-12.393917597039945,-12.059070762293231,2.2029296217178853,-5.719106246936008,3.7214501090275007,-22.87056825977652,-24.65605303917073,-30.691662776649537
1.256,-3.5756935381250514,-4.30125074537591,8.280933663027099,5.546985214394681,8.394462991356704,-18.673998753622072,-21.99156465584747,-27.639251895270263
1.26,8.012108684586565,5.929340482792668,16.729016679326378,18.8832356311691,14.505245078447842,-11.684569544214355,-14.519375877024686,-21.30208662332643
1.264,20.007923131903226,16.843022713938353,25.402390203881623,31.425759052330704,20.86973998696385,-3.3041614015355663,-4.183628237679841,-13.592856758104972
1.268,29.76435959461287,26.284545297178738,31.805836334834567,40.320866306018615,25.733951085249373,4.627154646544113,6.204288165859907,-6.641466466503061
1.272,35.23578602204179,32.37876789525126,34.13442126001337,43.763323637228495,27.54319338390269,10.47420307165703,14.07870435843688,-2.0070155303833417
1.276,35.63438073336965,34.08744395408257,31.987983908693423,41.575254890642555,25.678905287064026,13.380593766185484,18.061837893773372,-0.18638411060419457
1.28,31.59615030516943,31.480028424790362,26.42428851780278,35.10409794159932,20.77318364836856,13.50102641410922,18.313161210235194,-0.5841848344152822
1.284,24.804403427102443,25.619063975120298,19.341948921490257,26.507380110863778,14.390899930437627,11.80033765258213,16.155603613106905,-1.9191358985208353
1.288,17.241686536024645,18.106167173477388,12.53685979245438,17.793646217327023,8.23486221970279,9.537375641592917,13.242601150713199,-2.8415194566023274
1.292,10.426749179787294,10.496921184088023,6.951287565357234,10.091087600824267,3.3239611618546405,7.707119446532488,10.746490050806642,-2.475846908474523
1.296,4.956193442229051,3.818484279261156,2.4746216211333376,3.440868086219325,-0.3973635348302196,6.706645049636791,8.962728827763385,-0.6848835964101454
1.3,0.5158149725393741,-1.6273961174815668,-1.6396878731511606,-2.8464464660482918,-3.7809787999162836,6.356716305814189,7.48611298707965,2.030087467055637
1.304,-3.6854426864592824,-6.115600764272131,-6.045698420371991,-9.530228596721827,-7.698773128436642,6.203839759210496,5.762491587187469,4.871223796025333
1.308,-8.324958368413718,-10.116910418172665,-10.70841575848408,-16.85373098576474,-12.24188826476302,5.9011516652035425,3.6423964883524604,7.142430794612665
1.312,-13.511241981688727,-13.874419527245664,-14.768188393828495,-24.306234226275592,-16.380766446784946,5.427932810371203,1.611176972607609,8.52528646729661
1.316,-18.669720376967234,-17.143321383137845,-16.946260080052525,-30.81137910410689,-18.334371366948744,5.041331041473313,0.5598685202776323,9.132384139492387
1.32,-22.788432088029367,-19.211194045053162,-16.219839392179892,-35.16835044772597,-16.46410971009027,5.038074675630924,1.2708930740873257,9.361893513433643
1.324,-24.854572708001797,-19.181003360341492,-12.398794271782208,-36.491451698141645,-10.220985406949694,5.516926212301769,3.9185323208439513,9.651734419662716
1.328,-24.244771746867627,-16.37444979447355,-6.2823315214718605,-34.44193012055439,-0.605380176638846,6.319768499797647,7.886063355614169,10.271855523476916
1.332,-20.91587307030386,-10.678348581393038,0.6729523097628771,-29.21622373918035,10.13402002194016,7.191582499724973,12.000592808148212,11.231645513728836
1.336,-15.366195913715273,-2.692238328003441,6.949421815208552,-21.40786090842721,19.40260196730742,8.024379722121012,15.029598969859762,12.295354815809333
1.34,-8.444660809864217,6.382355107562034,11.522098168799857,-11.86946288798572,25.30385622210906,8.980772253338728,16.185241030825637,13.07891033533815
1.344,-1.1304107714222482,15.066959718601538,14.108757489775599,-1.6489619866533758,27.292137064456256,10.396010585667682,15.387893403962153,13.187479910242473
1.348,5.631533236137329,22.015271318670784,15.047771996597476,8.039536475634122,26.133857453566634,12.50494190180325,13.192395636663605,12.341545426603261
1.352,11.036144528106888,26.366525624251153,14.949972327737669,15.929316830535754,23.281200431792968,15.160125432308632,10.465494176633001,10.471836728544076
1.356,14.500235859204622,27.930150328867057,14.340153962624754,20.947626839255463,20.044905977730195,17.743602403126715,7.993180581350316,7.75166252267536
1.36,15.744799696629343,27.1553320504554,13.484686979945764,22.550340208614216,17.04615295784788,19.38209626417847,6.2145787268236745,4.563601368766285
1.364,14.883666009392982,24.924637281762443,12.44176693722784,20.981448004567937,14.205551835193546,19.36822124218088,5.187337960023797,1.4176300882581927
1.368,12.463263637413547,22.259256763582925,11.230905210351011,17.281177400189335,11.175634932281355,17.560364982211468,4.7545460763094525,-1.1815301705319143
1.372,9.364803524942545,20.016900255960536,9.953124257075615,12.946692176905344,7.865302529859036,14.54755618974741,4.760502524666663,-2.8891973430581857
1.3760000000000001,6.576123371798531,18.688631680655817,8.779391445498732,9.364280689806947,4.703879574646635,11.453877561174522,5.182397393369683,-3.6018927881041236
1.3800000000000001,4.881468648576629,18.325314654106478,7.82456372121851,7.259693880818304,2.463730140489133,9.435588726857532,6.102216794033666,-3.4526983592677425
1.3840000000000001,4.591027828973893,18.593818564814683,6.99948539379875,6.42677035413999,1.7610198996580948,9.155601082042267,7.55257564074418,-2.7146955567186524
1.3880000000000001,5.430670806699709,18.929035697245126,5.9667202862283375,5.882316380288103,2.5660503849949237,10.491625696551637,9.347072995091366,-1.6618082728637091
1.3920000000000001,6.653880059424409,18.7317504727871,4.276611343250806,4.396544946193899,4.074780838296647,12.62047943986181,11.0371061217229,-0.4502397578180535
1.3960000000000001,7.335804486732741,17.55628253951818,1.6153404449269146,1.135366111840085,5.057050742442698,14.427330216647533,12.043352752989449,0.9122120669044307
1.4000000000000001,6.719700177518462,15.238753367702884,-1.9630408611110397,-3.897603960162087,4.515049374720547,15.017573906601683,11.92407418527182,2.4880945578152023
1.4040000000000001,4.48679269342756,11.932729235159968,-5.969293266476598,-9.84312465880339,2.2730256628374264,14.085268987759264,10.625760393277233,4.268402956043246
1.408,0.8634352618646517,8.054314531845193,-9.624635943082467,-15.377610463112433,-0.83784602398282,11.984116518113296,8.568480862490105,6.071361228500791
1.412,-3.4652628907570033,4.159396740733428,-12.168612989177745,-19.308479431470914,-3.331757707980614,9.487054185730813,6.488233472971842,7.5364396891691285
1.416,-7.590855921251205,0.7926635170406371,-13.192193907708315,-21.076020755628633,-3.7917548889708996,7.401918745463263,5.073754388522502,8.2287997547528
1.42,-10.665410002153294,-1.6317969217761856,-12.804555621954023,-20.907709435929974,-1.562060604751423,6.230428872786433,4.599959710769326,7.822254237510606
1.424,-12.133673022544826,-2.8852441337667187,-11.558320696957708,-19.575050449941045,2.9353375118134863,6.013734625552388,4.751696502440609,6.264376174370227
1.428,-11.835249544623366,-2.909178296270511,-10.161506411623122,-17.902339403050064,8.415182770736465,6.412518404753428,4.772030810498109,3.8509210463225827
1.432,-9.959841761228745,-1.754102854584744,-9.11176140394673,-16.299174935811607,13.344885436647019,6.941510523574834,3.884772939443792,1.151229023547785
1.436,-6.898481575000915,0.4775848751414742,-8.453005276105614,-14.569280796809835,16.627066073902824,7.226445567539486,1.7599661337862926,-1.1918554468757065
1.44,-3.0794949140454264,3.6378574105465304,-7.782094766105729,-12.095192828452127,18.00018403908416,7.148359883296507,-1.2402410419126682,-2.709861185408954
1.444,1.1375272898822004,7.4748484060710325,-6.527633304072879,-8.294350639753247,17.95966507816047,6.834234750162068,-4.200737164550446,-3.310239202095545
1.448,5.463913469358886,11.55388754771684,-4.355515337305405,-3.087983694707873,17.290016744402237,6.522807050832853,-6.139835986597973,-3.3491054551195703
1.452,9.592379281697504,15.23749298974144,-1.4665732387020398,2.884979113652662,16.51443797864613,6.3865065380941815,-6.56708492913458,-3.5108526108188016
1.456,13.11600965242178,17.799718893509635,1.3929229026907706,8.445706328604501,15.58949032196324,6.407288670205162,-5.79306953088053,-4.520809719408135
1.46,15.533472712790171,18.65715504954278,3.2534576262805786,12.365044554202541,14.020681269049419,6.353916331921937,-4.788282966681436,-6.790879257745473
1.464,16.373734458100444,17.622543852528906,3.4060754416204873,13.91440912554117,11.296053541494075,5.887506799677794,-4.653556785939145,-10.134490046698374
1.468,15.391710869396775,15.034427683648573,1.77715459781939,13.171681389594596,7.341785744019944,4.753279165028289,-6.0013545303590945,-13.699717333081935
1.472,12.73214622609703,11.663441427561338,-1.021445305501402,10.921001669348698,2.7111096650432955,2.9337199900310225,-8.595110317646686,-16.203195199130278
1.476,8.953220000748843,8.401111692308405,-4.024529590435122,8.197415326239934,-1.6392777519095034,0.7035656796379044,-11.476672752874947,-16.417282083851205
1.48,4.852973245024259,5.868055318232109,-6.434801847293784,5.733260114316181,-4.845012170157133,-1.438524404198688,-13.505242773468126,-13.727141574347115
1.484,1.1711237927538605,4.141799638267912,-8.055127431573055,3.6089757519439445,-6.614860385824613,-2.9696042828145437,-13.992018334216482,-8.505244242925073
1.488,-1.6971013965921884,2.747051249434662,-9.3729098132535,1.2872160964107024,-7.412785371599057,-3.563903719294103,-13.057539585890481,-2.094258740244186
1.492,-3.8302955857761845,0.9297142000259555,-11.226876334363624,-1.9953652773028807,-8.212680000724504,-3.232945943082086,-11.518636215647348,3.6542334845453297
1.496,-5.678826298206332,-1.9067343461492783,-14.244113049451698,-6.713054232329341,-9.948772027571067,-2.3165774445915304,-10.370405642959668,7.124667547268473
1.5,-7.7968602572073,-5.835575949786289,-18.3587916016113,-12.710506271728264,-12.959590795152508,-1.3273481674277718,-10.163981121648249,7.632807231258994
1.504,-10.545799347681168,-10.310961794826653,-22.708477768172088,-19.227506853876548,-16.737091721417528,-0.7119443227857118,-10.67241592983737,5.736692065310308
1.508,-13.910091108769848,-14.39693898056521,-25.987867885767628,-25.259764964795067,-20.13708132193642,-0.6544770023501769,-11.036321089228295,2.9792242892826835
1.512,-17.508463971458696,-17.194071644007636,-27.066934302689333,-30.026048518382595,-21.925938053203936,-1.0150122617233137,-10.28521956597433,1.155566534585887
1.516,-20.750007213729987,-18.220147312558765,-25.538627055222605,-33.25037029387386,-21.36481140617252,-1.424910150393771,-7.925579175185703,1.451980829855529
1.52,-23.03138511467114,-17.546821269826978,-21.886202102628886,-35.09613854454892,-18.520780757435205,-1.4882289348643098,-4.2494854668493645,3.872226610626967
1.524,-23.866664936354937,-15.635506507403989,-17.195621200220558,-35.82470634060974,-14.168875209844373,-0.9807591127610067,-0.19944097591360332,7.239875522336661
1.528,-22.92684535702574,-13.00607744878289,-12.597734112890976,-35.430360174821544,-9.385633639927619,0.049032152881409274,3.10131320187611,9.769063260815528
1.532,-20.04833533396959,-9.957223455004168,-8.752443471898005,-33.52176514166149,-5.071570281594177,1.3240147649485152,4.8873918994067935,9.918373881805564
1.536,-15.276798804345162,-6.507146076563004,-5.665297234259924,-29.561944879646035,-1.6681340118429944,2.4907393207304267,5.057395450889089,7.1006242089779334
1.54,-8.961851854253837,-2.566113400798713,-2.882235857323394,-23.325480375099687,0.8344948186258989,3.2869877018019906,4.109022766217095,1.9108470192304594
1.544,-1.8185662491305266,1.8019932157794756,0.08646589236559521,-15.276608011639837,2.6680299178069617,3.6403728703589877,2.7920800408573996,-4.194674540838605
1.548,5.140481409780477,6.220883330432116,3.3806415759245283,-6.593929807757377,4.015784343930136,3.6744703134500014,1.7050350540193904,-9.56327777138904
1.552,10.839379873541475,10.061153703509262,6.6665209324455645,1.2206293207600538,4.875950245500462,3.6340622577336035,1.0542622573884728,-13.01046959938867
1.556,14.486863279882527,12.699698694093968,9.318458316485703,6.958167273935032,5.113197045453489,3.7637849182610807,0.6627295464350027,-14.18806678214969
1.56,15.87548184332627,13.820093855189043,10.779833255612175,10.217611082913209,4.630337210414837,4.214884639448428,0.17426890877504775,-13.538597713928539
1.564,15.452332931618002,13.56045628310767,10.858809712190123,11.506058567067157,3.5060827851229988,5.008771040760621,-0.7034875268909673,-11.939061242626849
1.568,14.092619355988063,12.41301340242262,9.800881929317256,11.86533222374237,1.990980664264498,6.052930620262487,-2.048047994830995,-10.273316381812037
1.572,12.667034675472678,10.937994007836096,8.132312124775126,12.242829347665975,0.3756716101042912,7.1829052704815695,-3.7143148608593037,-9.139405906646061
1.576,11.629137307645578,9.475941776785476,6.390112325305381,12.970184197260096,-1.1616226601126982,8.219775849254802,-5.425061237652699,-8.76750218689267
1.58,10.842003944013413,8.02940229126034,4.911313009008154,13.646667250308383,-2.6065815700676467,9.000902373401914,-6.890809930733667,-9.102650427417757
1.584,9.740825893208239,6.3703958717305795,3.770351984878289,13.471806978701352,-4.023853258220697,9.39283441277803,-7.896838995628059,-9.915308867508429
1.588,7.73474325472489,4.286429118374144,2.851500528469842,11.810158150918141,-5.405352219580891,9.323487246489094,-8.342281997600367,-10.854701569343888
1.592,4.5982525869658275,1.7837822111887363,1.9640859064165852,8.634178755434732,-6.571114051710538,8.807432701310972,-8.251173034212115,-11.457863911811728
1.596,0.6292837648288696,-0.8816197204237142,0.914723004399093,4.576622903282441,-7.211989554632964,7.953293228290022,-7.753303243767277,-11.178167878194472
1.6,-3.5182234914027504,-3.354284220635236,-0.46861486597936164,0.5732850494459854,-7.058835954733695,6.939490312111047,-7.025201763574387,-9.507458913967639
1.604,-7.217260946603346,-5.399312418606314,-2.324869533063975,-2.6803714171710453,-6.074142751986074,5.960595196855138,-6.2042049045903696,-6.180849010559541
1.608,-10.207220037034858,-7.03031675146849,-4.694907612876705,-5.108224012601568,-4.527556793324038,5.16976665817856,-5.294656418513114,-1.3533099937012594
1.612,-12.668325473241566,-8.447789937959897,-7.393613843609273,-7.219849018880268,-2.8786172344644,4.650300976121798,-4.124521453482885,4.363888469135418
1.616,-14.968752665750799,-9.807900166157197,-9.89893543276412,-9.673954036357827,-1.511043876513213,4.430741498039424,-2.401515108671447,10.068246695254857
1.62,-17.250743817781768,-10.983100045888932,-11.373446075534957,-12.696429678348068,-0.4624813137916135,4.525277904667746,0.13327969346937607,14.870649831624178
1.624,-19.118840168663155,-11.482369118672068,-10.89576657656471,-15.718691503919217,0.6692326264019357,4.978239765196122,3.521056306681203,18.197002311830147
1.6280000000000001,-19.667692790297224,-10.626421826054866,-7.864184485591977,-17.497876175541933,2.537973997041263,5.868874019030045,7.461196424525042,19.90872073164337
1.6320000000000001,-17.888228567648184,-7.904603211517497,-2.385143663525014,-16.689335141300035,5.672657246215749,7.255624139241263,11.344468605344446,20.189705881894042
1.6360000000000001,-13.257351882795774,-3.3292783139932,4.560677518409648,-12.597202218721577,10.09868402509619,9.079188164112566,14.427638210452642,19.273708437112873
1.6400000000000001,-6.187229725885118,2.4187232191670773,11.33672152359577,-5.685463238301963,15.185448206512774,11.082756770494598,16.074954052417525,17.197789402267517
1.6440000000000001,1.9343519544163428,8.149316559851286,16.196497288552564,2.434377848996519,19.814082663588124,12.815258209375315,15.939908660900983,13.740872875849163
1.6480000000000001,9.185500974184833,12.567678216635613,17.9375649397316,9.576413302476794,22.801411804701274,13.747994131186715,14.013727357192693,8.602125766774407
1.6520000000000001,13.86971772281322,14.757993588546015,16.392131431719463,13.887451540364964,23.401684983385167,13.479085825762013,10.5694129980875,1.7426706384503632
1.6560000000000001,15.221891205523207,14.523439736759428,12.491875589925257,14.63870821281489,21.625031319383197,11.934058829381684,6.0539149023425125,-6.3377616827938255
1.6600000000000001,13.711789344986755,12.428797103052602,7.873722999516758,12.518808845048625,18.21709389937132,9.444115157748456,1.0166532953080605,-14.57919495457827
1.6640000000000001,10.805505473235826,9.542301425160986,4.194952627065504,9.289387203951264,14.32204736296353,6.650600933920941,-3.9263515964466933,-21.643196248751337
1.668,8.28689931612098,6.993263297135854,2.47092092128878,6.960599483828446,10.993540361965643,4.2696876577647345,-8.134378949109305,-26.39433193964942
1.672,7.462190923546586,5.534078123063409,2.730009450662692,6.865104263370085,8.769079066759332,2.8157980732448777,-11.053377507560072,-28.358176622874453
1.676,8.635317372096324,5.290036609378149,4.1052636827462266,9.062335993063243,7.503689505178045,2.4205438536628208,-12.412796038679517,-27.907905769309764
1.68,11.065734272107875,5.7691284937282035,5.305867468974611,12.345933500700994,6.52303960626341,2.824910253730195,-12.401142460626943,-26.086562612690614
1.684,13.390548279112409,6.112712153495522,5.203574590092103,14.822767829376062,4.991142815491003,3.54324988512235,-11.698384227845963,-24.146613573711875
1.688,14.280489422561004,5.470314644265272,3.271948984976916,14.781654058407184,2.3154163918115955,4.112818877627433,-11.25999505305299,-23.015866349217504
1.692,13.008120038914058,3.34323255408799,-0.28883889131429896,11.444713650308586,-1.5892781148577342,4.296294103163746,-11.896327825095796,-22.942434338867315
1.696,9.675409441164447,-0.23745324641276966,-4.760177005753576,5.253530949936248,-6.281844079867369,4.141700686303011,-13.85220081778425,-23.47347546058154
1.7,5.030492936422888,-4.752175759505917,-9.264449313603109,-2.4009409941763806,-10.983699402200727,3.8793868662123714,-16.606930068544898,-23.738824665944776
1.704,0.016706442833310575,-9.417329236182013,-13.102087938936165,-9.853458127729937,-14.872216644092987,3.724608478043592,-19.058603030644008,-22.88853214169103
1.708,-4.665931773070042,-13.484553799248715,-15.905769466056881,-15.877368495204792,-17.336283540699696,3.7156732360108435,-20.022063161719416,-20.461026191025667
1.712,-8.76217754947902,-16.48832143249092,-17.596224686092683,-20.08884822807795,-18.102691207182943,3.678799025288754,-18.783467852743343,-16.534947589732838
1.716,-12.353888444082259,-18.340889857257025,-18.24752081286715,-22.88646296595016,-17.222210857387836,3.353402544340497,-15.431706380340984,-11.6341040086445
1.72,-15.570841161545104,-19.259356303543427,-17.956744042116043,-24.99233987655134,-14.945489724104846,2.5874103748319612,-10.773741998771584,-6.479958017752324
1.724,-18.32109108860459,-19.56520352987991,-16.7992859683618,-26.885397690140962,-11.570855042013136,1.4764771273221413,-5.906595093681972,-1.7417630269637812
1.728,-20.21249796201664,-19.46781963657395,-14.858317040718248,-28.447747116955725,-7.348434694475145,0.3706518818562472,-1.7112492116684734,2.112173347846692
1.732,-20.72745437722915,-18.94853075638821,-12.271774613032903,-29.006819564068792,-2.475492671925167,-0.273944363298142,1.4548382093053078,4.844068651935231
1.736,-19.52684555606902,-17.793312473132573,-9.249937992073683,-27.735938250724757,2.825943826108414,-0.11568226743474952,3.7049209825054277,6.410127567156451
1.74,-16.693247135881393,-15.756466752663982,-6.03219013485068,-24.16995483519895,8.209683354758454,0.889735280557943,5.300362004772978,6.918529333885999
1.744,-12.763011006141824,-12.758470419085825,-2.846459442349442,-18.55418902567908,13.147211235895156,2.434103434534336,6.2821885244120494,6.600632678877446
1.748,-8.510214753085165,-9.00490692666699,0.09513321743907,-11.82000502720166,16.968429745870708,3.9738151210731303,6.33848774458238,5.792884551398856
1.752,-4.612040145580977,-4.968473866370914,2.5663076628516137,-5.210391684550814,19.01196619500388,4.956497993722223,5.000869921759659,4.884175153179967
1.756,-1.3881642347423622,-1.2458765137207592,4.287501394264837,0.22215749025599507,18.831645496102283,5.055030284322129,2.0223275370026386,4.208480220635465
1.76,1.2325979439920047,1.6303654146504414,4.962131264626805,3.980435671062878,16.38225380811491,4.294313571019302,-2.295053181145704,3.9136887182576174
1.764,3.502395428749878,3.33593862439011,4.390717913123808,6.161716052436532,12.083038942169878,3.010546391355092,-7.077201858197441,3.8831194088461416
1.768,5.536075049518331,3.7847784450896143,2.60357824593666,7.182406048187659,6.707208242103661,1.6791531023263815,-11.207600256464502,3.7760935586429696
1.772,7.096487201770287,3.0610890617645055,-0.0730125808804587,7.395019364383188,1.136209287935344,0.6954201478965842,-13.819028817059007,3.1997403198029133
1.776,7.637694871162239,1.3255040899503001,-3.102573053733977,6.838270226800887,-3.928459856109839,0.21756081948115025,-14.670853569808969,1.9436069301464158
1.78,6.587814524806163,-1.2402739155058953,-5.941030686166414,5.271885271821702,-8.157332735944692,0.14016135417296027,-14.185732893107343,0.15185545806707523
1.784,3.713044577611072,-4.410473617981552,-8.265692267657869,2.457308943019598,-11.599775029561897,0.19050132933807618,-13.157573854932707,-1.6801518537995435
1.788,-0.666054863428144,-7.860271758358067,-10.08774239350987,-1.5136393055427106,-14.51131666830679,0.09140239806765749,-12.296326842601047,-2.904181196421632
1.792,-5.750834024011056,-11.147627018603998,-11.652780776743384,-6.0799073040479925,-17.09067456115099,-0.29981841822882416,-11.867657293110824,-3.02343145881332
1.796,-10.593417684493033,-13.777198140689507,-13.190041977884903,-10.381055951274902,-19.27922914907049,-0.9407694167330192,-11.626530628906039,-1.9359776618648539
1.8,-14.523239070731506,-15.361934918459156,-14.660019609691517,-13.663391449770643,-20.73496707553113,-1.6688631551878643,-11.038055535602325,0.002870470249945356
1.804,-17.423469307017513,-15.785090423441034,-15.684752836249572,-15.688540224087774,-20.988777001974995,-2.3382212562009954,-9.640148277479966,2.143884472856371
1.808,-19.677495008663755,-15.256493472847978,-15.713402904621944,-16.87116055981369,-19.682929667329518,-2.928298444712709,-7.302902789737345,3.8616274853175128
1.812,-21.803968834070474,-14.200646340053027,-14.332182526707584,-18.02374017502916,-16.753554923553565,-3.5487646643668995,-4.246667353882003,4.851384398842129
1.816,-23.987340621046314,-13.006575458872248,-11.54167567555487,-19.823934379664024,-12.473499296473165,-4.328864153529139,-0.8793395006669016,5.238279309281097
1.82,-25.79903018764162,-11.782268144695081,-7.798215060677649,-22.283462714674897,-7.338127409857407,-5.257601441073348,2.425424440545612,5.445398281617599
1.824,-26.2983739497613,-10.269599460602876,-3.8048521467053433,-24.54912210170005,-1.890895726342933,-6.084419911197983,5.432006533792446,5.889092639967203
1.828,-24.491887161688283,-8.000651306188047,-0.18015257887054759,-25.19142015235684,3.3927827575607807,-6.362147418445602,7.97128143304235,6.6701824875381135
1.832,-19.91270754827201,-4.631246900557926,2.7837820285458292,-22.870722701866725,8.10240203545527,-5.646827642704011,9.784750398358483,7.434809086261339
1.836,-12.987793375090405,-0.26111795560791506,5.108181911539759,-17.05993306176788,11.79720123021798,-3.7536704851154354,10.42711911806964,7.4937031977360675
1.84,-4.989187804423636,4.440012469081012,6.889007333342306,-8.446085629604568,13.938721039593474,-0.9390850344971113,9.349796135853467,6.136003769585841
1.844,2.4376528420780232,8.417909880009574,8.009748196745932,1.2138942903802672,13.957684945813526,2.113094837673998,6.1430708288244205,2.9719290714447197
1.848,7.931207881010778,10.654909607975242,8.034096219419553,9.740362580510919,11.458913898035462,4.52479450597275,0.8040511167391742,-1.8625021191819542
1.852,10.914227605337146,10.613475308043235,6.396977644692015,15.377973250827381,6.465759619661185,5.575912267908279,-6.134868212577203,-7.728602341840997
1.856,11.68363437244443,8.465222722883482,2.775932789120816,17.426746117248513,-0.470088231219961,5.010473714048203,-13.723807370223767,-13.71491042872185
1.86,11.07130296741343,4.980477757552762,-2.5731736666675715,16.390413336255733,-8.3768817145301,3.134656472273491,-20.892001958346555,-18.93734855927505
1.864,9.90140846909162,1.1438966755813453,-8.771516997328035,13.596071758234757,-16.17275445279938,0.6534338635919994,-26.787961686024573,-22.768698079441492
1.868,8.573019168292376,-2.2850790697357297,-14.627271813364132,10.51940982727865,-23.033957170609938,-1.6620783083562856,-30.97240710281949,-24.907118648361575
1.872,6.982828574440646,-5.041040941809115,-19.1412856130446,8.157572264314695,-28.62170425042359,-3.3036669291923317,-33.39681052488049,-25.308520436630715
1.8760000000000001,4.805601996364203,-7.318873232361511,-21.922270577395466,6.73088985020604,-33.050132502743054,-4.1748058711746125,-34.23527407808797,-24.0835796497895
1.8800000000000001,1.9007360583382251,-9.491647625918631,-23.234244068530643,5.8005591845294475,-36.60908762698091,-4.5088508707231085,-33.681489585433155,-21.4532031029039
1.8840000000000001,-1.4504000208053185,-11.770095111053706,-23.665669271449588,4.6569587088270055,-39.40653249535626,-4.639948304443351,-31.86527167042459,-17.772549992112545
1.8880000000000001,-4.634343491163236,-14.018867956685426,-23.62292917106788,2.742882063151228,-41.1525839656324,-4.770744740916598,-28.895145694261373,-13.560730280168173
1.8920000000000001,-7.076662403396767,-15.8339540824918,-22.978428064871878,-0.10591190964305497,-41.219275904792994,-4.882570297980237,-24.95444476238663,-9.452997211972615
1.8960000000000001,-8.634190904382194,-16.80312222498378,-21.120106766301433,-3.6766584449228503,-38.956614483533485,-4.819014905177937,-20.352394006687064,-6.031757137596287
1.9000000000000001,-9.735543595132185,-16.768478786943433,-17.36493287246867,-7.555824384484822,-34.08452645767284,-4.474119307911678,-15.457782865508307,-3.602212439392133
1.9040000000000001,-11.16152907810465,-15.932099880114492,-11.504216034344608,-11.329266288854342,-26.95374622563395,-3.9519529841181793,-10.581901018978897,-2.052832187147942
1.9080000000000001,-13.572477000776416,-14.748219616858023,-4.1248709404608235,-14.682829030643006,-18.53752569785638,-3.5730468029360054,-5.910589554632679,-0.9215742327664884
1.9120000000000001,-17.068793049543274,-13.68230568625222,3.5059237358036626,-17.37360874058868,-10.152754761611959,-3.7170745652083497,-1.5586697701191952,0.32883291006055515
1.9160000000000001,-21.067267375901793,-12.999306071506453,9.92873664571107,-19.166420553322496,-3.0657748056719356,-4.581715875790906,2.2743373156145026,1.9618028034983581
1.92,-24.566060509540876,-12.694325389513779,14.113016244241408,-19.809001134409755,1.8571511511449899,-6.002498838875908,5.1933809834126805,3.752609543714243
1.924,-26.615852904658823,-12.546188143423933,15.876613661462216,-19.068622587671143,4.351100192846843,-7.441022168226482,6.670269394386196,5.082422369378946
1.928,-26.730412852138215,-12.241233403504339,15.881548425522851,-16.816687029341665,4.74544779293592,-8.177716843406415,6.306990956898517,5.314167358472787
1.932,-25.012181047450213,-11.484261792210418,15.235376462842396,-13.103275574598683,3.7869190756414355,-7.622668217088176,4.164926205226038,4.245293990088157
1.936,-21.965005934719557,-10.062914514848217,14.909064016876073,-8.18108768950151,2.352859316679769,-5.5975330190103705,0.9062851326780219,2.347840709807315
1.94,-18.16656263976165,-7.889157356558371,15.298115943665834,-2.4585076385496905,1.1548769684804938,-2.4700908969352895,-2.40640718362647,0.6045408963827867
1.944,-14.033607877223403,-5.049081488251886,16.110738089361803,3.5685773367886213,0.5068272953149062,0.929645361025905,-4.818356434228917,-0.014051183195533667
1.948,-9.811753798870996,-1.8679612310179436,16.600747753728683,9.37780324833193,0.22208399501641907,3.5987124168359514,-6.023116888585719,0.8651431140233399
1.952,-5.7312401983872405,1.0763151912747162,15.991184388474721,14.474225179145833,-0.3086303771992789,4.742184858956534,-6.565832522373967,2.736123659316945
1.956,-2.1468507402541945,3.079913687989574,13.850632870439767,18.437914626941165,-1.8677630891520494,4.099684832267485,-7.519849519244417,4.439516766126417
1.96,0.4927885877004883,3.578364171357862,10.275625896908423,20.99679218611709,-5.050891917437184,2.0753331581290695,-9.738688551060477,4.819569280617998
1.964,1.8530518501884217,2.4492187156606633,5.810306461671644,22.084655763441788,-9.946351622495968,-0.4005844749044627,-13.14498637539873,3.429549104400394
1.968,1.9197536045930974,0.14147073269941757,1.1643284687943378,21.821605874943543,-16.038878355901034,-2.2553369186498458,-16.547726644405884,0.8292689238742241
1.972,1.0094996459138201,-2.504285725524369,-3.1172867533719,20.404010337653745,-22.40843422787657,-2.7690806255541247,-18.205775369293406,-1.7467552106832045
1.976,-0.48570806149382406,-4.714215389956735,-6.912715542544447,17.916238233895456,-28.17161005692151,-1.9689674946630475,-16.920946081894726,-3.2091176589183306
1.98,-2.4765752442744997,-6.2868352689438325,-10.576487493642162,14.191248898673166,-32.934432091965846,-0.7184959447267829,-13.019597216253715,-3.443507007995777
1.984,-5.382321103909817,-7.809754137214895,-14.75901209052654,8.839723102513744,-36.97699847275544,-0.4149551692280511,-8.590705085476657,-3.6087437585028965
1.988,-9.934518094706618,-10.385986109709847,-20.032817941873873,1.5035368827866478,-41.01559123416291,-2.378125264902337,-6.671331997868947,-5.633731818451906
1.992,-16.612087203757255,-14.94324118548866,-26.46498446670239,-7.751009152938877,-45.62347566321159,-7.180267961735808,-9.674053538372391,-11.110317869378832
1.996,-25.00935119454516,-21.476338493936055,-33.34082189715309,-18.119454901020617,-50.6197560947362,-14.221445686715924,-17.904134256214093,-20.16676198250343
2.0,-33.57174095323262,-28.685531411381362,-39.18064615826097,-28.031697354407697,-54.78721426589118,-21.790677003891687,-29.007289702266462,-30.977450963540377
2.004,-39.975287017930896,-34.29767865375925,-42.1439292418022,-35.5306423921711,-56.16750054301565,-27.646833880357008,-38.787999335994755,-40.27848409107264
2.008,-42.04886875695502,-35.99481108841201,-40.714163866910894,-38.93952564794381,-52.87390400486811,-29.890479062438317,-43.06667328142066,-44.70419621891779
2.012,-38.78687532112963,-32.49725637620577,-34.368418019716955,-37.50128510254626,-44.031258135417374,-27.738173398027357,-39.63412851213252,-42.27958423406653
2.016,-30.9156855878673,-24.250314964399877,-23.949354224081162,-31.698608989399872,-30.38791723722352,-21.835356587843307,-29.318401779466512,-33.33174810647506
2.02,-20.667684740835284,-13.330606374400759,-11.503951958670768,-23.065713447323105,-14.236878954517579,-13.961787950872349,-15.58001417094465,-20.355864832376938
2.024,-10.841715857567578,-2.585773700172922,0.3779219701787042,-13.577996388365591,1.3615883520078569,-6.276044284441014,-2.8572122202181163,-6.911224593528004
2.028,-3.646233488630969,5.538662767610731,9.450277139233549,-4.932788399549281,13.689147934353059,-0.45892675259074167,5.450724061059191,3.8716775679604325
2.032,0.08462035323645978,9.891015085217532,14.534542420334219,1.9348976907417637,21.286832364651673,2.837780858836595,8.323380398596328,10.420824910479041
2.036,0.9439569185406071,10.807309421051741,15.735242638867476,6.889136747099656,24.252556337321494,4.005885646379284,7.112065832738608,12.971479374229148
2.04,0.3335001459608975,9.591306574459395,14.117084996308222,10.262501971975325,23.851985269156103,4.022798480259553,4.364611878079813,12.95141439730287
2.044,-0.4039083422621843,7.656564568025715,11.040639227976044,12.407973746655898,21.700024633533985,3.808598226019967,2.232527679063878,11.941369329795634
2.048,-0.6061940369399963,5.827578713834555,7.517309513413693,13.417633020186713,18.956818716792213,3.7567198029428255,1.366471858161276,10.819180149251224
2.052,-0.37441303542800597,4.149474806847138,3.9202669402957326,13.16609463843065,15.94436780782371,3.6659340352066465,0.8699796724758926,9.534848203853926
2.056,-0.18149319779513462,2.2158791371659845,0.1296656439212711,11.58257220250789,12.299531392647168,3.0649376004744227,-0.7953848400288734,7.5167314501773035
2.06,-0.3718709263639539,-0.30453266176346006,-4.036614152580569,8.92274328312351,7.494981309958348,1.6754240928057698,-4.584186990255148,4.3570779016577035
2.064,-0.8990260083519388,-3.313734458843328,-8.4347898460137,5.812784919355636,1.3838482437911352,-0.2825954387390084,-10.105655480647783,0.30053868750133006
2.068,-1.4302307340185507,-6.3151809991722985,-12.496387350342957,3.010328664546023,-5.538226373806083,-2.135871040501115,-15.741549689237218,-3.7610862695928517
2.072,-1.6805139015455097,-8.755854761614046,-15.460018283515183,1.0353433353020591,-12.260155742553252,-3.1160987757366456,-19.496138653625167,-6.740610328871298
2.076,-1.6756927437299964,-10.396988417319335,-16.799765950949222,-0.09861970978363388,-17.67671920760904,-2.8011732780933016,-20.058895595948343,-7.9517999717204475
2.08,-1.7487468348895163,-11.455273391685068,-16.55442483036768,-0.868248714939682,-21.046763640624476,-1.3918052460267063,-17.444205978040827,-7.4747427036923
2.084,-2.2754390551376673,-12.413087698531626,-15.358848409437087,-1.943489194758513,-22.255740769978956,0.351894773328695,-12.894414636896272,-6.080275878417524
2.088,-3.35807208471806,-13.639221345237956,-14.144670394829518,-3.7845368669859454,-21.784063595950784,1.4782814855511788,-8.188943455183562,-4.783271800504053
2.092,-4.722793477145387,-15.111891208979841,-13.68014875564677,-6.384819739000704,-20.446764867335787,1.298781441853862,-4.809310199587344,-4.324846905632739
2.096,-5.904550537230989,-16.432702338182708,-14.207546077980169,-9.295919504387939,-19.04944108167774,-0.3003783795174968,-3.418613353667297,-4.872029263224022
2.1,-6.583153734458847,-17.1060164937619,-15.331309530555245,-11.880825531630762,-18.095887629954632,-2.8323439702571704,-3.820244796285351,-6.058409482050138
2.104,-6.8238341646138,-16.884019037182952,-16.226045716051885,-13.631438292772145,-17.654838524489378,-5.481502389139223,-5.309991626355895,-7.296166601377081
2.108,-7.022083418469265,-15.929232426502494,-16.02190127253357,-14.344781295639223,-17.38910070092561,-7.4980427797495395,-7.113298732475414,-8.122671109713338
2.112,-7.584024738802327,-14.683422313724805,-14.165505244055112,-14.076767191694671,-16.715909139877795,-8.501563127223562,-8.634335804662896,-8.380977406066904
2.116,-8.572758929452448,-13.552508106548203,-10.643047486455089,-12.971392416774279,-15.071211683648698,-8.569448670934435,-9.48457351933348,-8.183677758496515
2.12,-9.58606043103282,-12.639142061089842,-5.98221983841222,-11.114185638030904,-12.17884897584213,-8.105547310513884,-9.391118183160415,-7.7463602485688625
2.124,-9.978327420204096,-11.71704821046751,-1.0820131052603301,-8.529885644464002,-8.228933511597006,-7.582152902321468,-8.154497073449875,-7.225004886595343
2.128,-9.291281959375283,-10.46873758050242,3.0513723918666074,-5.319502911067502,-3.8911384510320204,-7.297339622390609,-5.739082148907073,-6.6679025466196435
2.132,-7.614650902525227,-8.821551100755187,5.58038347340198,-1.8129746442389205,-0.1323408009202467,-7.2685904389504685,-2.413675906528624,-6.076745753213345
2.136,-5.601556906139194,-7.122540812653824,6.044207694003262,1.412687315584435,2.121133370202415,-7.274481060973358,1.1962017151136024,-5.473693091366158
2.14,-4.124338744019951,-6.02476700973898,4.467414791609599,3.696349263168031,2.3353446917465135,-7.003803070318554,4.248839161391061,-4.929702110011476
2.144,-3.7852897728785138,-6.13387458231432,1.3253212740555682,4.558544783429625,0.568920862998084,-6.242135804895497,5.978429583459274,-4.526160323061049
2.148,-4.595330262631251,-7.63868925613815,-2.637572984715007,3.902311579385696,-2.5819649560335165,-5.00858947468123,5.977854352380291,-4.3002627677942655
2.152,-6.034706982512034,-10.178591715009588,-6.675130008914266,2.009895587648316,-6.268829477253121,-3.585850524063062,4.320269396156164,-4.247739343790727
2.156,-7.4320946423658825,-13.029624768147869,-10.303376554276838,-0.6615708716442441,-9.766536777942292,-2.4423417692041767,1.4710503967953628,-4.38937173412387
2.16,-8.399326262037903,-15.495868873788368,-13.425622253279926,-3.737207214149066,-12.738201342075854,-2.082396370711649,-1.9344903428168436,-4.844960512818034
2.164,-9.009545082331442,-17.234722157935494,-16.244215673209965,-7.041181917028325,-15.24188648366021,-2.839946434393596,-5.299755077734517,-5.806180999137496
2.168,-9.61199135304787,-18.31854452169887,-18.992137010737224,-10.50615925661134,-17.50656738652208,-4.723744296959694,-8.151468165553979,-7.400381674970504
2.172,-10.432031131966141,-19.013166863647257,-21.63262770233996,-13.944863796433538,-19.63897963516456,-7.364658258916279,-10.127219536650045,-9.522179615602226
2.176,-11.260807167158418,-19.449426927279774,-23.731559274748406,-16.876503461895254,-21.458464979936366,-10.082725715046308,-10.964910337224637,-11.750735366886602
2.18,-11.49657710512679,-19.44692945922975,-24.598580931387914,-18.57527736871657,-22.56816177156975,-12.117698368298306,-10.554039956077304,-13.460279769044973
2.184,-10.554379160520284,-18.631968221799752,-23.66720052104847,-18.378111723674238,-22.615325191359034,-12.944095019649922,-9.070977040552634,-14.119204543041178
2.188,-8.38231653920434,-16.78197612595477,-20.907695468741622,-16.09433457182172,-21.570619947873865,-12.52060711634067,-7.0699671245643,-13.629154677477004
2.192,-5.707740248838036,-14.144220857428422,-17.000554393708853,-12.246680604125913,-19.818497074357765,-11.35217025991551,-5.3968952522618565,-12.483035885935124
2.196,-3.785390903730786,-11.474327852816145,-13.144020939582333,-7.963331090272391,-18.002388452290006,-10.290346694660002,-4.896900396264755,-11.609965383054146
2.2,-3.7284077236122357,-9.708878755552405,-10.513541139722292,-4.506564267648969,-16.69176286483605,-10.143937051181183,-6.005205339873555,-11.9364552379011
2.204,-5.796005377856318,-9.431872994564856,-9.661033561106365,-2.6730919041149264,-16.075727278519253,-11.277993351391615,-8.468674998204278,-13.886163079660264
2.208,-9.095696265200104,-10.474448118942973,-10.206965023417752,-2.4068881555664348,-15.893187905648347,-13.397837446244921,-11.384244262896573,-17.096735978322613
2.212,-11.931866151304803,-11.92249846897812,-11.017564181579132,-2.8416390629786292,-15.628318176238281,-15.65840774741082,-13.581461970450164,-20.52173400025913
2.216,-12.648919267558995,-12.565721862239116,-10.833408908467163,-2.772844651122341,-14.862027272580463,-17.067211741439678,-14.187096263497551,-22.89458405468463
2.22,-10.525777181685044,-11.56585360219151,-9.01372131151004,-1.3058129340728328,-13.565566579190317,-16.997024359434363,-13.067146836995107,-23.32185674635491
2.224,-6.2165001585021855,-8.957854756435381,-5.994303440608519,1.6586552407331965,-12.158149012404351,-15.530050360867335,-10.917722925003773,-21.7009549495466
2.228,-1.4623570091159763,-5.67824827234449,-3.1706590034499413,5.370535178205728,-11.292168502774075,-13.43520596036933,-8.933139818072732,-18.74232430423058
2.232,1.768850811683933,-3.091507420059429,-2.2282272187712806,8.628436754033373,-11.493067426279254,-11.777092939831618,-8.215545048487911,-15.597776633434705
2.236,2.2554657826542552,-2.2736203124333088,-4.271378869555292,10.381515585655393,-12.879818341120654,-11.350969594574508,-9.238539213047716,-13.318551815417436
2.24,0.08511458563134511,-3.453857063188707,-9.179964270124401,10.221512467115645,-15.106217555856404,-12.263291595879423,-11.619636177732446,-12.410471348442684
2.244,-3.485787682675891,-5.930961878387279,-15.565422057351952,8.504572695116678,-17.54158601613841,-13.891907673497144,-14.307471891095929,-12.699659744403334
2.248,-6.778164677171844,-8.507041918853758,-21.373300977967233,6.065472620927835,-19.584321154272345,-15.261252892496032,-16.071634261511917,-13.546731158854698
2.2520000000000002,-8.599830343338908,-10.166734771820586,-24.81178973754959,3.7347178038673405,-20.90998436785742,-15.629652461775322,-16.026592420027328,-14.238433497154233
2.2560000000000002,-8.801690516930194,-10.602222832475263,-25.15584893337268,1.9374681984619428,-21.53524032895359,-14.928619345736479,-13.975719693120254,-14.344127223823023
2.2600000000000002,-8.201183878750157,-10.297087051368521,-23.004011324933344,0.5911834228187445,-21.696816529635953,-13.797984539530262,-10.431405519044574,-13.870573378372228
2.2640000000000002,-7.960950871359614,-10.139350901456396,-19.89333557196653,-0.6872454630004654,-21.65307411285005,-13.193013786927963,-6.343257174565224,-13.18039227500816
2.2680000000000002,-8.797426598794686,-10.801405952923119,-17.482794476651293,-2.2111326376382294,-21.520033682462667,-13.77132678459077,-2.694925684497207,-12.743186226201203
2.2720000000000002,-10.491577621164879,-12.263533743148741,-16.729584020357606,-3.917532805604651,-21.221097056057147,-15.433822297503184,-0.14564803404005033,-12.845679539694288
2.2760000000000002,-11.97218043210637,-13.747746158458767,-17.489629077956522,-5.3055006200354455,-20.55886723229196,-17.305808005680774,1.1370344940729638,-13.406572177329508
2.2800000000000002,-11.922563081378485,-14.113425235622401,-18.708647434759428,-5.640725634167438,-19.347986011228784,-18.19361718440723,1.4260176515208514,-13.980990286576855
2.2840000000000003,-9.568536550065119,-12.492329838084174,-19.08322513740029,-4.314472453364942,-17.53408158037314,-17.275351097167345,1.2067370773161201,-13.952342042758687
2.2880000000000003,-5.192786879007599,-8.811549148693189,-17.8154562942309,-1.1615785396262481,-15.242222262439071,-14.613088171488926,0.9104516899751047,-12.83149626589011
2.2920000000000003,-0.09386894417491476,-3.9269300805530065,-15.052486783782399,3.4118321069560125,-12.75470754625755,-11.18648721659639,0.7156160281357984,-10.563136194580238
2.2960000000000003,4.010972536564168,0.7169891859143149,-11.800962933116352,8.528251180554946,-10.439567008361706,-8.412558287167599,0.5006426245971056,-7.687330423789177
2.3000000000000003,5.813959010951635,3.721369019429403,-9.359892438989448,13.113567720040635,-8.642517417419555,-7.40968341110937,-0.03174642908231817,-5.241449903183565
2.3040000000000003,5.036169513051277,4.336752546494466,-8.5973777916833,16.211947305792307,-7.57093273327061,-8.412680489930665,-1.1379833375780777,-4.384206054317673
2.308,2.5265578704559175,2.7455450518178566,-9.458626601484013,17.232293235658574,-7.21167878207018,-10.670433609868837,-2.825595375879402,-5.869349913647227
2.312,-0.19915318356697753,-0.08339230845760426,-10.934892263756694,16.083064460107636,-7.302808538802765,-12.875488965839509,-4.756029431172408,-9.570638857963957
2.316,-1.7267538654703003,-2.8652569083922117,-11.53804323651758,13.171909190204644,-7.404275551064444,-13.850853729575988,-6.339448160776101,-14.31766819642587
2.32,-1.4481517988288033,-4.585634554110982,-10.050986350172877,9.263812679337434,-7.090371289822343,-13.127373132639491,-6.979141137986403,-18.247796656305866
2.324,0.16664586066451648,-4.901929628193727,-6.176989524892235,5.244711975643213,-6.182306339387026,-11.120601492674723,-6.354780405679719,-19.593046893524956
2.328,1.8492824666568595,-4.192482619651173,-0.7631669089250295,1.84620025397561,-4.906373282221352,-8.841778048403967,-4.589780162686054,-17.570266753760393
2.332,2.198391541751903,-3.2775052359349957,4.531778625621428,-0.5732346234686361,-3.8532782891106763,-7.3560932251149325,-2.196456610851385,-12.912790288773579
2.336,0.4054679363239302,-2.9668186941061094,7.955552704014053,-2.112233556286583,-3.7185157065913472,-7.288402318972999,0.16382453836479272,-7.692647276882155
2.34,-3.3267575714020268,-3.6760248883879854,8.448632678909973,-3.218237023504628,-4.908440136143383,-8.619888662358676,2.0002004083239626,-4.422561431504278
2.344,-7.870097459399176,-5.284570995713409,6.111820944034434,-4.422720633084964,-7.223535171215644,-10.840640645662575,3.199155939013167,-4.844252729988682
2.348,-11.700930334929126,-7.278043977414086,2.140065031536153,-6.038533842920003,-9.810386758966956,-13.28579968504323,4.006876531256125,-9.001837168792008
2.352,-13.591450692267244,-9.059963055572325,-1.725032268740847,-7.9577498033050915,-11.445219229033285,-15.41514984014259,4.820743801750723,-15.124415703222155
2.356,-13.10723635237639,-10.230392445278426,-3.969194190258463,-9.658990098867719,-11.042874127282914,-16.900865614858503,5.901349633835821,-20.411671897608358
2.36,-10.708104348557754,-10.698695733361774,-3.9338754767342152,-10.443460715888818,-8.171399089243153,-17.572474193542575,7.188560414594235,-22.400341852700706
2.364,-7.444490185399559,-10.59322896125343,-2.030835782475833,-9.798028873640192,-3.3184078889195234,-17.331492499336264,8.303174082298597,-20.227807221308524
2.368,-4.414095480877791,-10.048465236546633,0.5440129653966324,-7.676980804719847,2.261155459816848,-16.157200370934447,8.738100239424057,-15.085397912590963
2.372,-2.279352852217471,-9.043334969578382,2.4358940974369716,-4.551158146546356,7.0477895542470606,-14.226831794630584,8.136165613052071,-9.6425082442737
2.376,-1.0682125193833372,-7.4098015424766,2.7639425819254484,-1.2027397679430578,9.868693655001664,-12.020468109327908,6.485226455236898,-6.708792165751049
2.38,-0.31963348878321085,-5.0165333644322345,1.4903811285819302,1.6342444275941261,10.347341711146441,-10.27051927630771,4.142336572569548,-7.8199158365911785
2.384,0.5355674663776426,-2.016369323031199,-0.6371543267147217,3.5638190576634656,8.972874140447118,-9.71716146392771,1.681087746956905,-12.513137288714688
2.388,1.7874200875047563,1.0254798388377253,-2.507439902515671,4.589907990305903,6.782084923519392,-10.753156922650078,-0.34354359045005367,-18.63450112185984
2.392,3.2556207921453506,3.2331405858366793,-3.1969807769212366,4.937273851843713,4.837606747845825,-13.168656903637157,-1.603935375253286,-23.48128468101595
2.396,4.376575327444016,3.7331563371288894,-2.4106502214306147,4.744067821697513,3.7434057735597435,-16.18818469476014,-2.117990224533173,-25.173099027859394
2.4,4.503999430916224,2.0410900490282984,-0.5871338101563879,3.860248958238003,3.44776822906465,-18.807721851290808,-2.1973805418792836,-23.508677419431933
2.404,3.279096558571041,-1.658236801158921,1.3542707047155318,1.9234345847050918,3.417620446339072,-20.26079987577168,-2.2701759308566807,-19.866301605458432
2.408,0.8779634822840308,-6.494143471264408,2.4690764619901984,-1.312689715122815,3.0520319899354718,-20.345776887305533,-2.672896372604555,-16.26370675228236
2.412,-2.003907306876954,-11.188435358200593,2.23116427408263,-5.6084678031295425,2.1098099353137627,-19.440971340008673,-3.486623708124398,-14.161765713672537
2.416,-4.40390205999347,-14.488704713474647,0.7568007347517778,-10.084302956032047,0.9201829778454567,-18.20732751066214,-4.484448040260872,-13.685630854978854
2.42,-5.478154814880099,-15.581498812181792,-1.2686117542097008,-13.45433937355034,0.24808429973211332,-17.176216564757965,-5.2036660961324515,-13.704716413221945
2.424,-4.866532582555692,-14.327168080751335,-2.9354495580397497,-14.59864736180674,0.8638603324452561,-16.485746733999576,-5.155241369056512,-12.696305578312035
2.428,-2.8677779895515414,-11.24290987219905,-3.553085639413098,-13.182686358992214,3.0437116871417516,-15.920232500762154,-4.096931885952245,-9.857183990285193
2.432,-0.3488553146214599,-7.276191070171876,-2.9633652782956688,-9.952979151676686,6.2862851279480765,-15.19884381993279,-2.2221822409135257,-5.7745373787682865
2.436,1.6030503994511491,-3.4605598986858013,-1.5908841237326214,-6.483112314446089,9.4250908381606,-14.274772780847115,-0.1511241633612599,-2.2151652778694597
2.44,2.154223160069705,-0.5787737599247293,-0.18410760201891208,-4.425215717480569,11.140899058280297,-13.432510482287853,1.3096526366405215,-1.1204831443384364
2.444,1.1234431688840232,1.0734033749602077,0.614333845316196,-4.633665619190765,10.64784131360318,-13.082630587118729,1.5467493251386486,-3.364893445978737
2.448,-0.8982099137824662,1.7426067205851723,0.6292419036180945,-6.65259905183666,8.185879153777648,-13.396717718247373,0.4554371819984908,-8.008964911119733
2.452,-2.7947643175903067,2.0646377930453355,0.25082132273087154,-8.896544476384065,5.016489193423581,-14.06453610083031,-1.4937983119025375,-12.584458107315982
2.456,-3.4445334713991542,2.7645688379949434,0.18787687392807584,-9.485568290385118,2.862239385501198,-14.382655967707933,-3.4966941629128314,-14.336299946841905
2.46,-2.285198999593831,4.303830428140259,1.013428261002332,-7.306663113212494,3.0415693876014984,-13.656226766335749,-4.8628083656844865,-11.76222102750603
2.464,0.3627069358121844,6.631316268583873,2.7546661337870546,-2.7158965228456964,5.750939685220374,-11.673270186288391,-5.4138913985877934,-5.582528714021578
2.468,3.4155290561386664,9.177382925340908,4.791679712972609,2.5444060951294887,9.905279568501214,-8.92816721446843,-5.5478272796987085,1.4771733618035796
2.472,5.555611097487372,11.115279324057155,6.169328166420087,6.222062202656616,13.665018257008342,-6.404744336426802,-5.904078638646411,6.055610368883322
2.476,5.920246978392925,11.784762274139212,6.151655932090648,6.768029554117334,15.392491572892368,-5.012405706830805,-6.846915685743852,5.9963287729395915
2.48,4.580277226495355,11.050760322674478,4.712598999789861,4.223536245727473,14.521716688830224,-5.011371708408433,-8.097927141341643,1.6312178894095268
2.484,2.538866172232929,9.400505902494388,2.6490536073343947,0.2672814857180583,11.861461305673743,-5.795687185692486,-8.791614350947611,-4.251603076438641
2.488,1.2151080688522597,7.6940245800642515,1.193141366891723,-2.6503411070692664,9.125372954619138,-6.201893365883279,-7.980957708467486,-7.804554009971639
2.492,1.6585769285966308,6.675034348651025,1.3122097188764883,-2.63756929776207,7.940867818203174,-5.1945817063872255,-5.32771243629395,-6.168001258853224
2.496,3.945352911057171,6.543659699436716,3.092995413641461,0.5741315125345636,8.916047701754565,-2.5143230161322663,-1.525716800643977,0.9768926467681922
2.5,7.0995662593534234,6.849636629056818,5.605274229739052,5.421997355266399,11.30485331575403,1.112883691477009,1.9026801498191617,11.204266190536146
2.504,9.588832425384453,6.777210374457809,7.348057497295599,9.273117654123894,13.461235503345051,4.349017345824677,3.376491794730782,20.60113143328897
2.508,10.125515973858683,5.658433555276474,7.042858997458097,9.745438468059092,13.807507258907435,6.010076762473773,2.1744655120380685,25.79767305180485
2.512,8.324231551897583,3.3967757441832873,4.338705651382156,5.876182904262237,11.739804405644122,5.745208236002554,-1.0459500278523137,25.61696430641632
2.516,4.859951782951157,0.5395135698171316,0.0028133698699548404,-1.4661475581590366,7.943193672383359,4.225524624731406,-4.515681221542536,21.460004018221184
2.52,1.0575247121705615,-2.0468682883522433,-4.4791147216744776,-10.074355023332714,3.968406538096474,2.7357516342688086,-6.291040556671305,16.29575096915812
2.524,-1.8130940884323081,-3.674157780255314,-7.654740460229959,-17.453879469414005,1.3738600048284297,2.414903464864892,-5.350121013085982,12.940616696266716
2.528,-3.1036299960560427,-4.160969150650089,-8.745825852536882,-21.825394153937395,0.9763598261120023,3.62329603597027,-2.182956901177022,12.673742602296443
2.532,-2.918130486577411,-3.790133583443321,-7.814720902488489,-22.592915557091942,2.6267405369446806,5.80111148910305,1.4820490536203579,14.9116423046313
2.536,-1.7749907436034391,-2.927163747317536,-5.422566982890885,-20.15041869529034,5.576865801882491,7.8856839684069655,3.6758180291551525,18.02477465699849
2.54,-0.07538848293256706,-1.5977399546751485,-2.045971481554716,-15.293285599634828,9.125092760779808,9.02380904840902,3.384556126424968,20.65095420282455
2.544,2.207890841503513,0.6120786447917226,2.2554893637952773,-8.733692610406479,13.01809717040976,9.112248641447195,1.1597185607220126,22.552460944941345
2.548,5.423487914105181,4.230192206147308,7.689193519503988,-0.9964374712326389,17.35779203291429,8.84048104883118,-1.2242524594964834,24.51039805303492
2.552,9.820417996804508,9.35369791721098,14.23067383719831,7.359447775050512,22.155094885038807,9.229596880527197,-1.8301742181402005,27.434668294302128
2.556,15.117128729709293,15.264243245677449,21.134903827331755,15.468235130731273,26.901631034183083,10.992179442134784,0.2588000027376438,31.397577663164952
2.56,20.408936205298915,20.537336480817885,26.90946672121504,22.18850752840717,30.572664967529136,14.129094773563793,4.366232704291633,35.360919260754486
2.564,24.534205740947755,23.676868878726737,29.87769507383655,26.510511376733803,32.134975917446354,17.97871910863796,8.592629038919313,37.811097384559616
2.568,26.68615639246559,23.92293991333986,29.05544167666153,28.09448126752818,31.230128316171204,21.660224069803235,10.906274290459805,37.866793706553835
2.572,26.880030882595292,21.73007463325939,24.831436299379902,27.56175525003505,28.556512498632515,24.601587846191478,10.326647799111925,36.086069180449726
2.576,25.970526088200813,18.59133332122269,18.978649996277227,26.259623457915268,25.612330450612376,26.809935912855053,7.505679148893478,34.347356799883414
2.58,25.17498507618211,16.260857423605103,13.913876761128904,25.57301357166193,23.891008996467235,28.71855043429764,4.385934248903823,34.80230425646141
2.584,25.382705306818934,15.82373811338175,11.5616406404597,26.170957647649743,24.01307710370986,30.75667326276198,3.1345245126105965,38.550397726302435
2.588,26.677932265339223,17.176939041919013,12.463795189208668,27.671081570531555,25.366650177133465,32.971217582619374,4.995583141813995,44.92122095549257
2.592,28.372677617910995,19.25313669371485,15.668200377583844,28.974510710866184,26.555842590226916,34.969785102288824,9.715490447430739,51.86910984298879
2.596,29.49571592000484,20.81277810710992,19.404850223219,29.034189258665492,26.366621620397723,36.21505077047118,15.771989373351289,57.20793998276508
2.6,29.391783854398454,21.260858833878274,22.14138618385732,27.570413488313307,24.62611705235588,36.434909641490094,21.229455949472367,59.87738919886533
2.604,28.073909083799208,20.975622380335835,23.399380140880112,25.29172931221933,22.402363508226586,35.863100720167495,24.699388467617155,60.438914500166675
2.608,26.128024030748747,20.93437771065419,23.86168249809498,23.46487833959486,21.360346286614117,35.12776305869056,25.870322648506544,60.47069860477768
2.612,24.265423299254508,21.895448070524708,24.7658545597817,23.111247425977353,22.66662514994357,34.829269925947756,25.411076504042285,61.27368855616032
2.616,22.88238797062877,23.728296080073505,26.990537840968045,24.37284529322551,26.157173168992472,35.1193944916472,24.402211263500703,62.8188406432796
2.62,21.918528615557534,25.363458188090362,30.421662639804936,26.482438300135072,30.317374302701523,35.613324429893055,23.682015615416958,63.67911737688996
2.624,21.104359867521907,25.453471782514725,33.97889243032205,28.349241732781593,33.12144580127392,35.66559160347697,23.47061846680731,61.99502643036976
2.628,20.39723410654642,23.35407061905289,36.27611269859517,29.378940341982798,33.24071990691186,34.855120320512015,23.42312034588167,56.86850587646586
2.632,20.229507094816654,19.75960145166141,36.49182243881455,29.964292286861564,30.873581234350468,33.34862175840999,23.00223407505655,49.235588366361526
2.636,21.340854258003674,16.5284458926767,34.87720250192751,31.27290332647908,27.65699218256168,31.862998679521297,21.862934047805084,41.58884726197107
2.64,24.262042060099702,15.733054822155964,32.619463401418216,34.44175262352769,25.70239982672547,31.236800330731967,20.050142943652645,36.687775228005876
2.644,28.79791064983874,18.485110662754096,31.165816157280915,39.70110674323814,26.35841699055186,31.88417118687221,17.97921418451574,36.07984053290579
2.648,33.88940351182464,24.24071736136966,31.419637631611522,46.008423696094496,29.441605106974748,33.48242395820989,16.241770671357244,39.344342619328245
2.652,37.99823564417193,31.010938430746137,33.28755516897536,51.46226940183101,33.378686685979346,35.11267510214293,15.383353138049415,44.48869976257015
2.656,39.86639832312312,36.40484767751286,35.81560559320633,54.29960391066584,36.1608828112403,35.804768102806065,15.752472541045336,49.23618223780363
2.66,39.199771703941224,38.898172393638106,37.80538175675201,53.87903932303038,36.50472257791125,35.13974657245035,17.434679725309252,52.353855720949014
2.664,36.857882097781385,38.60177256953807,38.514985331406706,51.04509688558733,34.53007080690554,33.52736569785884,20.238090619830018,54.178763033345604
2.668,34.40390038655187,37.082347416540415,38.020090771871764,47.625060304991166,31.569351634497934,31.982571029698192,23.704803189345512,56.038843661233614
2.672,33.23869304967411,36.34518031508469,37.054104697289404,45.349648123995394,29.277472833374304,31.512305888741594,27.187589503131676,59.0322903967367
2.676,33.83313855173037,37.61789008663504,36.46774604189909,44.846494558951235,28.639320674555165,32.50376999960099,30.031467629678446,63.05157580020227
2.68,35.48860537500968,40.63359514218996,36.6809003928588,45.30943185791625,29.472119767877075,34.474256559096375,31.849842924905715,66.71725838670932
2.684,36.774837619034315,43.83825764642279,37.472689047576296,45.047781368373535,30.697474356616794,36.339844562151484,32.75838785498172,68.26880880849808
2.688,36.41210997059261,45.40069229355663,38.2423965120131,42.60418133222288,31.18061412491511,37.03729103100568,33.44077399740672,66.83305703723158
2.692,34.08138437691832,44.40174353008433,38.55798921795417,37.77673886984053,30.578268740764315,36.14623277428882,34.95292503560904,63.19606695463676
2.696,30.6806439881193,41.47977073886,38.571151427341874,31.907309742005964,29.62604535846185,34.11250492837462,38.23516914388392,59.50291445992616
2.7,27.87795451655211,38.540591533895395,39.022422888020174,27.267048925984227,29.70196626369875,31.96490800335414,43.544901293787916,58.02214834211918
2.704,27.214872995598853,37.68228365175446,40.77674810440317,25.866076387438625,31.92604566004252,30.713427127745035,50.10721528819067,59.72036530029027
2.708,29.265668771321543,39.952284532365866,44.14501512622655,28.36295684444758,36.34096081034431,30.792421784803537,56.240489295912994,63.55133867269001
2.712,33.31929249867426,44.66353286502385,48.446190096430655,33.69414508610521,41.69757588855123,31.861222182081292,59.96909480782779,66.9267338599202
2.716,37.7602261318043,49.68819800331903,52.12586414184716,39.631086272501534,45.99496935148477,33.06706939691321,59.87777955440788,67.16172497763773
2.72,40.939034277207156,52.59339912114274,53.48021609264151,43.97020367260484,47.509287296315506,33.61594497691567,55.85469904418551,63.09354797381616
2.724,42.039344313573565,51.99083397237223,51.61560148453282,45.67044679720743,45.735707473738785,33.265792693512594,49.28682090461825,55.877759999750424
2.728,41.448012699350784,48.32887133511599,47.079642546841114,45.30225108028708,41.69573532892764,32.46357721765253,42.545131962514915,48.50269487717628
2.732,40.43930314139834,43.67683635555454,41.77252314820089,44.58599425583907,37.44828426160052,32.0505375989942,37.98256973261232,44.27845274055494
2.736,40.311666217176025,40.55501297428282,38.01851666164703,45.22460734595961,34.97871271771601,32.68304446392267,36.80058198038455,45.04250028691672
2.74,41.46212186065759,40.438538357565676,37.259876523070034,47.69580455433015,35.044499873390464,34.31391577169961,38.34974097334066,50.06740963889206
2.744,42.95256556879485,42.79450177786043,39.08843454654175,50.70748826452018,36.62165073885467,36.04407476680399,40.27320114225904,56.28248056140569
2.748,42.83041664039956,45.20019261046059,41.188711197566136,51.63928032248032,37.265531055280235,36.46297804509459,39.47614837120341,59.68780634740324
2.7520000000000002,39.06838567253453,44.52255244715161,40.34462652392199,47.78461923704185,34.26217003454178,34.29512917678949,33.53594545754527,57.22077390609638
2.7560000000000002,30.689964410911216,38.59593406528029,34.08337970626076,37.795357460968944,26.055391610164406,29.04689773299242,21.91703397774927,48.18053565125797
2.7600000000000002,18.520471890603403,27.5424265245083,22.18944541857877,22.63060781003628,13.297410612319709,21.367924151099032,6.467493857457612,34.59385555811173
2.7640000000000002,5.119962007183403,13.998532051989514,7.233575216925374,5.471382604181144,-1.0563038827422133,12.909080962274402,-9.096057678355692,20.35465513738245
2.7680000000000002,-6.118788500597475,2.075465734274758,-6.269366280256008,-9.414477067212147,-12.75381131741392,5.728618782830836,-20.56850279768355,9.569400757814947
2.7720000000000002,-12.291548683404017,-4.424661384194906,-13.696334030310936,-18.31577155988566,-17.920170710351613,1.5287560472525001,-24.853517357306373,4.923540169766966
2.7760000000000002,-12.10810871579315,-3.6454774484939207,-12.307120928721133,-19.478614579117675,-14.659170240648564,1.0655944192885727,-21.079236976818493,6.796381389649696
2.7800000000000002,-6.310006167635947,3.619559914829324,-2.429678913257021,-13.634580303998064,-3.8642341801132716,3.981656064811432,-10.770774593609985,13.434131186451395
2.7840000000000003,2.7895190920944515,14.473315824938709,12.714247800130352,-3.4650163294988943,11.142376491062578,9.10072966955704,2.9511989374252607,21.987625541313037
2.7880000000000003,12.364157360996614,25.348956788483747,28.400336506006397,7.663419270212216,25.945146072832358,14.98155575755618,16.68534928658096,29.819782811470986
2.7920000000000003,20.172392763704465,33.53579807953338,40.30584578764547,17.04096014822244,36.724013558909064,20.438547858315815,27.9212398050297,35.44377906413365
2.7960000000000003,25.207158518007873,38.05911893026132,46.013832718813546,23.421014003134587,41.54954434998672,24.80804397469683,35.574366228505596,38.71884115934313
2.8000000000000003,27.658722600492183,39.54804541090334,45.4938231258418,27.000661765735686,40.74161663445375,27.874556745676273,39.75372751982832,40.333152256820085
2.8040000000000003,28.338516205314136,39.324854763204485,40.4988027220129,28.727226259375357,36.234933042024295,29.567435547452533,41.04799487806508,40.95454277080785
2.8080000000000003,27.977830808661565,38.34986211946375,33.364463359552246,29.42095083709478,30.37034906947474,29.69627523114559,39.859754379991045,40.57745437177732
2.8120000000000003,26.83941431913263,36.67583225281942,25.962889609704916,29.263866328181848,24.810021948986332,27.94519022399072,36.24378419797449,38.49642615899597
2.816,24.809569831121735,33.6746291838831,19.255934764144968,27.88067221698566,20.063090555490817,24.140697204192293,30.285572077261122,33.869464581983266
2.82,21.79568594493867,28.78110307111683,13.5005022994701,24.870660926477058,15.730892306407213,18.632257329891672,22.677824322126526,26.514411948911174
2.824,18.09736622147284,22.215692324145948,8.758298203086952,20.38043794465989,11.205437383893809,12.491153082189157,14.987666144533932,17.436926810306886
2.828,14.431700300546254,15.157269193710135,5.230298037679859,15.280092724553924,6.3063367337719,7.306493274175409,9.303816442153902,8.689686292494343
2.832,11.55449228990301,9.225312539461129,3.184162893978737,10.801266374603756,1.4741418088260616,4.582966005233629,7.356141858732144,2.561372582931881
2.836,9.757145654431042,5.6164422044064395,2.57806982487773,7.8636482225631426,-2.5273559088877846,5.031655712586826,9.553863987007617,0.5020038038635448
2.84,8.600880034234251,4.445292321079137,2.7761849597259243,6.516379930566586,-5.129692057733905,8.119425946980527,14.565404318019773,2.345109602036473
2.844,7.113735623394405,4.718800558859641,2.679811807574197,5.869157842842185,-6.312878952939968,12.180790645021375,19.7815268457648,6.288638892213953
2.848,4.413664859518121,4.996009223533008,1.3130859208611128,4.615561691450921,-6.535269936608586,15.126022763504693,22.524147291411623,9.730124471637453
2.852,0.3692416862843402,4.298587765659931,-1.4772115970597497,1.8474396876083574,-6.32172067971112,15.415027618164004,21.371889293197,10.53717367257093
2.856,-4.147528494475182,2.682598445967642,-4.726019210010236,-2.348946320296932,-5.841896280267633,12.80394184807119,16.863892685222936,8.086490342106913
2.86,-7.617170243497867,1.1191724887986538,-6.710596597724361,-6.868026694541186,-4.78581610678259,8.4531178138418,11.192169446839898,3.5314983667258275
2.864,-8.684522612776846,0.7591207650208389,-5.859217714369606,-10.178186434381928,-2.6575968787234387,4.317646890365268,7.026221405020806,-0.8677730276731381
2.868,-6.969276651560449,2.0546944865142223,-1.7279151306606764,-11.20155357864644,0.6943139945789198,2.1325980526789863,6.094579345992315,-3.0104045760008376
2.872,-3.3872829793615438,4.311092314490338,4.560181127405031,-9.951291247954032,4.7035325228184774,2.5210174923286104,8.314045753024175,-2.140859981692415
2.876,0.25252808512277625,5.98775461519449,10.71299081118309,-7.5486027290136235,8.168475011802116,4.692890367143491,11.914764916196873,0.6756140123013665
2.88,2.1777810101714294,5.581496119623921,14.352520926209763,-5.584797516883896,9.809839025532483,6.91101764263226,14.478865654124547,3.079325210500542
2.884,1.5906018749185478,2.5567669308977656,14.194523992173117,-5.197193437410419,8.992385806610855,7.461253105337619,14.283832084841379,2.6683856990067625
2.888,-0.8947230109147313,-2.2367472344018324,10.6791178518979,-6.395964461874655,6.172967554467164,5.594461746151865,11.208914175383143,-1.6827927108880658
2.892,-3.5782553104070303,-6.9401205676362,5.705119947904677,-8.031165736355433,2.77384310359912,1.9205306923822718,6.732474811751217,-9.115893853902776
2.896,-4.5971647200642565,-9.662599039492761,1.5873194572720877,-8.456814326269523,0.47801332123697193,-1.9548453317486292,3.045777919312968,-17.110319965888152
2.9,-2.932172124145609,-9.493677992883931,-0.16263732304514633,-6.5205866638668795,0.32560309028974643,-4.334119606151717,1.846337105271914,-22.69705412027224
2.904,1.0527678127839408,-6.971367955052074,0.42609562487791663,-2.3109907469578275,2.132154412867635,-4.373193250100712,3.4628126346497083,-23.915715551969583
2.908,5.790750538743396,-3.7733248270824333,1.8784849232396255,2.74275428329895,4.546201083300616,-2.5220231105092807,6.727538450556494,-20.773811168456405
2.912,9.271055430456045,-1.8336147353587648,2.12656165150122,6.482351372801645,5.733395097652647,-0.24998677620237686,9.632509705450275,-15.226966142338938
2.916,9.956991265681154,-2.389962172526566,-0.3906132591207552,7.013047797906893,4.318007080508778,0.7796189995974601,10.345246661672945,-10.197061977188582
2.92,7.388451547337127,-5.481888918865479,-5.953804479023688,3.5655775162480268,0.07781131768433625,-0.38382536319750216,8.037437742690031,-8.125636753466551
2.924,2.2166933506666737,-10.110611250416582,-13.48800947842608,-3.201204374233498,-5.956357531004755,-3.5000292126562726,3.133336683790958,-9.807315937185535
2.928,-4.233685656343141,-14.86768964619182,-21.12822701330265,-11.559943321736341,-12.00383572575413,-7.328821140130458,-3.0264322216104347,-14.092041459795382
2.932,-10.56254209433132,-18.617131719183476,-27.045085676607073,-19.492654054883587,-16.320006494600534,-10.344391268798518,-8.827107714482395,-18.566859728347822
2.936,-15.739230054210793,-20.86893595291326,-30.13468082573013,-25.490411298350978,-17.87670776111935,-11.558981609331568,-13.010190969206633,-20.846611067205572
2.94,-19.239924261425358,-21.727103201828413,-30.269698705624137,-28.98506157520285,-16.627635583275094,-10.98877656474042,-15.00478174450484,-19.780051708354335
2.944,-20.932939098797306,-21.56207947953078,-28.11037439527638,-30.282699832769595,-13.317035690374496,-9.52884576933775,-14.913254357415212,-15.967207308950151
2.948,-20.900451189532077,-20.71023107861555,-24.703545483078187,-30.139003346892082,-9.047338314483625,-8.36051324780692,-13.297238050465694,-11.361864973323009
2.952,-19.366481239304676,-19.401379712140567,-21.093951431912274,-29.251428549525713,-4.858423506422412,-8.256317919161575,-10.920422584339804,-8.197299883251844
2.956,-16.742037990118433,-17.88718852472482,-18.10988269874531,-27.962078764517514,-1.5106480627580368,-9.194710684131223,-8.55501750845508,-7.8439088447152585
2.96,-13.656210033960974,-16.56776909169156,-16.28380136761325,-26.250622554043048,0.5385861158962371,-10.478780244926725,-6.83994843935875,-10.198435477679823
2.964,-10.859355306025236,-15.933327097301571,-15.831549564837928,-23.946205576348802,1.0849195617551572,-11.23979471619748,-6.167412803101229,-13.889119615236439
2.968,-8.987961359821156,-16.31064581641141,-16.654093865323603,-20.99111709258335,0.15372228769325602,-10.999429185589634,-6.601729836713048,-17.120031723258535
2.972,-8.306508623723062,-17.589463886786177,-18.36221174717241,-17.58779458182829,-1.9746745447786793,-9.950920992592387,-7.857260750056071,-18.660814361732605
2.976,-8.614383141845565,-19.179239773137965,-20.412080986228148,-14.202650036291118,-4.802250892060897,-8.827539577320636,-9.441168998385706,-18.479110618916025
2.98,-9.411492790837542,-20.303344096394028,-22.330908220877745,-11.435329091888661,-7.761245765761771,-8.461383679038704,-10.912741344052392,-17.66390159481
2.984,-10.22533043143494,-20.472343560945262,-23.92067639446782,-9.826916269532035,-10.427288780535378,-9.31903798080873,-12.104252508389209,-17.696481122709656
2.988,-10.928208944317703,-19.869941494484465,-25.355378450282046,-9.723080860299149,-12.732873009279672,-11.285863364348529,-13.21567998537887,-19.542416875409117
2.992,-11.825177904533575,-19.354689141923586,-27.047033673514534,-11.190416947544122,-14.989839129230347,-13.791924479024715,-14.693005238847036,-23.05409004026933
2.996,-13.41765221648211,-20.003090224284563,-29.337971565393104,-13.991083533888514,-17.65569187502024,-16.1635609234321,-16.90873433026161,-26.989535792772983
3.0,-16.009602593647173,-22.467854653465793,-32.21042154156106,-17.635107235635246,-20.973362083158236,-17.9740442204361,-19.85180101177457,-29.655771767097008
3.004,-19.409516102285693,-26.528768107419523,-35.194937819386155,-21.491026637561504,-24.672163726179747,-19.17480430262549,-23.003617518761985,-29.776155036572277
3.008,-22.92855566739763,-31.120558823800707,-37.556289271306866,-24.946409458708104,-27.94312679422717,-19.95432619038297,-25.490318367964505,-27.119640361477764
