Timestamp,O1,Oz,O2,PO3,PO4,TP7,TP8,Fz
0.0,-1.8189894035458565e-12,3.765876499528531e-13,-2.9700686354772188e-12,-1.8047785488306545e-12,7.709388682997087e-13,-6.963318810448982e-13,-9.237055564881302e-13,-4.334310688136611e-13
0.004,8.751830685952982,-3.295080875521947,-9.980469269909094,-2.666616275309906,-18.666893277122373,16.400326291100015,-1.6315636227843413,4.734360462820497
0.008,14.906021247508392,-5.217904814971774,-17.515876004566486,-5.203050467422081,-32.720593505534886,28.05306486505779,-2.9853800658449785,8.346537960269902
0.012,17.13167255116329,-4.963378176923651,-21.08825678992747,-7.3821821830750025,-39.34961201758851,32.43089165548409,-3.803037335977976,10.237130197420317
0.016,15.914384460633343,-2.627166692686167,-20.651261202232057,-8.919560336251994,-38.53069772167604,30.255532116623,-3.903115872956562,10.538356762367545
0.02,13.096053493224503,0.8263914000497472,-17.559538864178187,-9.662449002365637,-32.77407239015185,24.81710427749414,-3.2742742004197822,9.893520010295322
0.024,10.72600172247924,3.9594203697593784,-13.92433214635031,-9.78912109518717,-25.808647343081702,20.04578950934379,-2.14235712641441,8.98141275005094
0.028,9.92293972608401,5.460702915674759,-11.665510426714462,-9.825869013574803,-20.874353603303078,18.467775595130632,-0.9124117473862086,8.12619958701459
0.032,10.408959061282076,4.686194138087295,-11.708590195626876,-10.416731260745038,-19.466750051289154,20.17983165766381,0.008630632965477503,7.234120430739559
0.036000000000000004,10.943188026882495,1.9100391443622584,-13.701250703450611,-11.94870749096976,-21.08235753757872,23.307277690615194,0.4175005732124646,6.063997534306125
0.04,10.297029452829378,-1.8154323461360278,-16.34186043695793,-14.25778756963484,-23.92386664139479,25.485979039819,0.43770715069345556,4.5987719330747545
0.044,8.10976021422097,-5.120712650823023,-18.141500710043204,-16.642293236855398,-26.07171141925199,25.361005136907963,0.4505931307797013,3.204373953356715
0.048,5.094831911854186,-6.8990317476578795,-18.21882855952095,-18.226555738360744,-26.46513894909017,23.203987674912554,0.8572383174329801,2.436562718784174
0.052000000000000005,2.538341041526891,-6.747321632826157,-16.72726483585575,-18.478776258611468,-25.243111548557664,20.427063756218516,1.823284236713235,2.6310268898665257
0.056,1.4899422763655252,-5.069150182672072,-14.696224719642316,-17.551415444181984,-23.392282252859264,18.484202552517736,3.184267962653003,3.596352880440083
0.06,2.1924291123183224,-2.806070278156131,-13.367814446144365,-16.192860873757404,-21.99338632396304,17.943186985061317,4.591503975406319,4.66604074175142
0.064,4.08175266889009,-0.9380930813811759,-13.405649672527439,-15.2541599131061,-21.532679010296,18.308507013062567,5.808959006665766,5.109980212703302
0.068,6.279137023422265,-0.02129259703603026,-14.427934625092625,-15.086421840924448,-21.656506980548862,18.595298537084624,6.949722491239754,4.631430829107185
0.07200000000000001,8.187320439154618,-0.0007764740695321848,-15.182660942461716,-15.241901366663761,-21.496975515013318,18.162639580284996,8.430576220063045,3.579999968283623
0.076,9.746260448585204,-0.39965373351497036,-14.332602494029146,-14.74685250047435,-20.374481006303235,17.17097084119699,10.589671845632061,2.6767081921331197
0.08,11.16530196408796,-0.7788726253586944,-11.416516467233862,-12.837793802769166,-18.44534848378214,16.326474515323547,13.175820481326596,2.3822189927676902
0.084,12.38177670175935,-1.1725488415770613,-7.419391197302566,-9.710391063986172,-16.890801869707694,16.12948788581639,15.051309127950894,2.326444218378885
0.088,12.705650636419499,-2.2172165266298833,-4.531935030137909,-6.757358129464862,-17.480100111484376,16.21323150170162,14.422042120650744,1.2401348139021628
0.092,11.015187238065536,-4.857608707313023,-5.131555908850856,-6.036630190086445,-21.697426867327035,15.345213743527566,9.628556801401068,-2.436886387421744
0.096,6.478763263885149,-9.748829458090722,-10.47986603316064,-9.166271239979245,-29.859809870135727,12.193812791814509,0.14888216689143263,-9.542874359632158
0.1,-0.6356118588346149,-16.666139312233433,-19.810898482394393,-16.2245398159716,-40.65929106098429,6.3884434485054555,-12.704293566084324,-19.357518315496666
0.10400000000000001,-8.62774988994412,-24.273144080842716,-30.36033489930423,-25.324103345442797,-51.40308512151409,-0.850659384455831,-25.862316766030396,-29.496362975103946
0.108,-14.853681208081568,-30.447704666650555,-38.40797499941767,-33.19674917469125,-58.90493091275818,-7.016630600844437,-35.460127460220825,-36.71865279537343
0.112,-16.866636924525423,-33.08242586584151,-40.88472323282304,-36.5827723116858,-60.695052100505464,-9.464698033628828,-38.31512911196473,-38.29986403840735
0.116,-13.604209061728895,-31.000834601599163,-36.75899157705094,-33.746625744592464,-56.03496937938541,-6.767851666663908,-33.25946156459882,-33.27617684961089
0.12,-5.961508519725449,-24.534797811045475,-27.471031191352196,-25.30905804747853,-46.24417928833489,0.48669401793628,-21.66303000464137,-22.90371429655989
0.124,3.574855255356674,-15.462241576707243,-16.20591855663857,-13.951705279515668,-34.16686998637603,9.9154532477002,-6.887417581529299,-10.10199891720519
0.128,12.058255554428918,-6.3149508116109025,-6.388661037147656,-3.138640297103862,-23.010559446236616,18.46361714632129,7.084276028240467,1.8247182671610176
0.132,17.388841495108238,0.6218531984456135,-0.2026987667662894,4.465130174861066,-15.119545560321551,23.83434962771404,17.189874093651284,10.535598405805239
0.136,19.11334017595572,4.142219659854376,2.1107483759260823,8.043116820897353,-11.266304460712988,25.458818780673568,22.275833090893745,15.402313693167681
0.14,18.34018428139281,4.4237183995242475,1.9132228602444101,8.654230287278565,-10.715076715994378,24.511055509206486,23.152915577308946,17.35375655451346
0.14400000000000002,16.887467674823753,2.719724950599325,1.0896797389618378,8.314903052439533,-11.923831678452451,23.026081464693597,21.809415262711244,18.013700095662667
0.148,16.180511459217364,0.6378793338374251,0.917325585672927,8.725923522636869,-13.444034794899334,22.66641532900011,20.273345790259423,18.684162322839967
0.152,16.549866540313175,-0.6062627854032137,1.5110811009781528,10.380364065457599,-14.545632998003416,23.86494182141538,19.72423376012996,19.735725134199747
0.156,17.293570113917966,-0.610923977101784,2.0764750031980768,12.50850036038591,-15.3023625637871,25.789789932828327,20.238706331412608,20.66664416713628
0.16,17.34570421555086,0.24040068474288745,1.7051329880067883,13.788911269447862,-16.187322803194476,27.034835593944784,21.156536312062535,20.681871692813026
0.164,16.07465350824871,1.1522502675613246,0.11744590757900752,13.314567249332491,-17.523864303191807,26.548203775719294,21.709405336019454,19.345598703726864
0.168,13.717752840991302,1.389823452380245,-2.1123615800599076,11.211139220523759,-19.155040010918263,24.246952445613932,21.50790620069058,16.89873979048912
0.17200000000000001,11.213883525453674,0.6069820608016734,-3.963142209914931,8.5505686910172,-20.534558797840944,21.013557555906992,20.64723524850422,14.098240054861446
0.176,9.587069322491885,-1.0922915330509593,-4.707301090302767,6.663243707655937,-21.154183799563196,18.154666473173084,19.45455429600733,11.732164739729658
0.18,9.302022599079564,-3.3014055551640116,-4.422639140352501,6.336333056944122,-20.952569437991,16.683240892869716,18.152108256339506,10.161004275686949
0.184,10.002065978484048,-5.508228577053551,-3.9155721613740795,7.408265404798112,-20.386658423034593,16.83874992714561,16.690417320504974,9.175924144640566
0.188,10.781492329210963,-7.236893761958676,-4.104701701979749,8.990562497190748,-20.10260163728151,18.083924457220906,14.852528210820019,8.232999507774725
0.192,10.809756175848158,-8.118420383320641,-5.30497122114447,10.133753954791523,-20.459677137841886,19.524692103431082,12.522177079003178,6.888530287864878
0.196,9.908882796849237,-7.932761297294514,-6.933833662093637,10.470627728307816,-21.256376228115187,20.470014562417187,9.877771489333487,5.133058803248742
0.2,8.69519501700671,-6.673928491073161,-7.853209095466717,10.417531281269495,-21.846985260613746,20.774144870011334,7.371469953910797,3.4139274065244525
0.20400000000000001,8.181015727794673,-4.6203652224039775,-7.149116931150836,10.81112479439968,-21.575425913063974,20.765156231636663,5.497938502009163,2.340391281581942
0.20800000000000002,9.08031788835022,-2.3325781800248766,-4.810098111926429,12.247809778939306,-20.216461948655564,20.860501102875567,4.525288140406261,2.2827876826856013
0.212,11.256886832843836,-0.5250704772358343,-1.8580310565113045,14.564658976454128,-18.15356817118378,21.160706524495758,4.371369780346598,3.123065389682653
0.216,13.68738219890201,0.18302020341836656,0.18269828041003322,16.812047189815456,-16.17567153481359,21.314698945702627,4.703096255513085,4.311151879882837
0.22,14.985167795497418,-0.4598093080911019,0.19026178528360127,17.76366629713308,-14.997578152659543,20.731483231093648,5.188298927389187,5.1907065797453855
0.224,14.189509303620436,-2.1886338909065888,-1.8399840623343682,16.643942842209725,-14.81954424189362,18.980069397867496,5.700725537214982,5.37091594131803
0.228,11.362285442832004,-4.306735490092205,-4.729504735853025,13.626772503585048,-15.21336248670476,16.126865867801726,6.341197175738678,4.914869530887294
0.232,7.630507634517276,-5.993238747973781,-6.777058883161807,9.785357599753588,-15.416686475808305,12.793125457391412,7.253912585352488,4.247171531946224
0.23600000000000002,4.6421214524302705,-6.678397508138066,-6.752742332101471,6.519853321656464,-14.83570391049005,9.88373666928694,8.375867741461732,3.849820653756394
0.24,3.710093961854593,-6.304050134889873,-4.630626176941643,4.7949219889490795,-13.433794322648593,8.132113779495388,9.318342198887896,3.9461464897939074
0.244,5.135909357192904,-5.316404338299375,-1.6430545504045213,4.632053113730606,-11.771454924026022,7.745000406673196,9.471860048237609,4.372291320270897
0.248,8.067652032929352,-4.409470855689031,0.38761443797633,5.151654510830404,-10.671479828243454,8.332147121374682,8.294444409199548,4.693919512979724
0.252,10.95464158534054,-4.157440729715384,0.05009432823887039,5.126999261317368,-10.717158132820877,9.138092660240556,5.605563622389589,4.475239226462332
0.256,12.35038392639921,-4.726905802117941,-2.903492042983066,3.7183376012976526,-11.907500088141628,9.445199990212487,1.7057300803879656,3.527277700225505
0.26,11.622800388068391,-5.831928245835974,-7.461816857745674,0.9665546050109626,-13.692583373805778,8.935944756539001,-2.74274405510549,1.999151115942536
0.264,9.210368769076869,-6.922073016171372,-11.945951181129496,-2.23059191139669,-15.34438973804906,7.821887925019297,-7.01195263334586,0.2689105844731259
0.268,6.297759392860263,-7.484637915898784,-14.889645782843562,-4.619096272931883,-16.391112387218012,6.663958372965634,-10.588179941387141,-1.2836708272841282
0.272,4.106535257958985,-7.2959543162503016,-15.71121884542866,-5.271259767300802,-16.832976342715593,5.993822501716366,-13.275564876044626,-2.471148038821899
0.276,3.2355514186045173,-6.488025487050855,-14.84725221580742,-4.07403598977323,-17.03100889089011,5.982032932464959,-15.1087289579771,-3.3458916869648636
0.28,3.4070690614722814,-5.445257833901591,-13.34352499660312,-1.7668553101472604,-17.38719590940719,6.355160997773352,-16.15570560010518,-4.083057474166651
0.28400000000000003,3.7356199480023857,-4.611869748888221,-12.230120659698864,0.45096053951031045,-18.064818181961982,6.600894409600105,-16.383180302498577,-4.800013487159301
0.28800000000000003,3.318067475869208,-4.314314919690095,-12.021706446931464,1.5164265414006963,-18.90921501656424,6.3066460510627,-15.668358199831019,-5.441926231656112
0.292,1.7888251673061575,-4.656435316439815,-12.562521094514844,0.9962429096980037,-19.57703791722544,5.406549445763588,-13.938645655983652,-5.802529385826865
0.296,-0.46694552095434716,-5.511074546390223,-13.253061898218261,-0.7679616992494518,-19.7747986776938,4.197339400809252,-11.339612717341812,-5.66842076370985
0.3,-2.548916803076989,-6.593569603382932,-13.458900399539267,-2.897107555988324,-19.442464928840455,3.129914559767853,-8.277220606171895,-4.983830900442946
0.304,-3.5568327773215866,-7.5662447713913945,-12.86435846619645,-4.448789265753174,-18.757081821840735,2.5242144648446043,-5.310404065885413,-3.9303595402139333
0.308,-3.1108605382967927,-8.162889764331446,-11.597982118365163,-4.884875293241198,-17.97304926880112,2.3639910061675806,-2.9538166737731135,-2.885393373655236
0.312,-1.5871468651853267,-8.295801583347927,-10.114303996206576,-4.295521778642891,-17.21661191651101,2.2853003617628858,-1.5031556987919714,-2.2756568172154603
0.316,0.050543051803148664,-8.119666690851512,-8.959065909087704,-3.30720864755863,-16.410392793096044,1.770760815444918,-1.003660170278991,-2.408454949589369
0.32,0.724451052111629,-8.020837756158047,-8.538705286844056,-2.743684847704749,-15.399702983534674,0.453784265974706,-1.340195517017376,-3.354274854923565
0.324,-0.22195555130695066,-8.483926310658694,-9.001024695528933,-3.218869969236545,-14.190398072284673,-1.6410998661805465,-2.388059330790111,-4.921694865341924
0.328,-2.7173716064912785,-9.86381890177768,-10.212764819740421,-4.840953224391788,-13.093862074880118,-4.074324920030854,-4.095907321151788,-6.722624123930068
0.332,-6.0233135867522885,-12.15157762877702,-11.801354183083127,-7.14654857344671,-12.625686326588792,-6.204301168656834,-6.434885570866307,-8.286287677386074
0.336,-9.09737547341034,-14.861012074829496,-13.265888919761649,-9.300233382002451,-13.202150204683832,-7.509798770999792,-9.278646727436241,-9.19418623939482
0.34,-11.045105957208804,-17.143417169363655,-14.13846520014046,-10.464409749267462,-14.828343668125203,-7.822127174793782,-12.299537995271102,-9.193899816078229
0.34400000000000003,-11.438928534780974,-18.12443641850991,-14.188383566424857,-10.19079090865705,-17.005180016983317,-7.341783697861033,-14.997465779991582,-8.276735114946128
0.34800000000000003,-10.400165170397457,-17.322545513110093,-13.566469561629775,-8.651589060110158,-18.930470981591128,-6.4665032948467704,-16.871544722569404,-6.701706066608193
0.352,-8.459486185762884,-14.92352288335036,-12.788213638518833,-6.598342456787838,-19.89449632030285,-5.562913909648937,-17.64115927582221,-4.947608013653634
0.356,-6.305796556932257,-11.754125194222167,-12.531988078416123,-5.061809481829753,-19.6714874203658,-4.814988751877163,-17.394834640447733,-3.576620655475409
0.36,-4.552433398575886,-8.951289449522129,-13.31436026761075,-4.908058737830675,-18.689610504148025,-4.215270947068333,-16.551581102434923,-3.026867079876957
0.364,-3.6098345960990894,-7.473034563719793,-15.236715741119635,-6.458364702281184,-17.876453840606445,-3.677364182331647,-15.674343750292872,-3.4173364071667844
0.368,-3.6596880192621266,-7.690165942194572,-17.92365431610473,-9.329508273630179,-18.22407817933907,-3.181625662510138,-15.221583518092785,-4.461008316201196
0.372,-4.671272219609977,-9.254979073374347,-20.685948495775307,-12.561113369512736,-20.27214721497401,-2.8452409656714575,-15.35750643682195,-5.5500960365281
0.376,-6.412090663745607,-11.305212684382932,-22.846684416698356,-14.990737769912633,-23.785049743281455,-2.8598317237236026,-15.936077026059799,-6.003923890797477
0.38,-8.446064150159078,-12.894686666869617,-24.022093931319624,-15.700867454967192,-27.787266337204056,-3.32221235747671,-16.61736632839662,-5.361205008803465
0.384,-10.15248623698037,-13.4158872745382,-24.214622744571372,-14.352837430484904,-30.952168714424822,-4.066734848705618,-17.050517274296798,-3.585708457892629
0.388,-10.84864457358195,-12.815224563588202,-23.66267485814236,-11.269027408368402,-32.14658367356554,-4.644980638013898,-17.00230616814922,-1.087915315545371
0.392,-10.045032665878491,-11.52827067628003,-22.569553341966834,-7.256689133591124,-30.874989438665082,-4.513572178390445,-16.376259654753092,1.4362632354849847
0.396,-7.7342126127888235,-10.212912670188047,-20.940263369125205,-3.2896672588614653,-27.45446876690534,-3.3382289169223265,-15.167506994033628,3.2634397600339806
0.4,-4.528676841354645,-9.435258370287269,-18.62873213687234,-0.1778667177997626,-22.869190124334978,-1.2181006939497738,-13.390843727347992,3.8894056621923543
0.404,-1.508321376985032,-9.452392075669017,-15.580329421280641,1.6435239357164662,-18.391121993827728,1.3163974794027307,-11.06770587907637,3.1636177506674246
0.40800000000000003,0.20559137629391877,-10.154611056530221,-12.05667464418146,2.167411125211679,-15.102893529729762,3.541798677170204,-8.273735760569608,1.284623308157169
0.41200000000000003,-0.03082429035544365,-11.14749553306751,-8.63670420903727,1.7324225724097815,-13.506033000943498,4.879635968641699,-5.211587363733504,-1.3125389720825629
0.41600000000000004,-2.0259701465721216,-11.903447692619718,-5.948864382617154,0.8594609375419964,-13.371436588978511,5.169451813898167,-2.248228443230491,-4.095775660170726
0.42,-4.772841928975104,-11.93777955024808,-4.2792657645276435,0.07575315719864495,-13.898891016061356,4.738363303983673,0.15543651787666812,-6.5473842749459905
0.424,-6.87961720491387,-10.96818541068326,-3.3589559014753734,-0.25141450773214924,-14.135210189198267,4.225020756959971,1.5789733090296494,-8.249944605467078
0.428,-7.2493328051544355,-9.045072463215135,-2.5078059096127863,-0.0392094011743378,-13.463679043831002,4.232180242782592,1.79003123336593,-8.96551339585498
0.432,-5.6752869919940245,-6.60584543974743,-1.0858798706288173,0.47119759708026643,-11.923228936841717,4.986955066325523,0.8326923185532649,-8.712611907889077
0.436,-3.010629118196172,-4.384906456530416,1.0074836509035237,0.7890742872317826,-10.197118159455911,6.198809047400322,-0.9925884417543782,-7.798651618723143
0.44,-0.7834440711520505,-3.1803150985519495,3.143447303196944,0.36741818256940206,-9.271298912118887,7.199333633857703,-3.2249017145565695,-6.742356973424846
0.444,-0.4146974524588085,-3.528644260587887,4.246770245432835,-1.140480318700141,-9.914061827792622,7.2981072647831455,-5.389856096645268,-6.071453499557682
0.448,-2.450732299967553,-5.427622229730987,3.4504863141902824,-3.656445331711855,-12.21487816809205,6.153562160409578,-7.114278924674969,-6.0648936070869635
0.452,-6.2220817153299475,-8.25404934772833,0.7420787428680806,-6.604305261097475,-15.423800595624597,3.9562249443451325,-8.173770796776122,-6.575981121255069
0.456,-10.115712773761297,-10.952940372602466,-2.838523731284779,-9.06398630313502,-18.22296779150612,1.3505178665441966,-8.490415212343084,-7.054036359414479
0.46,-12.351707471759342,-12.4696799410797,-5.632186145516366,-10.118655707292511,-19.335286826388945,-0.8493171722936701,-8.085108159781726,-6.797578241203496
0.464,-11.846304560143764,-12.21591898320432,-6.244881936928223,-9.25518343429404,-18.172708468381273,-1.9960390883667274,-7.041703638117447,-5.339287414183843
0.468,-8.720153786525657,-10.333249117497665,-4.367920740519239,-6.621828023079607,-15.166533967965929,-1.8421854505048416,-5.499862768404952,-2.7569549126791895
0.47200000000000003,-4.209798302777928,-7.609666315275614,-1.01956991914893,-2.9982249311234126,-11.565835096188195,-0.5903735199149467,-3.656486928324929,0.2866683658636884
0.47600000000000003,-0.04892013204557255,-5.098632174429287,1.9499517533713693,0.5052693806485555,-8.801185067544974,1.2343892974912483,-1.7734210525102192,2.813742060114016
0.48,2.3562430013811184,-3.6412823182235883,2.8371244534054725,2.8920283283301993,-7.7560037360222935,3.0257649983160624,-0.1577513291842223,3.9925817382175577
0.484,2.5291019675441335,-3.5364702799281282,0.9865037386404278,3.652657812232606,-8.351570159277532,4.335729778817255,0.8851127593328005,3.543788976230039
0.488,1.0226447979269082,-4.505200745720387,-2.873713000932554,2.9129544659282303,-9.658297148653457,5.003274240471837,1.1362761064133817,1.865622874381252
0.492,-0.9850883592151156,-5.924033956126337,-7.032868158597573,1.3198005905918233,-10.448382631016372,5.139257207813275,0.5612392473252683,-0.19522036528965891
0.496,-2.3304386660043317,-7.156610012053044,-9.7047067610348,-0.2620090174524563,-9.875842676737575,5.009570988328362,-0.6354861177957041,-1.7995709688577346
0.5,-2.3713833539064275,-7.793401952330999,-9.89248903251066,-1.0725695990227138,-7.89801527450464,4.897410880363415,-2.00984465966822,-2.521966777100559
0.504,-1.1397544521794742,-7.701187174528673,-7.772241961710698,-0.6855216621068969,-5.2244427254294585,5.003964712079588,-2.986819470787564,-2.487300052308921
0.508,0.8619492891802878,-6.920857190954488,-4.430111061030496,0.9212844256503923,-2.8387875208102855,5.405041478672543,-3.0534956330718668,-2.1774084949740615
0.512,3.0229558312689337,-5.542786152866622,-1.179886291125385,3.430118356744691,-1.3884403357281943,6.044205419409101,-1.9663876349469316,-2.0487412774435967
0.516,4.907362158034347,-3.6720676732178497,1.0737392290473462,6.299685631022227,-0.8368450537547734,6.748425904071377,0.09706469354147229,-2.2178638067057364
0.52,6.322619537516367,-1.4941169656925828,2.0945344261491705,8.897657262610009,-0.5864347170007926,7.271663519022362,2.5413587864276,-2.4003251982402585
0.524,7.2265351168415854,0.6634146061459221,2.126369072780931,10.639051351889316,0.02860337136604052,7.378625679468,4.534924461071226,-2.113669573746243
0.528,7.610579818737769,2.375611427964333,1.5057185449549797,11.13867455258427,1.2208021029233818,6.944713116764216,5.330039768453617,-0.9986539349455699
0.532,7.469450467541858,3.295111139206009,0.4164882855032701,10.357635298481835,2.5574401217730873,6.021091478261075,4.5956243338831015,0.9616856437367125
0.536,6.871920238659988,3.3597448382099175,-1.0636276925278052,8.664479013270938,3.21700283656004,4.8349612732385845,2.5920924506401595,3.46185618337095
0.54,6.0422635936116444,2.8664804401247888,-2.7137858129016723,6.7485515683514805,2.5265289471617027,3.721539980186267,0.10350059006760048,6.104774479210216
0.544,5.342008409130274,2.330420636197359,-4.008378141956207,5.36556289700378,0.42735002480226925,3.0125226174200512,-1.872972495036353,8.661796034933772
0.548,5.106175815569797,2.177636489750157,-4.245644097252136,4.996829727805952,-2.4323911852786564,2.9104925256924683,-2.5427571272375538,11.167379884109463
0.552,5.412124055820652,2.459035313746579,-2.9527407085230646,5.592319173223519,-5.030141980208901,3.393136559898308,-1.6346711899417485,13.772730317568236
0.556,5.95401450470798,2.789210256745731,-0.3147544218255245,6.551812085450731,-6.519469158548414,4.203804356473688,0.5090283507099178,16.45902366640996
0.56,6.159038751074495,2.582629982634355,2.722599223941752,7.000023281046461,-6.665749717080423,4.949682708286325,3.1297912081480463,18.833077581948167
0.5640000000000001,5.5251904371850715,1.479531008649495,4.821254542438247,6.240473581281254,-5.89659852872736,5.2768989142340885,5.411533889926799,20.19004189820356
0.5680000000000001,3.9735975131091026,-0.3155907842339758,4.948238638655741,4.15719616004049,-4.943091304635063,5.031505296818248,6.819666659906293,19.847428600068074
0.5720000000000001,1.9822910805215246,-2.012461554802046,3.0176148634724793,1.3396721464638528,-4.296111465621662,4.323158349374559,7.259157197124539,17.573091225302466
0.5760000000000001,0.3860289251623765,-2.5840919188436793,0.05821212844978163,-1.1590678754791348,-3.834546803581631,3.468566126308528,6.994242510778834,13.851757586646663
0.58,-0.0749042444162864,-1.3272566361772018,-2.2321518568294216,-2.314394711891918,-2.8835007477546384,2.8506092268636887,6.422043680482872,9.798203483394477
0.584,0.8118712683481402,1.6950019514402541,-2.341511897526054,-1.6246817705182366,-0.675342172931936,2.766745613838878,5.835056573706478,6.7253427553366265
0.588,2.5797815000336177,5.596641452699868,0.27672771073586055,0.6579460644143715,3.0744546867102516,3.3268907539264645,5.314570928204643,5.583331526131721
0.592,4.312931499690394,9.048069891592842,4.935287635972301,3.681663188239451,7.845572357303546,4.422685676599441,4.796104804820281,6.56163811771799
0.596,5.148022484400231,10.900311942089349,10.084009127473792,6.434611331734242,12.450483773578908,5.769401845997347,4.206002655325004,9.049184387537844
0.6,4.769746315187465,10.717460507597664,14.11380796113565,8.228932480816367,15.567822512162511,7.007987400436461,3.5709890992425217,11.969121590932657
0.604,3.598241511248449,8.933843396198483,16.110512012770247,8.952815380589776,16.368619524219095,7.826703070071018,3.002714210335284,14.297400721590037
0.608,2.5398688969923153,6.567235050026628,16.164362253538286,8.973542465105066,14.89203715819483,8.05810436355921,2.5848507058598713,15.488287486958086
0.612,2.4472567702536736,4.676599154173155,15.135292069230733,8.794867924435772,11.990083531180105,7.72243028631035,2.268207216374103,15.612261327205228
0.616,3.6141700203267266,3.8845812393703643,14.068479145834715,8.694651070455,8.894423175683318,7.018853045814745,1.8719197553967417,15.18739714081525
0.62,5.588092710967688,4.186548755598238,13.634752639251808,8.56396465777372,6.637960210579596,6.267059273198966,1.2162885998817465,14.83809692022327
0.624,7.4140871267849136,5.1042899100668535,13.874420265377296,8.017878101963916,5.614601588632873,5.80742449237154,0.2861795292775362,14.981198398855248
0.628,8.166892209091241,6.047057635948313,14.333538950986728,6.700928799635484,5.493136072405406,5.883223747456597,-0.6884389072831354,15.692907634119486
0.632,7.430370541056698,6.630482283117793,14.425300176832359,4.5707815828622245,5.4853028008302935,6.520301581252333,-1.3195386482941558,16.76189698351012
0.636,5.458823685731746,6.787123083476676,13.750997559261371,1.9717117231881147,4.784464293946414,7.471528129534175,-1.2988110017361088,17.845260963812525
0.64,2.9579043244836907,6.654828902139421,12.229243390794796,-0.5308617849266142,2.9419590652603915,8.287065308949114,-0.6300338318440231,18.619859161649742
0.644,0.6533759429877715,6.381600469208927,10.015289768885477,-2.450010520710637,0.024919156241218543,8.511523271164702,0.30282622826718875,18.8585054993466
0.648,-1.0733925314532247,6.00856437212758,7.366948989874395,-3.6135927646948787,-3.461093948199534,7.923262556257015,0.9166117507602785,18.444079567774544
0.652,-2.266719512741881,5.515823400226333,4.612410713251942,-4.181196203129663,-6.777929985075907,6.684170460370225,0.7777522846390372,17.36710490385552
0.656,-3.170441075736246,4.975674231464616,2.2115811398599163,-4.4434983327565485,-9.184395489698197,5.300656082150968,-0.09109310127449,15.742307172048932
0.66,-3.890966616057632,4.647118333500586,0.7996496723330111,-4.5511654883264345,-10.12665013202093,4.3908707612269335,-1.1383642473097915,13.825850909258481
0.664,-4.201128044835752,4.906912518113552,1.0617405963590496,-4.374063963735416,-9.360217830197488,4.370061586873273,-1.5405308780102018,11.989529708004081
0.668,-3.651260678247258,6.026293791844498,3.428931342789319,-3.5968753526732478,-7.005959619982699,5.210351009378828,-0.6560609918430345,10.620906120435908
0.672,-1.9274122432072645,7.933448581746326,7.746341473218452,-1.996216838814064,-3.5326006974693804,6.419003022524118,1.5785039202351534,9.961123938251504
0.676,0.7771136927205156,10.136194162734023,13.114856486422179,0.2703617201327351,0.3354128528901379,7.275153568168159,4.524580493245734,9.960079102977561
0.68,3.663747363429006,11.896627097185627,18.101194839719103,2.5835001545847143,3.790336124566918,7.218512176948341,7.111770257500357,10.259936351051683
0.684,5.6226008537958245,12.592641683575334,21.25677285554371,4.075099384418676,6.150488590696972,6.1834834435134445,8.35364375991825,10.340676166089713
0.6880000000000001,5.763956672639962,12.051593967258933,21.703972344110554,4.038801881793511,7.025110273953581,4.665316192172423,7.822276483747974,9.759715774468752
0.6920000000000001,3.89530034236307,10.652888556431144,19.49822754326339,2.3285951675389835,6.38433201916521,3.4617343644949647,5.836828759590013,8.371897334777636
0.6960000000000001,0.6461474154626019,9.116622190073342,15.545917966740877,-0.5066460792779749,4.497936227158403,3.2168464354300106,3.264762528086843,6.3974766887165995
0.7000000000000001,-2.8605251150787474,8.079416158730407,11.133380887353653,-3.448550482235266,1.7739171387313242,4.031316461264916,1.0643497515787095,4.297148838971626
0.704,-5.601920631586261,7.708810192172104,7.304348604541019,-5.505158716035027,-1.4177741214764823,5.384127092021754,-0.18261421321466997,2.527107285107692
0.708,-7.1719196742459825,7.593870771500758,4.431112814651032,-6.213731220946515,-4.8339848756970465,6.4272789143811035,-0.4934346529119713,1.3160780166709998
0.712,-7.922180755998256,6.994059306887942,2.208583811802021,-5.868418104916802,-8.307659172111993,6.483331043381328,-0.3638181055807692,0.5847995335092335
0.716,-8.64943251165805,5.31724326372636,0.020605393198476207,-5.351431287012238,-11.621809945495173,5.453838542030506,-0.4092854411101676,0.048981686143856784
0.72,-10.01470013020163,2.549613213948146,-2.5401460564605545,-5.63165334646067,-14.41047171221197,3.8896847830597103,-0.9756285310687174,-0.560865131096671
0.724,-12.052402360381253,-0.632435133334694,-5.332120051450316,-7.208089349123166,-16.195439537079146,2.669718986126659,-1.9489435115777205,-1.3106341858513977
0.728,-14.076293139168826,-3.152848542008037,-7.684819639905707,-9.794461668333286,-16.54968425360122,2.466476668217072,-2.8288050068471264,-2.0145029356766067
0.732,-15.048562124487379,-4.075285791126563,-8.733761231182044,-12.413159957295273,-15.28271640121198,3.3104990514075117,-2.9828355858802844,-2.35280051945025
0.736,-14.185836586774737,-3.083637062355769,-7.875708079904559,-13.8601377301254,-12.529319398680002,4.529636971350978,-1.9465191653232132,-2.082690727880591
0.74,-11.442183739558395,-0.6379834719720132,-5.081807001774586,-13.299700532283367,-8.682923002919306,5.119213936346037,0.38165446720238094,-1.2051348697123423
0.744,-7.583660545528314,2.27929913506139,-0.9385642834981578,-10.700560350619117,-4.2239439419775096,4.332417637667386,3.7047289589566494,0.0014093857101729057
0.748,-3.8172281083032082,4.678049085302814,3.5827157284414013,-6.893090245455397,0.4532599329928404,2.144803172090489,7.416186523263083,1.0987588100823746
0.752,-1.205181494723261,6.037413888740324,7.498972118318671,-3.221472581584046,5.107750887902987,-0.6987395074430474,10.759767734934515,1.6804608472386366
0.756,-0.18325090978574643,6.492981684393784,10.14245291454282,-0.9597252310630928,9.582144576241625,-3.086422835458616,13.001160642943578,1.5393947989728245
0.76,-0.44273230079937953,6.638992525570179,11.335954198378325,-0.7589860425827935,13.661650112479133,-4.15802317242632,13.61971211538355,0.7333652987412531
0.764,-1.2117136600621379,7.083757913332935,11.359813581631022,-2.3919094042711677,16.973819017245436,-3.772313622059986,12.486674448660068,-0.46952055194313713
0.768,-1.7182308567502762,8.043686946520724,10.768813836239154,-4.88566272368175,19.036556464419682,-2.5541245714815326,9.986788169041635,-1.7150715583092513
0.772,-1.556370341085107,9.21073538147756,10.148728390561441,-6.954628275774875,19.46061811084998,-1.502725488497317,6.996299507075337,-2.690301979867045
0.776,-0.7644522452607911,9.960373289023641,9.881775996278897,-7.54321770422637,18.182304373403316,-1.39425149887161,4.6455307896004,-3.1970559397015648
0.78,0.36338274355364897,9.74855753637343,10.007307301043326,-6.2462662178388575,15.56734122217666,-2.33614201783252,3.914710735354764,-3.1572441251043344
0.784,1.5618591588578354,8.44985864784961,10.20114463500246,-3.4485149669355173,12.289187109976327,-3.7235679819000764,5.198771961601729,-2.58159421609328
0.788,2.7616727481119216,6.426057081272013,9.907581244161598,-0.145179179002632,9.028397505620527,-4.608272587179029,8.066381814187062,-1.5326675998660648
0.792,4.036213156190662,4.296703361241438,8.607320655902953,2.474064883160903,6.175014135167061,-4.261656320658027,11.387409295728057,-0.10148334170380924
0.796,5.401535701194266,2.572482040349941,6.102895684766873,3.487212147643799,3.711589648957931,-2.5967741297530615,13.804170948851919,1.5865586349811287
0.8,6.645564136225659,1.3717619969830999,2.6983767345579484,2.5740842131301136,1.3401771692035886,-0.22183466431052246,14.364460604995138,3.3535250922094835
0.804,7.3493026116774125,0.3958962950022986,-0.8572970813560019,0.09742860495901695,-1.227766405103015,1.8841788856955768,12.979070706958417,4.94974064957417
0.808,7.111426336450101,-0.8306759198779492,-3.6697098222115887,-3.083154588034313,-3.996084707002849,2.869634368893096,10.453734863028473,6.0523180277517366
0.812,5.838347887420866,-2.6018647849672893,-5.092087988979429,-5.965857097073057,-6.576249542624364,2.3925476122199694,8.075937104335969,6.305805941988566
0.8160000000000001,3.9018984632341187,-4.766944946865131,-5.025389073832105,-7.787686239530785,-8.315776495530365,0.6998743798017752,6.955567533841828,5.4061090178666635
0.8200000000000001,2.0306135240401244,-6.733522762146138,-3.9251487593685237,-8.267986296326162,-8.582735421370256,-1.5906640960768907,7.489700048152242,3.2282205155309134
0.8240000000000001,0.9767459402887404,-7.740446859847376,-2.5053172616473844,-7.638124091359501,-7.05286713877419,-3.8340611000076326,9.221235204336182,-0.05018039941370667
0.8280000000000001,1.1395615334288438,-7.25608726568319,-1.2987774102767329,-6.464336953794758,-3.856323180981388,-5.620162583172762,11.144284801893505,-3.897491565798248
0.8320000000000001,2.3629222682272317,-5.28224524315598,-0.32636681039225657,-5.355023215813272,0.47546634829832346,-6.836259381818556,12.275912078652667,-7.505699655259464
0.836,4.0275126933557,-2.397170283704085,0.8986611047787179,-4.697734431184417,5.206982069511371,-7.550449877773822,12.147353928879802,-10.009530753289198
0.84,5.385092978109886,0.478281100387278,3.0262784102524325,-4.5327833511386455,9.623837521490497,-7.839515504286291,10.966941466350645,-10.781056921105968
0.844,5.961029721376609,2.488297832958785,6.377886181223497,-4.592794607904739,13.193688449494324,-7.680158322360376,9.408054340885105,-9.662795339429305
0.848,5.813268360175494,3.2297493069234884,10.620570373677324,-4.455468316787837,15.638411826776444,-6.950889570385626,8.20278401484165,-7.0138437389711825
0.852,5.507483428700883,2.9249057825900837,14.829317390762426,-3.7210840088620043,16.950530958876893,-5.523626594412237,7.799790715507406,-3.536725637890322
0.856,5.821474615442521,2.2947063915852626,17.901106004009314,-2.160338495807006,17.3628481590237,-3.3667814235887987,8.239330461105377,0.02424312682319263
0.86,7.317633686253241,2.166082028460928,19.08867306794626,0.1958821401126547,17.250618481085677,-0.5939856946979436,9.26495695377136,3.1493253296263974
0.864,10.006363806118893,3.008042634384565,18.316143556646896,3.022432717028911,16.960152455248593,2.560325491761927,10.518917630514183,5.646950409404444
0.868,13.25496715032991,4.618694717287314,16.085969432762294,5.714819901137234,16.58419710945928,5.790265318812173,11.65010588833359,7.544220194326149
0.872,15.974380000552367,6.125953476812008,13.068006435216802,7.469708342054222,15.800967674059748,8.74695577902487,12.31164232001424,8.879645736080198
0.876,17.02187420705031,6.351481799902864,9.649811084795282,7.460243008720017,13.916315314576536,11.05789592188987,12.122990954851467,9.566756847300375
0.88,15.665955943789175,4.393253795040733,5.77991799531323,5.121738621266513,10.17519942807236,12.378834168115244,10.752604499932227,9.457251281179076
0.884,11.931545115143482,0.16279166873646478,1.2146836989368417,0.4584569924097597,4.25014985258208,12.500459616982337,8.147936524112698,8.576602394074856
0.888,6.673618111881471,-5.415898211620081,-4.011214192610243,-5.783001440417123,-3.3531051935510465,11.468063068807348,4.769438729137253,7.337861009995409
0.892,1.3058397233820873,-10.704410132600719,-9.243007428882578,-12.221231377246083,-11.237657624606967,9.617321083753012,1.5999671801723423,6.505720420150606
0.896,-2.7343110231425074,-14.038446440442538,-13.318260301219475,-17.280406675517668,-17.545404973522558,7.454717019306048,-0.23075584413546135,6.819121603691801
0.9,-4.588309991487852,-14.514795082100084,-15.13154107135614,-19.821879891622448,-20.750815870200515,5.400442485026039,-0.09758374325750196,8.430160515600654
0.904,-4.383304786103174,-12.479505774352267,-14.358520438396809,-19.688516839308406,-20.443459261853302,3.5236974153676677,1.525082809127566,10.495422054203807
0.908,-3.2201983503396816,-9.42684007580835,-11.865367572306397,-17.857653988098587,-17.65455506563146,1.4475418973809022,2.9541640663482536,11.256204583840226
0.912,-2.686150175474767,-7.304003987504457,-9.447613050575798,-16.043833202217,-14.467044360263756,-1.4630386612113586,1.909811198413049,8.720810719193
0.916,-4.07518149307182,-7.533679382403044,-8.964503202911722,-15.891465472347061,-13.034852309996943,-5.6789460325580094,-3.33958993421031,1.70205715772338
0.92,-7.6708530616988675,-10.25209144769971,-11.284263205640093,-18.12794851965061,-14.476191759298908,-11.065660551536286,-12.83260043639676,-9.301252574009245
0.924,-12.437930266159105,-14.15340325729184,-15.653927610501535,-22.107508106197724,-18.22168246429944,-16.678714227246566,-24.42911104050195,-21.88323680513145
0.928,-16.341111765751926,-17.051097722299307,-19.897901380867566,-26.027125206664625,-22.195704750301157,-20.976292898934766,-34.36942253951415,-32.40645858126838
0.932,-17.201949134282906,-16.903898909966678,-21.390850435346074,-27.74272659921379,-23.771748462215132,-22.416230534339327,-38.7272419699037,-37.347718517996796
0.936,-13.707631186830465,-12.787082957529115,-18.346845097568576,-25.795643305166863,-21.039259004301773,-20.158543469435546,-35.117278768564745,-34.71475676196426
0.9400000000000001,-6.095900182580131,-5.3299029201309995,-10.734359791995564,-20.130983815702,-13.753137740661046,-14.51779408393365,-23.809453232161932,-24.876314682271875
0.9440000000000001,3.833570758265292,3.583313070682354,-0.3564855225711976,-12.155733128894482,-3.5064946546628066,-6.911397826063569,-7.693162091655891,-10.417464108851714
0.9480000000000001,13.404580807272351,11.665527695812331,9.930731752074127,-4.1179042966601065,6.930142504038878,0.6942003936899119,8.919367551742056,4.898267093971663
0.9520000000000001,20.123104159313776,17.178354340678993,17.446775691865625,1.8702592145693617,14.759301434809961,6.564604658268987,22.06975670730669,17.550623194403745
0.9560000000000001,22.618086429836268,19.5185288025421,20.718264675669868,4.659281235267417,18.235273532904653,9.820345936131982,29.621671666776713,25.41024327702217
0.96,21.039495932530848,19.196600703815825,19.85381103683377,4.361886487646332,17.196671932595283,10.611560035123603,31.767585190912207,28.158932558302787
0.964,16.78017392233375,17.31365635648502,16.162142838230643,2.0457007157269453,12.884002516954094,9.813625261157616,30.421187800864047,26.917527316699065
0.968,11.742645761072037,14.908187700037384,11.336865357264953,-0.9188049404728318,7.251317497863578,8.467540166867657,27.935236731062915,23.41636469413301
0.972,7.548399566440846,12.53743185456991,6.707509768575198,-3.4625515651995684,2.16364248240947,7.283843595862691,25.90212267595048,19.18942028925591
0.976,5.05413664749193,10.269392976630447,2.899644348497449,-5.0918112332162995,-1.1706943844618358,6.455607270387661,24.62786825676649,15.147809597878776
0.98,4.311816091405739,7.981965381161537,-0.024671672647914367,-5.784724932064997,-2.372504817627755,5.805344422338448,23.452683861177448,11.602950776690847
0.984,4.8622580589259865,5.688734468395355,-2.1907100643444903,-5.702573392785276,-1.7376264650306439,5.099658967280741,21.58018877563584,8.551061023228742
0.988,6.121286561747959,3.649794576368553,-3.6219390125506297,-4.964871160633805,0.06108681455486842,4.3016170781542575,18.83379062793412,5.940012279921842
0.992,7.6052013884278615,2.1952214883188663,-4.209624804594646,-3.6503060502578863,2.2437486747076547,3.5969917730618537,15.874891018966627,3.7431122655334192
0.996,8.934156031356444,1.4180374871060035,-3.913161625440866,-1.975150259919391,4.099283152857253,3.20931122138225,13.775168766751653,1.8634773650885208
1.0,9.732435548202373,0.9878394415635947,-2.950040084982442,-0.41933980940597415,5.103397397248935,3.1807738164736676,13.293903209116914,0.043729764645913605
1.004,9.609045838620261,0.26117885950375186,-1.7882500454629735,0.3685154381454341,5.010265817694308,3.3083499559789864,14.33784828021163,-2.064910233679253
1.008,8.298664520458772,-1.3509973702766205,-0.908679292666998,-0.10952481434854988,3.914169517752693,3.2920962385041,15.955161845832569,-4.660443318120784
1.012,5.8787460851419135,-3.985912809853172,-0.48829877820191125,-1.8412536757214708,2.2397772747808014,2.9820275725106633,16.887561326556938,-7.528371914923436
1.016,2.8979217789346112,-7.152670991501535,-0.2639619480594404,-4.17968536856309,0.6115796750303462,2.5418536354788652,16.30864328831444,-9.971106607297203
1.02,0.24519650114542513,-9.93190437319358,0.30088555284081187,-6.099053152436385,-0.3782084986038785,2.38377393952729,14.306438920776744,-11.039499926752093
1.024,-1.2309998046983397,-11.45261401838959,1.6075523802663145,-6.737693582797749,-0.42211923568238197,2.894968816877289,11.808732279628238,-9.995915098101994
1.028,-1.163109448086486,-11.371885531293444,3.5271873934161633,-5.921574672576586,0.35791806833414497,4.128296100064357,10.00430832573807,-6.7698279022389265
1.032,0.08701755531137301,-10.079621470247336,5.311038463178866,-4.3311019176719645,1.4653910053251642,5.66700256866915,9.625524195983191,-2.129577012250805
1.036,1.549599743990922,-8.492850745347223,5.897416620583113,-3.1665749851472893,2.255447558556966,6.77682219096635,10.506304656607302,2.555835222065448
1.04,2.118068232972483,-7.552707632656576,4.5014625149224115,-3.456543300510295,2.2338875738954282,6.782142707937938,11.69981644480687,5.8719853241469995
1.044,1.149142434968054,-7.697639808799261,1.1491654795913573,-5.399921719596335,1.273623765530754,5.463615576945614,12.056344307804432,6.9627638874169495
1.048,-1.1272927098390193,-8.606207886150244,-3.1673426848379074,-8.134294226178033,-0.35277103993856684,3.247656059408321,10.908240316653519,5.88881702453067
1.052,-3.6394331657089274,-9.36694936573349,-6.841357124652578,-10.101527214311503,-2.1224963136373454,1.0528709642263003,8.45942709630745,3.5617614494227974
1.056,-4.956430456991204,-8.975088730694885,-8.373916222273648,-9.852123750309996,-3.5029687328739194,-0.13759314877592432,5.647977273417245,1.3028624482362585
1.06,-3.9889431869002205,-6.89570460005349,-7.079473381270056,-6.846843267028024,-4.153494966447625,0.24853866358597276,3.5859588531725755,0.2564561597071302
1.064,-0.5577659936903638,-3.3925671923194063,-3.4381823006604555,-1.8173141531819537,-4.01706698264079,2.0997173336849575,2.8963159460370322,0.9269954001253535
1.068,4.4567927009794275,0.5546211493770095,1.0944107114997443,3.5232068787339674,-3.287745245213009,4.68370763087135,3.3459146526728243,3.0396539742574022
1.072,9.472896311666503,3.706656328368899,4.745299209701562,7.292487877565187,-2.2863531108921835,6.999079174736194,3.9951315670069016,5.746642471693108
1.076,12.89130660170754,5.159955714238238,6.205940343145333,8.340449431790038,-1.3149068832815194,8.226888424729568,3.761685046562419,8.033055407913146
1.08,13.75595400408577,4.766635878675361,5.173008079914664,6.766387917479205,-0.5538144298400116,8.0469085822503,2.079603235106773,9.117287430016566
1.084,12.091904181842764,3.1788854017964496,2.389386460916489,3.7947727404051275,-0.03081308203545685,6.697925011454414,-0.7406818997603004,8.690088622844442
1.088,8.790159593706472,1.4980084303651815,-0.8069383125785441,1.0892887276280447,0.34041580752888345,4.796481428548027,-3.6510670115587747,6.93594506363303
1.092,5.117114989100344,0.6984906764049512,-3.1647025106740547,-0.11505394587924478,0.6845467956863813,3.0251395198354274,-5.421578168463922,4.387060165957617
1.096,2.11552524943368,1.1209209230786943,-4.109639492127519,0.37993903703688225,1.0730698381313721,1.844763702512112,-5.332015252489139,1.6923531342730689
1.1,0.20530525093289675,2.295013668265264,-3.930457683841414,1.7108606153849788,1.465236564088491,1.3491712154690365,-3.590854337352307,-0.5892133702020064
1.104,-0.8483859289649969,3.184193426736309,-3.5010855844657516,2.4922443842477056,1.7077098238339188,1.2947296838343065,-1.2533987967739137,-2.1194188498518267
1.108,-1.6349020734884352,2.727143074104789,-3.7226694369728643,1.5975882011650557,1.6052945810198453,1.2642010830898116,0.3044141965200269,-2.832548393405238
1.112,-2.6696833702614917,0.402222673002504,-4.97765463569675,-1.2264498275460727,1.0491798681321667,0.8702057939436258,0.08903980486217533,-2.9129634642005846
1.116,-4.077126694514927,-3.463026915698351,-6.905176820918349,-5.222933423263376,0.12867283574848543,-0.08435462398652205,-2.017707852637648,-2.717883927277469
1.12,-5.554634243707095,-7.806253028226932,-8.6038434854804,-9.014058791703746,-0.8456774479424842,-1.5367949439895234,-5.219836412047522,-2.6610007724727014
1.124,-6.608008726726279,-11.309512687434797,-9.156056803691087,-11.300175353192351,-1.4509849973597677,-3.2005924409380135,-8.23198864581706,-3.0744647784567376
1.1280000000000001,-6.892148063871964,-13.002184288373543,-8.18458877357674,-11.489455397326427,-1.3673161993145768,-4.679271098897558,-9.934432977163466,-4.082431410366487
1.1320000000000001,-6.443574682123284,-12.68806423801602,-6.12051974145483,-9.935333386403224,-0.5943024787258375,-5.619577604114402,-9.912572583045193,-5.5522643568068615
1.1360000000000001,-5.653111686785722,-10.972878374975812,-4.0261231809204565,-7.680489560081579,0.47043230672037684,-5.843374335213353,-8.616004831206247,-7.147325251734012
1.1400000000000001,-5.016997696711938,-8.902717778237987,-3.033285645837964,-5.869719363175234,1.1786484315550059,-5.411750560534998,-7.067682629771284,-8.464581574099178
1.1440000000000001,-4.817252180273537,-7.41791093863522,-3.7108117637778744,-5.157270129332,0.9599551238992854,-4.587927720866411,-6.313099730357841,-9.209230727852738
1.1480000000000001,-4.925498209076614,-6.914328286596474,-5.723958647241233,-5.423217400362146,-0.3376226260499875,-3.7107019547192674,-6.910293817345234,-9.328697891801438
1.1520000000000001,-4.862570052932326,-7.140318021069055,-7.983143061782201,-5.931577904535892,-2.286115309229414,-3.0436572280161487,-8.705284837428568,-9.037374906665612
1.156,-4.100903759030318,-7.457397324611766,-9.230080098936265,-5.83115387856745,-4.014464504520999,-2.678608254381041,-10.996921453872439,-8.717089648981842
1.16,-2.4363142033851313,-7.287585075687865,-8.73278228250507,-4.693667930046349,-4.607036112545988,-2.5410986822051607,-12.942407671461625,-8.740743510493935
1.164,-0.20008395053457395,-6.4739822470597845,-6.7198740641149834,-2.794856604004416,-3.5801506053892753,-2.4844834257583326,-13.97671879437618,-9.309457211747809
1.168,1.8207511128743734,-5.3584557913801625,-4.30312192419554,-0.9847785227256596,-1.185649716201531,-2.403965974330832,-14.038670231806591,-10.380223055083862
1.172,2.7230311792686286,-4.565903291055578,-2.9021303612253493,-0.22002273694739038,1.641879099740714,-2.3000882409101804,-13.501068135600674,-11.715445061252163
1.176,1.9239564404086673,-4.633473827360699,-3.4916892426493433,-1.029036828265253,3.700983261394465,-2.2495019409923795,-12.88674720504666,-13.015626265568315
1.18,-0.5363951478577755,-5.719742418641699,-6.061809901507898,-3.200982875248794,4.107470425849717,-2.312902563650523,-12.548968822521289,-14.055799504335111
1.184,-3.976138240801877,-7.547776385413727,-9.597330749888327,-5.873329386189409,2.7424339288126616,-2.4507422325533437,-12.501429056900044,-14.754577330235703
1.188,-7.3620375154873,-9.599865181842764,-12.603600158055286,-7.981158551181053,0.30718605735611115,-2.522477102387356,-12.47571746342157,-15.15891851662687
1.192,-9.763317255360374,-11.414354569368314,-13.862367063388882,-8.805982822720868,-2.03505481977943,-2.386651426814945,-12.13137960636121,-15.371513999961351
1.196,-10.726681541136536,-12.778801524768896,-13.02549727408838,-8.313882923934077,-3.23818493990674,-2.0292447631501007,-11.295526227953626,-15.474364684190832
1.2,-10.407660511833372,-13.729539386619738,-10.727213554153469,-7.0968320759334516,-2.8683177746311888,-1.6296864818522467,-10.078512171785608,-15.499845859448424
1.204,-9.406947279682086,-14.38186973779004,-8.189145195302274,-5.966363266586383,-1.252190409740571,-1.493919865794868,-8.814971203691488,-15.450936377287283
1.208,-8.426649964572615,-14.737829282491777,-6.5755119797126005,-5.456076100662212,0.7809986053564395,-1.8728931252636865,-7.87838559608902,-15.338419909308538
1.212,-7.937818881689993,-14.627128136328565,-6.449765778052518,-5.525388899949018,2.403888799759694,-2.7746245288678484,-7.473175339276007,-15.189733187671631
1.216,-8.012063088876932,-13.80990423164135,-7.622067304006213,-5.632232474581988,3.252315607729445,-3.896583369881525,-7.5433550513648955,-15.01422871964302
1.22,-8.369927796313853,-12.165475296304546,-9.393749192907265,-5.112353698865545,3.5892649878584275,-4.739946494163426,-7.818910572864558,-14.750561853735089
1.224,-8.583284613286747,-9.818582659920976,-11.004472458621903,-3.634980244899774,4.080235483035026,-4.861904838057578,-7.973452982477072,-14.247618400098467
1.228,-8.309534781391333,-7.104972590173309,-12.002070936618919,-1.4483885541353203,5.316178558618999,-4.119642324508484,-7.808041586308271,-13.307757526048437
1.232,-7.433079636695645,-4.400049004142801,-12.324164618082001,0.7422111682679233,7.376704445323061,-2.756216482801876,-7.349409626832163,-11.789737784932694
1.236,-6.055594578037962,-1.9191097901445697,-12.115881113346289,2.182576811915659,9.698759615573394,-1.272723481068807,-6.822783488983289,-9.71659755367911
1.24,-4.380561874075289,0.37047467479097707,-11.439947170680654,2.517314413477785,11.351381427706102,-0.15450854632710342,-6.504592087302958,-7.312086642143608
1.244,-2.580837158402179,2.662493116395175,-10.133846551135054,1.9885633704770829,11.55718380389384,0.3822507560138644,-6.547843790956872,-4.938964020605374
1.248,-0.7291250988289772,5.104321842903015,-7.931559136175245,1.2598150016993408,10.156912634416539,0.4763091163895701,-6.878231040478898,-2.9515001661733633
1.252,1.1761140556437568,7.609102414874386,-4.744095522357733,0.9860638573189693,7.754962173732321,0.4884188251994517,-7.211519400832467,-1.5370611161029029
1.256,3.127183174719433,9.821761873066713,-0.9137831415651385,1.3942428306468795,5.441224043492118,0.7374669413234645,-7.204021576542949,-0.6368754516961848
1.26,5.019582515632801,11.255597504854592,2.763752785031536,2.141457985865644,4.235108861176812,1.2704530830455876,-6.649206905775849,0.005653636933125039
1.264,6.627127276625672,11.517027933663588,5.300746407378051,2.548122799602603,4.543798238375518,1.8125780301937588,-5.633724448451563,0.6946957091315245
1.268,7.660902292161261,10.475328096347106,5.940279910801412,2.054211832377356,5.919724260778905,1.9386887400562827,-4.56388901709614,1.6148651026946246
1.272,7.87530172942029,8.282481480772308,4.518196147122713,0.6116220231791933,7.259757240188922,1.3505192342040664,-4.017723708497784,2.73627487685945
1.276,7.172088042496962,5.272096425415642,1.5566626566936206,-1.2458459937754371,7.351642100680118,0.08860076466332334,-4.489748024397734,3.842578255359985
1.28,5.656874623730259,1.8264263482118015,-1.9472713089691867,-2.702513678678633,5.488745779247806,-1.4487145449789984,-6.128483556941839,4.659363960608596
1.284,3.618636208008853,-1.6920265747318104,-4.934226122913863,-3.164301798015563,1.8318296717529812,-2.691686883845758,-8.604889283622619,5.002326111071884
1.288,1.4347813751678844,-4.924545054635097,-6.693907624665364,-2.672613161550232,-2.6646683563445652,-3.1825021389169184,-11.195394284116666,4.864979727148997
1.292,-0.556697501424583,-7.481166060392361,-7.072270966135474,-1.958679600288578,-6.713062919082265,-2.7951112738055004,-13.051852112319914,4.399109014822009
1.296,-2.163710165288115,-8.96916534137631,-6.433901955002879,-2.1005428489290514,-9.303582223334843,-1.77612788600368,-13.569437517782575,3.8028197611668366
1.3,-3.38947362795561,-9.13864339106713,-5.428718614936161,-3.9556138781501424,-10.149141260613582,-0.6056099584233439,-12.669062743896031,3.1939249396999045
1.304,-4.385560544629175,-8.066977537645432,-4.701698435860093,-7.6714629901385685,-9.749172659502227,0.2376510724783465,-10.846786366331138,2.548617071969689
1.308,-5.325146158798397,-6.242664124917095,-4.680380778690151,-12.54153025448602,-9.061538860921065,0.482947359305673,-8.95921779082851,1.7442828453671713
1.312,-6.265341675154351,-4.443551206479055,-5.482335951928538,-17.271645402256105,-8.963471930650694,0.1422850180573506,-7.8288308089944865,0.6854785742559479
1.316,-7.064543032931654,-3.404537331125308,-6.939844856182115,-20.51998956703224,-9.781708245416258,-0.5543061802186957,-7.8691037223834055,-0.5640317880946772
1.32,-7.41127105917751,-3.4376602928048214,-8.683985034814455,-21.437009996367507,-11.119181132595006,-1.302046394730401,-8.90196644701617,-1.7277518512687262
1.324,-6.96458374768137,-4.234801462754112,-10.265514504041576,-19.960652324849253,-12.066993999643586,-1.8584963311100666,-10.268681090854674,-2.3897699074444887
1.328,-5.542160011328944,-4.994315481276044,-11.291176561951762,-16.765313651560312,-11.688932957002592,-2.1112058133942804,-11.17728189367321,-2.166910527885468
1.332,-3.267516802849054,-4.845660183838992,-11.543679015219668,-12.926640403999201,-9.530074449153403,-2.078587058839221,-11.105114481376324,-0.9082005444831984
1.336,-0.5990574265868537,-3.356118557912982,-11.081640375309743,-9.497933156641675,-5.904062000239465,-1.8775077171675862,-10.061139992825641,1.17929770746966
1.34,1.794743241608504,-0.8288368780134165,-10.248183168023797,-7.174041355280428,-1.811232986852989,-1.6866723061872158,-8.555236424193733,3.552584366507107
1.344,3.2697276818023724,1.7914598480511668,-9.566131587549021,-6.155220567293002,1.4670971085328315,-1.7129161300014637,-7.321152593629302,5.506344900901956
1.348,3.449127364896997,3.3746746565361643,-9.54086992197818,-6.213908298643684,2.9029536970295546,-2.133893870586042,-6.955027124691118,6.437421449825534
1.352,2.3624537749174435,3.1871943149565096,-10.424962268423215,-6.877238555037369,2.14472787241544,-3.0195684116639168,-7.633330235335562,6.085878281603042
1.356,0.43055413963543493,1.2934863360077014,-12.076949275469815,-7.631870663134566,-0.35611149059913827,-4.253619161203742,-9.07244149154128,4.646043234458226
1.36,-1.7094718650951157,-1.4626935338099738,-13.988993428001411,-8.083645317227152,-3.558947656359459,-5.514542375225496,-10.706757216416595,2.6930512565873572
1.364,-3.4514056776434137,-3.882751329957539,-15.493505048410642,-8.043789385208926,-6.278224544822169,-6.357203469852741,-11.972422320745828,0.9516568884416596
1.368,-4.412803859835877,-5.005038798000603,-16.06495784048675,-7.531992033242827,-7.658530713631276,-6.372839916138878,-12.543958015681019,0.015334863658310827
1.372,-4.5105837643851245,-4.555925018485405,-15.552689315320777,-6.717329383426281,-7.474406837491207,-5.372852786642465,-12.397541278736284,0.133962018391526
1.3760000000000001,-3.9100040063975574,-3.0205595012045414,-14.249075705072235,-5.832194806790619,-6.13831981560395,-3.4987201082764514,-11.722382669867747,1.1503499242231874
1.3800000000000001,-2.904231105865785,-1.33191210661865,-12.753628485945338,-5.079454436387916,-4.443800700910827,-1.1982983342453082,-10.758659153529539,2.6038808842747043
1.3840000000000001,-1.7945511171857866,-0.35784858856081403,-11.701030561971056,-4.566138655986249,-3.1829978962744447,0.9361448376442412,-9.683123524892132,3.9368158169129392
1.3880000000000001,-0.8209911595712536,-0.47210784192085065,-11.495279809386023,-4.29428366740514,-2.826766978955274,2.3996616644275672,-8.606102162881328,4.696222974533595
1.3920000000000001,-0.15680466002099536,-1.4280131450143037,-12.158858470350125,-4.196602125752776,-3.3857511209806113,2.9584331050188566,-7.629983027492245,4.6563197187553875
1.3960000000000001,0.07663947179748165,-2.562921073148379,-13.367815766658588,-4.195373335941644,-4.480735957816378,2.7047948133194795,-6.895171694447923,3.832976006842687
1.4000000000000001,-0.1957660548580984,-3.2033452561860942,-14.617227295013196,-4.24241122876931,-5.554097484287215,1.9567791459437038,-6.550222380288844,2.416532266306571
1.4040000000000001,-0.9747206277831166,-3.0385991764222178,-15.43356233314946,-4.323934017188673,-6.110206603424761,1.073215012035139,-6.652108498033497,0.6820869312450224
1.408,-2.141341873947477,-2.2707688345845862,-15.553243633250947,-4.441102677761561,-5.889940835663729,0.29865611999025043,-7.065506708224863,-1.0675075591841774
1.412,-3.434728152357356,-1.488137055974886,-14.98198290300057,-4.575775922026195,-4.928427465821606,-0.2840920464354242,-7.451225817438051,-2.525039770739728
1.416,-4.495051194775463,-1.3465588132265527,-13.954851563153031,-4.687169830868707,-3.5115131694408306,-0.6929678994414545,-7.3993406864631925,-3.405697811033537
1.42,-4.972648580553488,-2.2377037041933656,-12.812856541380569,-4.735858262030005,-2.071631110445103,-0.9413004713697304,-6.631179264826187,-3.4993644438992852
1.424,-4.662556647052556,-4.102425832577854,-11.860202884040575,-4.721785871806911,-1.0656209257449727,-0.9720028794697146,-5.165002635893329,-2.756747804370981
1.428,-3.6165977855854154,-6.472999383801946,-11.270964152182444,-4.717585238607765,-0.8660344235743214,-0.6829491392079285,-3.351727167284131,-1.3711335298867828
1.432,-2.1555933839388417,-8.700067715628924,-11.050266826450432,-4.843081895757933,-1.6616273255379177,-0.023363745617364984,-1.7232407841450192,0.222684614971286
1.436,-0.756140002980271,-10.233468332956956,-11.073195845923838,-5.204226211321691,-3.3829524269168836,0.9181788454912332,-0.754449407100723,1.4602529925327843
1.44,0.11407329002595157,-10.851956435132566,-11.173712746567308,-5.840401047573586,-5.689467448672886,1.8919281271311148,-0.6593611267606501,1.8469758688126587
1.444,0.15998105441195243,-10.733354682701506,-11.233581300037454,-6.699412063846024,-8.036416681698405,2.569110761913079,-1.3235506600677933,1.167066786107565
1.448,-0.6244585572116819,-10.328838472836722,-11.239213102819797,-7.6511535156351425,-9.829166041493846,2.7060772324345654,-2.406603619453959,-0.3979643018306547
1.452,-1.9646637653247172,-10.136151008900788,-11.26538912325313,-8.534344624145751,-10.631143050039448,2.278692819152174,-3.527837559489436,-2.316699770837751
1.456,-3.430223014616468,-10.463064960271032,-11.403968247900256,-9.206296567272682,-10.334183449619271,1.4994716145057048,-4.429667591217871,-3.915664422758187
1.46,-4.608954500519459,-11.27346867536606,-11.652904973168592,-9.559798390486096,-9.185799800375573,0.7053522430754526,-5.012682489769426,-4.645493618800229
1.464,-5.258716005345833,-12.193069443125545,-11.84040144992308,-9.516437173069551,-7.655073041079289,0.172825326461866,-5.258518346265751,-4.28821053266352
1.468,-5.366885863922567,-12.675180678467495,-11.655113462353016,-9.026678137660909,-6.209734879629117,-0.026908362770131977,-5.128396101736273,-3.0163784839337557
1.472,-5.097136750913165,-12.247202426102259,-10.761362165777626,-8.076978282890368,-5.106334835722681,-0.03980600459653605,-4.513952380217562,-1.2886787161739344
1.476,-4.659858136134336,-10.72359229391111,-8.971986903852187,-6.705871961190002,-4.3013010895025845,-0.10067059341932261,-3.3012575108549242,0.35460076216089764
1.48,-4.185781491294945,-8.300193091248225,-6.376157085887387,-5.003997696200756,-3.5301084312527333,-0.3539576061423366,-1.4990207281635186,1.4992862517394574
1.484,-3.6795705190017522,-5.49139604381201,-3.3472139886285834,-3.087436838645709,-2.509204903705049,-0.7349106195184092,0.6661901545047257,1.9703434288657187
1.488,-3.062905030306791,-2.929342364001709,-0.42766080518197125,-1.0500444366112065,-1.1385819965827082,-0.9806014981300972,2.768731214932081,1.8325391056227396
1.492,-2.2657600740160455,-1.121986830321143,1.8757671783241943,1.0818706382872403,0.42294078923361056,-0.771078941361675,4.340764377519354,1.314063300371064
1.496,-1.3122502864464831,-0.26868088357159436,3.268873552121801,3.3333622662124123,1.844693864341271,0.07966819789080315,5.071903044757171,0.6983039822636323
1.5,-0.34173798902587227,-0.20834154582428788,3.754893154869878,5.706440197940908,2.8106189316939627,1.4929823480831539,4.951268858057703,0.23404050630257345
1.504,0.4503833616175421,-0.5158886987164362,3.598737368693607,8.085435810426054,3.1773742079450127,3.1367251814832775,4.25984131314038,0.08211989400606967
1.508,0.9005487959536183,-0.7064106460874022,3.1819282919283074,10.179207885523045,2.9876077573199327,4.563148054928309,3.40254956105014,0.2821576014610159
1.512,0.9348768233549416,-0.4573961439658394,2.852978437151334,11.575762394318438,2.3403658738080253,5.391211876962267,2.705565478629122,0.7419843274462234
1.516,0.5541276655183474,0.25014060691352924,2.8258918718696755,11.897144050891534,1.2259026853217785,5.427272398863377,2.269082285041499,1.2496167886054002
1.52,-0.2491161549587928,1.1213083438309184,3.161570255482605,10.98196110120601,-0.5355850114399656,4.6702738054858255,1.9713894234097227,1.520156771211509
1.524,-1.549770849425589,1.6790302492948053,3.8076511162396303,8.99075970111895,-3.1623543893026573,3.231468949679069,1.6053320549372154,1.2859597412854518
1.528,-3.454307850875004,1.4921865619987154,4.641636803433214,6.3610708638457965,-6.644777644514331,1.2536794073083009,1.0357500267637736,0.4075366143721837
1.532,-5.9628380091040105,0.40151560435533096,5.512784784000402,3.6363025052142817,-10.516649124061875,-1.1026157551591238,0.30054456690728504,-1.043573985294504
1.536,-8.799650050567754,-1.3484110872172996,6.269604859690686,1.256196211237946,-13.840827314125589,-3.600799683475179,-0.4309655762540876,-2.7806531359334508
1.54,-11.354311664665634,-3.1589486572704093,6.795729672642951,-0.5684476033692583,-15.495889659254038,-5.877978464883149,-1.0001657976025085,-4.397292581395652
1.544,-12.826352920382082,-4.301554496431568,7.068396782003591,-1.8261490825216695,-14.669316346626589,-7.485928664696418,-1.3887830558807552,-5.517168858409211
1.548,-12.54973043969962,-4.233231039285744,7.204197643730856,-2.5637943489289605,-11.319199186285427,-8.040608107393258,-1.751122088900348,-5.929636277034626
1.552,-10.348055254196977,-2.870835817042897,7.465897679322634,-2.7352416104396964,-6.329385701048677,-7.42472056617427,-2.300686085921482,-5.639007466285371
1.556,-6.710285670543598,-0.6819381394852675,8.180374187254909,-2.170866463291193,-1.228510860234059,-5.9167257895303615,-3.1347350349187852,-4.812675575214861
1.56,-2.6533679707100806,1.4698793887220134,9.595497382937854,-0.6896611337955174,2.42888286457581,-4.137573710042352,-4.097822729677138,-3.6682618182383715
1.564,0.7022679328408796,2.6843704058958626,11.739412663607478,1.7167568184098947,3.7308588390160424,-2.797165995648567,-4.783904249191182,-2.3711149924860626
1.568,2.6466917868190882,2.4328972618118976,14.349604810306214,4.750926290891771,2.7830367739620723,-2.34635416920075,-4.710833415239479,-1.003259513476522
1.572,3.1989075374840947,0.8099038959308231,16.943088588400354,7.844247260098589,0.6054170699806196,-2.7293065125649103,-3.561977959601818,0.39748757303601245
1.576,3.040310717381107,-1.503329739885077,18.989985154754834,10.358356561596977,-1.4035841951753065,-3.3947819134510713,-1.3866761900200135,1.7638841006664567
1.58,3.080646752965158,-3.559199734183621,20.127093689947444,11.85644638691366,-2.155283808994911,-3.589590461512148,1.3755569423755318,2.964663635942722
1.584,3.892326863939944,-4.589324724418374,20.30391122356902,12.286116542142063,-1.3572537452257314,-2.7887532162411555,4.069901544328375,3.846606872883223
1.588,5.35097162712192,-4.3480150305015455,19.779050035370318,11.963827529084503,0.4342367577871271,-1.0212559576988247,6.1012638687368055,4.331755198232842
1.592,6.700229955483275,-3.1799706750845482,18.986858495513445,11.385878338284172,2.1927622275270204,1.0948434190262062,7.193676236136043,4.501225628233766
1.596,7.020075954352115,-1.7793148935413676,18.3198029550813,10.968947725049642,2.9958517963409523,2.641671032788653,7.475090252846432,4.578680953575528
1.6,5.814652186008605,-0.7920798936287735,17.95982611455554,10.87138893402079,2.4907048522649142,2.8648083910251785,7.368531923177859,4.818056370767787
1.604,3.3711824442722795,-0.4745632056356638,17.836440264554568,10.991428659761757,1.0198783136037937,1.5589328905323083,7.3609503032750885,5.352468355555334
1.608,0.6815705330356883,-0.5839862036830727,17.705758818737987,11.116731669002652,-0.6238121996404935,-0.8155058868740772,7.770648197511848,6.103212306688332
1.612,-1.0565748553026098,-0.5554600012915084,17.320280046372613,11.122197229188554,-1.6402372597361734,-3.350462191970069,8.650971561485356,6.829135307970151
1.616,-1.0687118843752872,0.16020587160556654,16.576180618940924,11.079252582173147,-1.6019276610298907,-5.12037068198323,9.84290090493979,7.296481656276758
1.62,0.6034218089584573,1.7975192161412994,15.590484270754043,11.227537157655114,-0.5768489420056397,-5.585991504468845,11.142347006156838,7.470168882522648
1.624,3.1663477005458645,4.175202607953794,14.67142401902207,11.841022887291583,1.025036968434157,-4.773361997687843,12.449503061612418,7.592691505277935
1.6280000000000001,5.556214884739096,6.824694672412819,14.18179786209443,13.06979101744529,2.737186703569802,-3.1519126602187013,13.788563504014505,8.076227174679172
1.6320000000000001,7.0239201124574935,9.224033651064234,14.362401327454926,14.844786063448254,4.254425067018528,-1.323091073333564,15.199494492875818,9.239518403761364
1.6360000000000001,7.483229777110652,10.999823253224871,15.19127167823994,16.88233978512913,5.482071908337737,0.283288051967892,16.57380041285453,11.040037562619133
1.6400000000000001,7.436488849288393,11.994866768912203,16.3523482725157,18.779281999230612,6.445689823748287,1.5443427948017696,17.574008187814933,12.988285722551254
1.6440000000000001,7.538657236126809,12.196965519229908,17.328749794433094,20.128086935570472,7.160850248056885,2.557890120992351,17.72886136295279,14.32032073098645
1.6480000000000001,8.111815347988927,11.641239638270267,17.588075367072122,20.610599041977643,7.589564316557535,3.436727065607684,16.679967015345174,14.37552718057728
1.6520000000000001,8.921922536925603,10.380037550331174,16.809619601939616,20.068719928229413,7.7229258437441475,4.134859820098305,14.46585395211995,12.986594152597338
1.6560000000000001,9.339207014060003,8.544863381093698,15.026044692886956,18.539207252845117,7.691180342631084,4.416701220979011,11.639545127242778,10.635829884779385
1.6600000000000001,8.763764236881565,6.422816894455475,12.609044872753877,16.258783220559774,7.77341012473603,3.989290982932829,9.117714787893128,8.26392282839262
1.6640000000000001,7.046872163274671,4.451006494283398,10.104168220698348,13.639649867716429,8.258258713755072,2.7125231331132866,7.801460215371314,6.806533490514581
1.668,4.638585371570004,3.0812194205069456,7.980451529045862,11.192906399530266,9.211432475075064,0.7522532825820338,8.13450825401488,6.694764983758754
1.672,2.359216884961456,2.5624760078958477,6.438789243732236,9.403290602897828,10.30593556921342,-1.4216345964191142,9.859808745187527,7.613254620174347
1.676,0.962328771606737,2.798475020086796,5.371796731498611,8.588012200051832,10.881476341006625,-3.188474814163766,12.118680656635384,8.666009766059474
1.68,0.7561969670854216,3.3826921532363077,4.508912964890408,8.800185871557531,10.25798084332856,-4.0140808522760265,13.876717492240786,8.87634934946686
1.684,1.5037751433845106,3.831258179097559,3.667110418036679,9.831858594241012,8.165901343100206,-3.660558170929141,14.452568150567206,7.744127684567706
1.688,2.636121019054957,3.8810575627380386,2.9271707040490185,11.304021312794857,5.015877536329278,-2.2709628850966954,13.843063794609806,5.529344897671005
1.692,3.604850547585623,3.645671738544526,2.613796328613015,12.795872664684387,1.8068761618106404,-0.3142977940060918,12.670795871730892,3.088529910748335
1.696,4.1632762434759245,3.5421741031191702,3.0752000506700092,13.957540454989159,-0.31442571454574697,1.58920660206556,11.77119829818332,1.3608133174363122
1.7,4.405677097002493,4.0052988236755755,4.400037119774365,14.5717906698315,-0.6237752760530801,2.889746374703135,11.675412189409446,0.8061305986998306
1.704,4.58516578054348,5.18077179350261,6.269599585889043,14.572087654972487,0.8224693507871148,3.2919396301589368,12.303281312658097,1.1404430198044935
1.708,4.892058496437509,6.822453633757021,8.077433443235364,14.05559063575544,3.270121610246984,2.860102686305371,13.055223938025541,1.552163677322575
1.712,5.350197385166903,8.461555376617145,9.289513341223252,13.310522747099963,5.749273360222439,2.001224696581188,13.264897366134615,1.2846756369803796
1.716,5.895144252610867,9.746801135010148,9.809900209912415,12.80382050882855,7.659616856678309,1.3274202537321305,12.691590374565452,0.20998912251106505
1.72,6.526961472931296,10.703750082418434,10.110303076412,13.070537947381805,9.074833977944817,1.4114179307089678,11.727954615428091,-0.994042141533167
1.724,7.369599725736635,11.70319515984248,10.983649171301284,14.481556607797145,10.54964858500675,2.501380174904291,11.13875994826324,-1.2389627515509263
1.728,8.545039380933854,13.112839085593977,12.987787248448868,16.946968144450604,12.50874029157064,4.320688607339343,11.445666571271357,0.18521662513048973
1.732,9.909938007324028,14.828157112927308,15.908858331589652,19.720423607296528,14.611439273344,6.057334314091484,12.349472953417248,2.895535779484044
1.736,10.859777292961947,16.022677421337516,18.58822728243222,21.46961997426648,15.541426327399854,6.594486868591142,12.573694516289105,5.2452075345235425
1.74,10.414888868567308,15.364725953395826,19.312000410094093,20.70039324733463,13.46182042494399,4.939017757608887,10.339168672940122,4.914319291717047
1.744,7.628152941157152,11.674221135216717,16.639034396387636,16.42123035960533,6.988658885659408,0.6876100386959951,4.297399949820534,0.05229156121286205
1.748,2.163433769048619,4.699516594009806,10.258887351789962,8.756688172523269,-3.834366872631568,-5.671050652019046,-5.552594477146144,-9.597268814925517
1.752,-5.260683774654892,-4.4371006544931095,1.4229637981359136,-0.8121432967299453,-17.127699930775616,-12.77442363581132,-17.465556299102722,-22.200821352330557
1.756,-12.88084171120993,-13.448564688028343,-7.366998183243735,-9.801386892862833,-29.65668033414986,-18.765981949071325,-28.379365547781408,-34.315714625555486
1.76,-18.42847019456224,-19.72249503648623,-13.302194822465783,-15.58040542074794,-38.03797429355381,-21.906338014016363,-35.02073281634534,-42.18067217296981
1.764,-20.00548102156575,-21.41945664791779,-14.421007577836926,-16.384186326266597,-40.106285056606275,-21.187316727436226,-35.20852584272788,-43.24085408038768
1.768,-16.888588244731544,-18.282420313146243,-10.429973596767605,-12.027356812516189,-35.77764186992701,-16.696202071160517,-28.755874161470363,-37.183206186159076
1.772,-9.862759947584241,-11.730343289086845,-2.7738808310764016,-3.9613384945763066,-26.987319670876175,-9.577266038391198,-17.528534596474962,-25.978866368989358
1.776,-0.9119815862197922,-4.176851853630183,6.039881617442308,5.339657259138881,-16.763956731054677,-1.6143094468228565,-4.680821545104914,-12.952368845950645
1.78,7.571841905560129,2.062943640476078,13.528385613158257,13.370487969410755,-7.927706506379052,5.37805515204342,6.576884602734852,-1.3591291139177422
1.784,13.684992739099679,5.730054715023236,18.20487160545831,18.5001756474688,-2.047055222598548,10.097806706793564,14.116787326053679,6.831994425024896
1.788,16.606923519979254,6.978325185439806,19.980043471912325,20.385996440705124,0.8834521152106514,12.047013380644662,17.44030515388859,11.392039608947593
1.792,16.65004222227625,6.988166447859385,19.883417284819927,19.7699940262876,1.9954864361864324,11.504618813996702,17.493765078642465,13.409826269098213
1.796,14.843269329116898,7.130636195570524,19.31791978480065,17.847263428695225,2.6738240389612047,9.256790812096522,15.92439768793281,14.329569791334652
1.8,12.329290527114843,8.168593780069795,19.290752588374,15.597223343269384,3.7775374508426025,6.242629386479516,14.20642844679564,15.035506625105501
1.804,9.897389160806856,9.920978410780453,20.007651374986388,13.413515859645504,5.342574172383886,3.263774844488596,13.055755494412868,15.469039869430532
1.808,7.854192100890216,11.518805599255206,20.953715779286593,11.153118470135668,6.808147230051489,0.8411778442355198,12.342560370919298,14.913288748290245
1.812,6.192265718943231,12.028726251624441,21.3522102929811,8.497713470901264,7.533345359419382,-0.7858098594784058,11.468065192303182,12.701759334040364
1.816,4.869618099491906,11.04789418562539,20.677465900221343,5.338965326925919,7.242880927828638,-1.5835087802162313,9.912476415680208,8.869181673821954
1.82,3.9752303309358026,8.91821119745844,18.94133862213397,1.950622808611429,6.1538772957624115,-1.6386449645631078,7.659096420356646,4.338747947170056
1.824,3.67682560803597,6.468867340835017,16.62425134572446,-1.1203286872215377,4.774702019276929,-1.1123873680796428,5.27314961778926,0.5370218067247512
1.828,4.030482532218091,4.4981776517866345,14.341245230697801,-3.3342769552130695,3.558302111907763,-0.21498344264090408,3.6096281389448897,-1.3191311772855592
1.832,4.822728292757032,3.3215833972903157,12.489537275385686,-4.415217629661655,2.643569287457798,0.8252898757297582,3.339922906085646,-0.8463574709549544
1.836,5.585446373201334,2.6621080924961653,11.06277356238948,-4.4515793972274995,1.8240258165580858,1.8045074346496754,4.530481541387983,1.3190103483672764
1.84,5.811540534066822,1.920072312300154,9.7328266790628,-3.801634695682922,0.7281070379300658,2.5912726209868744,6.519796520902215,3.871811725031332
1.844,5.247809669681925,0.6206662249544914,8.125561542827942,-2.8969436982627697,-0.9325845662816823,3.1449314286107986,8.162978317479935,5.503572732688427
1.848,4.075250586995473,-1.257576094075099,6.095280822248757,-2.087836608100602,-3.210535849695007,3.494737010406897,8.327027673925413,5.5027895310322315
1.852,2.847130393781126,-3.2773780063703617,3.855680383951169,-1.5886826778078467,-5.918964459963049,3.694726098866595,6.440276388678153,3.99506204544729
1.856,2.218795559045119,-4.829728293078699,1.8858202747148312,-1.50992790733654,-8.733757220052228,3.783601334289108,2.8065697948160535,1.732679396157444
1.86,2.606451695033437,-5.5233749384509085,0.6822551237860974,-1.8936629668950136,-11.305404825853756,3.7780607321266277,-1.4700050324434262,-0.39599783158684443
1.864,3.9468460866363424,-5.424987263559151,0.5051928369323333,-2.702868874545205,-13.315700366162162,3.6867083530135076,-4.936903733060251,-1.8392099483720397
1.868,5.697889134784533,-4.9981510007201315,1.2370734112437987,-3.788659185001286,-14.50037242485119,3.528057117507407,-6.434978868468197,-2.5823909745026903
1.872,7.07254774489596,-4.799116071621517,2.4415832404589732,-4.890338284670714,-14.682971620789111,3.3317294435517306,-5.622108173436732,-3.005679461784447
1.8760000000000001,7.399739360402386,-5.110920982580729,3.567307900996421,-5.719387566875512,-13.84912237030666,3.120254088784171,-3.1365126475621614,-3.5323787603210812
1.8800000000000001,6.4241640356995156,-5.757026650559438,4.187989286300201,-6.111817073403751,-12.227794710235052,2.886382417203172,-0.2937726984819702,-4.308377367542506
1.8840000000000001,4.403619037134165,-6.198782597490515,4.16512743695846,-6.157435935821937,-10.287847213354699,2.5860071855732722,1.5469714402881363,-5.1073760814511955
1.8880000000000001,1.9685222146463968,-5.850877738762278,3.6517378220493804,-6.207822373916629,-8.607217044963921,2.161984851247751,1.628009061490752,-5.501201237249609
1.8920000000000001,-0.1757748095775149,-4.427287444163698,2.970028247214227,-6.711167372386932,-7.634788331540207,1.589424478952983,0.15120692885741605,-5.1619194272141495
1.8960000000000001,-1.5603074641912507,-2.1241404308609972,2.4145154530963757,-7.955493867103041,-7.468755064651191,0.9040025996344605,-1.8590071741905967,-4.107844710308836
1.9000000000000001,-2.155044723636059,0.43908886547166714,2.088546450985543,-9.873428554383274,-7.800501650032919,0.1788002098672723,-3.1210133533572564,-2.742495610627681
1.9040000000000001,-2.370054844400327,2.4844285226624088,1.8642893449333955,-12.03015099748609,-8.073000277853094,-0.5421911786108877,-2.796187821688809,-1.6587624528007598
1.9080000000000001,-2.8417550334078023,3.403269416958942,1.4597633237149097,-13.830432370234032,-7.789856886308439,-1.2996582870537878,-0.9751886320837144,-1.3271040833931886
1.9120000000000001,-4.10181844961799,2.9725458888087317,0.5929958365613235,-14.833795241919308,-6.80935922677971,-2.2116627037251266,1.3276833607837295,-1.838743310050921
1.9160000000000001,-6.271257879070626,1.3915649183636605,-0.8899719187963866,-14.997710787843312,-5.446982586037724,-3.3840222690770014,2.6591593731201977,-2.8519686648584743
1.92,-8.927603189894501,-0.8455783519138045,-2.9621770259637192,-14.689082821133999,-4.306551005140014,-4.775978800963474,1.854601693365439,-3.765881767644778
1.924,-11.236120605647725,-3.1601608585783367,-5.452861582885661,-14.450073366309521,-3.9217866401235146,-6.123130045659176,-1.3653105490009017,-4.038635430663504
1.928,-12.311895418836238,-5.0753624118731535,-8.141693532827901,-14.657011536092424,-4.428608993711874,-6.989846929852628,-6.237025135165425,-3.4913583967501935
1.932,-11.664903790504306,-6.32500534964259,-10.830511541095316,-15.261096569181358,-5.466760929244467,-6.96089481655166,-11.303218180272083,-2.4420852524487047
1.936,-9.499774102316373,-6.8590146426741825,-13.366476930659,-15.776265677368247,-6.373742966010524,-5.884880007298209,-15.098428572375164,-1.6018229290442019
1.94,-6.704390532934648,-6.782869663744491,-15.602821012450962,-15.531242267918957,-6.566680942768708,-4.02775353805183,-16.814005582462766,-1.7721141053737144
1.944,-4.497063819367692,-6.274867768642956,-17.339851204882354,-14.046961276393697,-5.881178464750031,-2.034479544275182,-16.606397823591905,-3.4783267723607922
1.948,-3.873066246196897,-5.5127866745749134,-18.334042282481644,-11.3439590731346,-4.675809542233374,-0.6816873568716304,-15.435757285504526,-6.706690468534893
1.952,-5.138010106477191,-4.643076024600305,-18.385055359817922,-8.01192091605123,-3.637415748576217,-0.5361593806006502,-14.538933219153506,-10.866933499365881
1.956,-7.766080127186383,-3.7896881995310556,-17.48123831959104,-5.0073619553510955,-3.408103244827834,-1.6961802026884185,-14.841672323393048,-15.015445492430931
1.96,-10.667564988241883,-3.090724490358296,-15.904416427790657,-3.2676458411267113,-4.252892466742788,-3.7522282750857867,-16.597233976918215,-18.241013947049627
1.964,-12.75830716896281,-2.7299192199223032,-14.206012075248825,-3.3279105966745792,-5.945450041748054,-6.004233143050275,-19.381274309533502,-20.041756864542954
1.968,-13.512726859067206,-2.920479926864762,-13.046909151779204,-5.117012378486923,-7.927559204018704,-7.817626124753215,-22.403884264528603,-20.513884465633115
1.972,-13.199210921922935,-3.831796949172597,-12.933363249246494,-8.000043645348967,-9.61933314763521,-8.913789238327391,-24.90072835583497,-20.247112754465686
1.976,-12.672837107143359,-5.4700447288905405,-13.983102049442216,-11.043457501992986,-10.685086379002765,-9.442721442385363,-26.39029951366762,-19.965395135823943
1.98,-12.84244223818469,-7.582957546297557,-15.845764722930978,-13.37875327114009,-11.11123739931665,-9.817717735109333,-26.697364839690653,-20.09547628443703
1.984,-14.121882151128212,-9.667372133901248,-17.825885496961707,-14.50639839410443,-11.062751709253641,-10.422857335182854,-25.81071662566882,-20.486774041376083
1.988,-16.181430916719343,-11.11969217393397,-19.17946610462381,-14.440219836033918,-10.652180333165175,-11.369687360501338,-23.74598126378899,-20.454402547270703
1.992,-18.133797662996262,-11.486881913206965,-19.43022072099128,-13.634246271116348,-9.788094473252718,-12.442367850973337,-20.525710364663546,-19.146604091736457
1.996,-19.02458241408825,-10.689798323335888,-18.567240187772207,-12.725168205528055,-8.215460702645897,-13.24530101671499,-16.3120731148046,-16.06389946651463
2.0,-18.335540555581414,-9.095577811830102,-17.021634453282672,-12.20813982248023,-5.733287854942299,-13.442363437847852,-11.57715429066017,-11.451109088458548
2.004,-16.220340049897445,-7.366431997941106,-15.434526886367523,-12.188794065840645,-2.4331809129583544,-12.945333411932396,-7.133900359920398,-6.327461207397914
2.008,-13.364655730427675,-6.141217308529254,-14.358481451205824,-12.336674419029112,1.19430015844787,-11.937283938140247,-3.944918231809439,-2.108037064572986
2.012,-10.58595439319523,-5.719769819434299,-14.022058615412092,-12.06233095246493,4.378230050006843,-10.73013135753657,-2.7378492393370792,0.025795362471442762
2.016,-8.423120130749119,-5.912523380153578,-14.274764357768895,-10.848493230290813,6.3754410537055515,-9.560247612534177,-3.6385526653241778,-0.3134820723960876
2.02,-6.947120499284859,-6.160684885786582,-14.713895112455182,-8.562977199004703,6.807935173209413,-8.459392250671533,-6.028400549252095,-2.5158892069935113
2.024,-5.886113058323187,-5.873678089874771,-14.901067610283672,-5.580262488516341,5.858060675336184,-7.287009191244228,-8.732316535242077,-5.245777203720722
2.028,-4.9253445882941085,-4.779254214625311,-14.562988055543798,-2.6321669888455155,4.212812801450703,-5.886115692703811,-10.481704389885145,-7.063488517236818
2.032,-3.9501428775563747,-3.0895273923104005,-13.659490585937132,-0.4390154705321925,2.787072524476101,-4.2538739460119235,-10.429778045820992,-7.072879518202422
2.036,-3.078645558548812,-1.3688332911988619,-12.321329720767569,0.6729668026862718,2.35702480697105,-2.611981827586879,-8.485200506738874,-5.273221485596226
2.04,-2.4862995565000734,-0.17817215726070912,-10.720704567414662,0.9534818140604688,3.2640164167167995,-1.3194235120003885,-5.301450635312363,-2.460427802160515
2.044,-2.1781082770498887,0.2821860259047956,-8.968347090491466,1.0844034900756725,5.313005321030998,-0.6849064537047931,-1.9458106650270626,0.24065012729879043
2.048,-1.8939649023405067,0.31299401081701295,-7.11279325647143,1.7636657579161081,7.883646572972292,-0.7875647353423463,0.5599569722836,1.9431266472239577
2.052,-1.2396497549458534,0.5351375004755338,-5.207142099834962,3.255712481247695,10.183927982456243,-1.4172886443113863,1.6224859286044282,2.3625845515953197
2.056,0.03061989496737727,1.4917874757118064,-3.393120852999824,5.170248160666144,11.533297313675508,-2.1722427252807703,1.2184886051872672,1.8178023745750886
2.06,1.7744821564942326,3.2622257278934073,-1.922792984356139,6.620155825940056,11.568860433593143,-2.6635643089580245,-0.22617953936012603,0.9194445401321465
2.064,3.4392416995131416,5.330484205203165,-1.0690904301063169,6.699070844605181,10.333798663966848,-2.7136043008973,-2.102204821800809,0.16189125382814318
2.068,4.319373762945365,6.822581020067716,-0.9701241690923688,5.023355210280856,8.24346393410194,-2.429153518140322,-3.881740017443965,-0.3315519921647807
2.072,3.9539662397394473,6.977516753517409,-1.4982857602594066,2.03604471613537,5.950642514961929,-2.1177189274480535,-5.265927975136673,-0.7887480023282036
2.076,2.4311999726166422,5.596502548136993,-2.260688204262518,-1.1169125826415698,4.155196247699662,-2.0879576829804063,-6.194867876145929,-1.544756751352002
2.08,0.411676960262906,3.207506130595414,-2.752882101795091,-3.086842245937472,3.403205610645916,-2.446731651555224,-6.762110986700409,-2.7518809548175445
2.084,-1.172184371842393,0.8411109398031522,-2.5946314463164466,-2.9357110023557436,3.93463215913017,-3.0103478711501266,-7.102058626942508,-4.225320475268297
2.088,-1.5889535650389215,-0.46859045846899505,-1.749099046448067,-0.5653228132817671,5.605673160378633,-3.3847967191726207,-7.326824612699065,-5.524746619467695
2.092,-0.7000524855190466,-0.19896049399670268,-0.5731649812312858,3.258347160438924,7.924644968156322,-3.1705605381742035,-7.506175046113702,-6.19709331424058
2.096,0.9557702352143753,1.4192180704953952,0.33938581212839614,7.283530177407826,10.217251764002622,-2.1879127497579223,-7.674308251106609,-6.017548104839818
2.1,2.4503372173698814,3.557694423827286,0.46499766852968927,10.346817126053704,11.871823494398587,-0.5980856796766579,-7.830253004645095,-5.089612654996596
2.104,2.9594768843407646,5.238317872473543,-0.35698313761522016,11.835871750808577,12.573826266929906,1.1364975837621043,-7.942330195884486,-3.7693981880451872
2.108,2.203588668719382,5.831234835154257,-1.8133019524330871,11.828035624559009,12.426864250622494,2.445299472120114,-7.97940933833751,-2.47965635630754
2.112,0.6047545942692736,5.330194098959259,-3.2391443166072538,10.900135338497133,11.89147342762379,2.907415222201207,-7.942447732927076,-1.5368546304097528
2.116,-0.9430813921108214,4.272974114134158,-3.937324000967073,9.733978970939663,11.549487424082272,2.4313876322314867,-7.902255360546841,-1.0940570293153198
2.12,-1.5690508893091668,3.3725546922376077,-3.5296313119294878,8.749011778962544,11.788643029815567,1.2691601906911079,-7.99737870263252,-1.1983608861831931
2.124,-0.9123588382306584,3.0848186300005764,-2.1500750648223486,7.953976942461047,12.576691926475522,-0.13741654315765728,-8.367150052828695,-1.8725645992994244
2.128,0.667242185667468,3.363748536174536,-0.3906485487190031,7.054332878933141,13.440104073347857,-1.3843639595357407,-9.065149083143222,-3.140290459753331
2.132,2.275224671298414,3.7259795253262293,0.995538319737759,5.7383124124184555,13.682497431994564,-2.2749288582248792,-9.978600354767565,-4.952091924484785
2.136,2.9682826358004046,3.574874326747382,1.45912425425202,3.955131749620609,12.746679895135077,-2.8365697438505775,-10.827018406265775,-7.069223634452999
2.14,2.290732582333444,2.5891699443353637,0.9064982081207108,2.043300528835335,10.538920863879552,-3.189340996943964,-11.25297460899056,-9.010361715199224
2.144,0.5517621105937298,0.9373888124794187,-0.2829039658022573,0.6320585131600467,7.538179441154771,-3.3698302425912545,-10.974757679673026,-10.14569015097631
2.148,-1.319819564840306,-0.796454958449127,-1.4789651875484968,0.3525127082003827,4.6146706298668425,-3.2374717452864314,-9.931597435066088,-9.933917596861553
2.152,-2.2608330595215573,-1.9309816270170943,-2.1043530850024794,1.5128391470709683,2.640243457912713,-2.546148652433471,-8.327056088213121,-8.18984046080912
2.156,-1.6408201759392878,-2.0641373464985016,-1.877631469418823,3.884674202144261,2.0848196973057247,-1.150255369184598,-6.550384963197105,-5.232984571671327
2.16,0.40014955211156966,-1.289194806758732,-0.8743281620284789,6.713268553631105,2.806904738448165,0.7968159706124736,-5.023733563386171,-1.813916907651703
2.164,3.0329107679232274,-0.13267145599008945,0.6056790215794159,8.96982470364421,4.159445844677761,2.7925910015548885,-4.029463671091253,1.1681812785782881
2.168,5.1858491344345525,0.7491559402590591,2.2319058261041658,9.741314085652371,5.346426422856157,4.152292988956914,-3.6150146183030847,3.030272002904616
2.172,6.098242140825719,0.9304114037904525,3.786631817438361,8.599482696261704,5.838105813168296,4.32569985973427,-3.6073333719800216,3.5757218632571344
2.176,5.673668922410708,0.4347162690251749,5.174374266050096,5.7826861380964,5.620521835810129,3.1927169352920166,-3.7244739130330973,3.139015971300653
2.18,4.44430584587766,-0.30828753262299013,6.330139748258388,2.106911129969075,5.142968026254786,1.1542258620817973,-3.723732790804205,2.3924421237629323
2.184,3.193003626488383,-0.7280258541001201,7.143965496668823,-1.3558485444608817,5.013035952405554,-1.0581624113966672,-3.5073446370413977,2.021508697719594
2.188,2.478233867186879,-0.4341422307597238,7.46043496996961,-3.69615690732069,5.616046341782971,-2.7513715659496945,-3.1600767106694487,2.4380708606603037
2.192,2.342595614199408,0.5771896778536592,7.1816093336050475,-4.485353686566876,6.875822257528183,-3.6181644422166306,-2.894657785059378,3.6573112870152134
2.196,2.384989453016999,1.9598030824782344,6.3787125831509,-3.8532112402769165,8.289953769596936,-3.8515443657129915,-2.9516179616512797,5.366921551839974
2.2,2.1101383382652337,3.254029817348992,5.301696232127508,-2.3217201957547715,9.20231154002295,-3.962827034211579,-3.4932433024275653,7.116368006416412
2.204,1.3131793013882884,4.172314686538902,4.256295005591797,-0.49741511561294693,9.152114516663179,-4.415666934463143,-4.522148630408331,8.504268982801094
2.208,0.24017547285990748,4.759269085644489,3.394356122370307,1.1844036685429078,8.093680367111041,-5.3034534172969785,-5.869016847194274,9.272472887389624
2.212,-0.5855393038610761,5.3224669921328935,2.5767713067157914,2.5465737542702422,6.380399918227919,-6.275098406228657,-7.230321033453846,9.29919886246298
2.216,-0.7414331573739248,6.196890252392765,1.4174493946876763,3.5766013648658213,4.552184512454783,-6.751300356072851,-8.259228386514971,8.551752784597536
2.22,-0.2320888918943107,7.483900609623252,-0.47956133726651196,4.250833147785781,3.060051775730658,-6.295492461122294,-8.681034732058418,7.069267782699999
2.224,0.45850989197158487,8.923717977979345,-3.209618899036121,4.4284215301710255,2.09853282222788,-4.916737093647193,-8.388131573604255,4.999134179345505
2.228,0.6435166371105518,9.992806453844032,-6.401779587406873,3.896931256259709,1.6199241291001085,-3.1079284025052583,-7.493822662142499,2.646126640071873
2.232,-0.13926086021544304,10.159224878435388,-9.320491039244903,2.5461578821190516,1.476184024035645,-1.5952801968576482,-6.304586142551427,0.46001035589338013
2.236,-1.8258675526063737,9.150926337625798,-11.227731167324297,0.5307564254016395,1.5713509318578174,-0.9490453684731461,-5.221680217749183,-1.0903755553559868
2.24,-3.846493019474784,7.0839557832828035,-11.806529878941895,-1.7120552844204147,1.9113358864766967,-1.2868566814834672,-4.595634919886912,-1.7104182657281912
2.244,-5.44479377319141,4.40277768132428,-11.366429397265602,-3.6164031925779736,2.546859151673502,-2.237693119339657,-4.58729168437633,-1.4347941981963857
2.248,-6.099699818952119,1.6814573417291188,-10.696744888897987,-4.7455422088616555,3.466585211759363,-3.167491461088277,-5.113937373401297,-0.6404449692306136
2.2520000000000002,-5.781603228479351,-0.6004129896843744,-10.611784091518802,-4.99061420343715,4.532149770420855,-3.522438798391192,-5.873122146562281,0.12316068024418403
2.2560000000000002,-4.903538887524059,-2.1880401218985366,-11.456388999737719,-4.5829191798542155,5.5155787192249095,-3.0892699652867117,-6.4539636617263305,0.41300904059094323
2.2600000000000002,-4.025656724704342,-3.04896309400681,-12.875531534515734,-3.915397370497648,6.203111472319459,-2.0363735449692113,-6.506743515425875,0.12942287886230863
2.2640000000000002,-3.519320437218704,-3.2761956395145515,-13.99621608519716,-3.2851287351804785,6.492687506627124,-0.7463452529484194,-5.879219876157381,-0.43845669418895383
2.2680000000000002,-3.3991787500251327,-2.9830845003053907,-13.955019839717261,-2.7318619837772857,6.405957869870141,0.42695354985596623,-4.689063849425976,-0.8053054377684621
2.2720000000000002,-3.4073686447476472,-2.265351320239418,-12.440200562815278,-2.059351708477564,6.019459115019444,1.323506716395519,-3.279000206014448,-0.5993151972917641
2.2760000000000002,-3.256145004368019,-1.2284843735849638,-9.927759962846455,-1.028569953234367,5.373215681996836,1.9821232878861803,-2.0826676318698265,0.18830648712690845
2.2800000000000002,-2.843696793552674,-0.039706847793004485,-7.462736800540309,0.4089905517976007,4.423893510943053,2.517282582141805,-1.4524110170707054,1.1710277173402375
2.2840000000000003,-2.279286727453618,1.0759328546960916,-6.087843435696389,2.0281035270500283,3.1145934125875225,2.9813325205287455,-1.5041082903636251,1.8021166840562848
2.2880000000000003,-1.7270611045714066,1.9064020791518246,-6.281956820217813,3.4373593317974453,1.4880414170849825,3.310499938015137,-2.0733280925566504,1.7135878354989558
2.2920000000000003,-1.210515029833802,2.3475724817786783,-7.727840236090068,4.315897099544536,-0.24535581218069602,3.3858221273275353,-2.7896340779983175,0.9629938017245347
2.2960000000000003,-0.5478274012177238,2.463994265212871,-9.55218363887603,4.611802922353258,-1.751694709712693,3.1511699806899633,-3.2524454705623613,0.02230974603484448
2.3000000000000003,0.5137620458326024,2.459241948402297,-10.890950498325887,4.555640242286143,-2.7342095452769755,2.6916047364203424,-3.239044719220791,-0.5057355271652888
2.3040000000000003,2.0575214827957797,2.564906551377072,-11.411044541740578,4.481189404082039,-3.101588516567961,2.209857112716051,-2.832928577239519,-0.26665350343811056
2.308,3.8285699954539245,2.9068953832307445,-11.482565403184246,4.558725351538122,-3.039053433527722,1.9200748625635935,-2.404293566026709,0.605011410245762
2.312,5.274315811804103,3.42371116566669,-11.885774323288867,4.631127071871743,-2.9208708945608093,1.920783654363122,-2.4349326155061455,1.545977122015401
2.316,5.8124837106568545,3.899185458461236,-13.248512320203641,4.276504067985608,-3.1038336591824383,2.1350455873796355,-3.266099496568584,1.9081915188349488
2.32,5.1785050792178975,4.090326683482717,-15.562704510791448,3.0812192044240723,-3.7330901267564403,2.363957628083284,-4.875403374405417,1.3904861138934823
2.324,3.621711347742563,3.874258120750274,-18.077803982987206,0.9579236102029958,-4.671893915217476,2.403944081510703,-6.813374165604706,0.28729978486843954
2.328,1.822800190628878,3.3388818559082907,-19.655926099002464,-1.6938241400791334,-5.600189434841286,2.159269912671032,-8.36309406223054,-0.6118541597103331
2.332,0.5662070917093711,2.7581241831658945,-19.36339927949272,-4.0882589707220545,-6.217458736778054,1.6827589685203916,-8.85135057576942,-0.43296098553720563
2.336,0.35116047215963064,2.467941367531993,-16.969214187846326,-5.3841382880895265,-6.417392629068579,1.1276306286194089,-7.985100132088496,1.2805030683159506
2.34,1.1559805223267787,2.6950993045874463,-13.069350702656594,-5.077673558105903,-6.328843294306145,0.6513890157228448,-6.040464340510262,4.2630149776181145
2.344,2.4841923703242337,3.4290213403161225,-8.772572073484408,-3.237052944302926,-6.195861216757901,0.32753204430746097,-3.787761685820373,7.601719325246706
2.348,3.65408890528957,4.408001148679311,-5.168203064832517,-0.4672656571137068,-6.198575361579934,0.1176012119066383,-2.1839960158986247,10.155033175131656
2.352,4.154960859978664,5.220798855990765,-2.8547990462182096,2.3757368806058357,-6.329997380539405,-0.08586763688770016,-1.9502823875936288,11.100447126740928
2.356,3.8876978453089697,5.488624833497467,-1.7738540439643646,4.564039041845301,-6.394233109187497,-0.36892620207320403,-3.234331683876057,10.323483839754743
2.36,3.175149390313014,5.040327835237403,-1.3908627701175948,5.776249625350031,-6.132692585384042,-0.7189978830685412,-5.52464555812754,8.449435301019523
2.364,2.553593541201302,3.9866204424198006,-1.0630107432978,6.15862728248335,-5.384358269733793,-1.0066760553252756,-7.862681581456095,6.519733596184414
2.368,2.48823204777204,2.6649391075309063,-0.3799789108813725,6.16513938553869,-4.181190161503003,-1.0217619272890341,-9.263493741053795,5.498444231998313
2.372,3.1564397883751143,1.472599133809264,0.7002247834920103,6.29253076460549,-2.730681671297047,-0.5509699225781479,-9.129414788524997,5.864626425951433
2.376,4.382814956281494,0.6764478549853306,1.925635523575244,6.843686761075811,-1.3154550290135667,0.5313641461902862,-7.474557637844559,7.470180953913084
2.38,5.734285651788232,0.30020515999180153,2.9319820742674,7.823967696169228,-0.19707820379080232,2.1995189773990456,-4.871068908394326,9.689089034293422
2.384,6.710743698492321,0.15386928215140672,3.4201556549509453,8.997479708826917,0.4347793088237486,4.262008677183115,-2.1446194845430333,11.743599577951649
2.388,6.941507612972199,-0.012448709858600138,3.228782312757817,10.034308519980664,0.458457618451388,6.400549969947493,6.680804350045477e-05,13.019635596361542
2.392,6.310881087772383,-0.33075972967306777,2.328080518151756,10.661449212833569,-0.19854686935946741,8.245688240388306,1.2562454914623158,13.23369367972352
2.396,4.974942787889501,-0.7166165359910899,0.7907478857673751,10.741661666924971,-1.541947162230053,9.467910070120336,1.754121234746549,12.422910616833578
2.4,3.274463010379752,-0.9279073134448321,-1.212782372355278,10.25701213653904,-3.456688106359972,9.857534260242542,1.8750531243929953,10.825122667077842
2.404,1.5882587236542174,-0.7585938529215985,-3.3917465222806986,9.244740883896993,-5.654795451081599,9.372097639859623,1.9826788667868196,8.750254121770439
2.408,0.1832207507692898,-0.23545462687722996,-5.354384011111513,7.736810200756973,-7.691049899282175,8.143651969307673,2.219400726090662,6.5091113673024665
2.412,-0.8918282900844172,0.3011921982898169,-6.6936884590879995,5.753911080831857,-9.082512509198253,6.4387199146831104,2.483997302404918,4.392182270144831
2.416,-1.802772962788663,0.3158637011660499,-7.140898489939538,3.349423521829509,-9.492084494676337,4.589940199394231,2.5689619933058236,2.638425569979839
2.42,-2.795863894426522,-0.6318982545171679,-6.699044021444358,0.6782026750056218,-8.874825965250022,2.9312524547619505,2.3698719350365183,1.3823838893718259
2.424,-4.006157723707048,-2.592857271381277,-5.657620720138073,-1.962835200835391,-7.500284843699152,1.728699875853227,2.027053281205221,0.5895204654018367
2.428,-5.3088039180367055,-5.108489119166219,-4.483896162488698,-4.17259399504565,-5.835708751956513,1.1222154747444635,1.8804030083502399,0.02476107424653584
2.432,-6.317671321980474,-7.376550354301468,-3.6235681979815775,-5.572677114433898,-4.352531029300348,1.0868800448771698,2.274744220066551,-0.6891545649356376
2.436,-6.562747229665186,-8.633127587850137,-3.3301948041412515,-5.979777158811395,-3.3586982124942493,1.4246559428617698,3.321084792913232,-1.9222760003520634
2.44,-5.767934646810245,-8.549751529170909,-3.601547534178846,-5.528377397357687,-2.9343492512112173,1.8121460948727244,4.76795578526834,-3.8511368674057067
2.444,-4.074766320604439,-7.4121841564789435,-4.222930327885872,-4.6610368144511405,-2.977128746510721,1.905544541426497,6.087714648033149,-6.332319992628694
2.448,-2.057847422070188,-5.951703359404956,-4.894305166389161,-3.9759803154602253,-3.3092357137231643,1.47918943578975,6.718150860299998,-8.91989081586211
2.452,-0.4947909985482517,-4.921578413909289,-5.337917226745908,-3.9743986051590743,-3.76267718333093,0.5494815877774653,6.364088255227016,-11.0286295178207
2.456,0.01532337189313393,-4.647857254593361,-5.35149435481778,-4.816543598403185,-4.1996787646007565,-0.5789645773171108,5.180891744469919,-12.172100295529093
2.46,-0.6128907475147782,-4.82169067501128,-4.812896419035937,-6.215588532726878,-4.487559073628557,-1.3878759581642843,3.732486051710327,-12.158678319956806
2.464,-1.864590967027004,-4.673963538434165,-3.6734976813121416,-7.531206049291205,-4.485845607097215,-1.339355511828503,2.733971215624761,-11.149554081319746
2.468,-2.872820158937632,-3.4477312397786477,-2.0080749494208856,-8.048660312698793,-4.104421552341886,-0.11910729891161109,2.6922981798289958,-9.564947782506175
2.472,-2.897004688893004,-0.9144841608191767,-0.08300043695632553,-7.319387866793107,-3.4127139761229994,2.1768129059747467,3.653515016861416,-7.893519255883873
2.476,-1.7677158827665096,2.3769150529152325,1.6187311431269134,-5.4039314195935635,-2.715515085462158,5.010735698078894,5.173270912714231,-6.505905175598407
2.48,-0.04061297046743384,5.284636599316528,2.500821647358677,-2.892193388252881,-2.508075158082896,7.567335466257362,6.5248328511721505,-5.558190560906374
2.484,1.2447961997601755,6.617873637714153,2.101858889489007,-0.6739772138792794,-3.271728902630299,9.055109333608765,7.06282708537159,-5.007598736109651
2.488,1.100403406974623,5.761399655424178,0.3579804330829628,0.43057052708364196,-5.19731262588302,9.021592475403072,6.5363116693473495,-4.705405982481466
2.492,-0.868854074019195,3.030936365388496,-2.2590488249258778,0.013471759085309287,-7.994080562542857,7.537327862379536,5.203053620359215,-4.49855056639818
2.496,-4.222586594867004,-0.4333354160074854,-4.848196643655915,-1.7715417311806938,-10.917779497435374,5.151426951027769,3.6861001193020786,-4.285425909476123
2.5,-7.865938736582612,-3.1801274387013057,-6.4272363984754275,-4.304391577086257,-13.054899904759115,2.645697204850061,2.6590402149558465,-4.0044263370058255
2.504,-10.569346133378895,-4.1186804944781885,-6.373393311369391,-6.778305579271938,-13.737341492334842,0.7022322435308175,2.526709840879281,-3.5912765932162456
2.508,-11.562238940296433,-3.009271827604379,-4.744699872415458,-8.541808728950869,-12.880943064237321,-0.3621555602011346,3.2532548856276637,-2.9623873480813163
2.512,-10.860751482666814,-0.5207174118975182,-2.2558186224386425,-9.317911363908516,-11.037412643226116,-0.6521918969469267,4.441968414895835,-2.023126894171404
2.516,-9.152409411220027,2.160355727096424,0.09020899132920168,-9.21363984919914,-9.101625896105562,-0.5225993054584795,5.599308160061285,-0.7014129917568543
2.52,-7.320084788895393,3.9509028385837737,1.5331602863400804,-8.538951476865304,-7.8187824929117715,-0.2704523481457878,6.432908234739344,1.0256497999073222
2.524,-5.90575415853758,4.390737325440437,1.976326773490728,-7.557350648181124,-7.358435654497259,0.1223137509845762,7.015808956251475,3.128005776632377
2.528,-4.824296083167432,3.8107924417527714,2.026893200597211,-6.335430812658099,-7.215529961452976,1.035463251120337,7.702857738090921,5.526574548078859
2.532,-3.5086484631096213,3.0683566973336216,2.6216014224726907,-4.772154047710585,-6.531683815093713,2.9868345467850013,8.860252996778858,8.088670922871508
2.536,-1.4085458773584958,3.008675232784948,4.417511065418537,-2.797154890276635,-4.67970246996287,6.236900258626924,10.55030610841414,10.589994209885381
2.54,1.4780720128120106,3.9563731998721425,7.290352894981822,-0.5998368392886078,-1.7778455405754883,10.448950791464622,12.386953459536214,12.684888249829172
2.544,4.3982966223498465,5.515316906265607,10.26556756106922,1.2982135052948065,1.2084642299150907,14.625102532798753,13.69883484167939,13.942607570205698
2.548,6.148809183698869,6.80109738487787,11.952209715325978,2.2202508492303155,2.8970185506001993,17.427292495092804,13.922768847673517,13.988174479991986
2.552,5.747911220786199,6.972424711748946,11.29581112764082,1.7054775786877885,2.2606438114109606,17.774839694490517,13.032623775894978,12.717440499230204
2.556,3.1149693681478126,5.781418518643374,8.247838046330559,-0.11645765839085342,-0.6681339878029862,15.434517803129173,11.728832289007498,10.472899846656752
2.56,-0.6767041631269377,3.8065422986598136,3.944288689455772,-2.413053623545963,-4.615251549534288,11.268427826633953,11.198909624869795,8.032242933036981
2.564,-3.8087175833568816,2.1918564626546235,0.24364633941330283,-3.9426649974505548,-7.5956209296036,6.931458783534409,12.500572740061214,6.322385479355965
2.568,-4.629473448803942,2.0031644956896795,-1.2057824235586203,-3.685217264812106,-7.950425354472712,4.113459237577789,15.832774565123396,5.930964684604207
2.572,-2.6086725649676508,3.5204201893779317,0.11055108505674038,-1.518005437746048,-5.370206341465568,3.6736367368913525,20.111036721003707,6.641062944514156
2.576,1.206903492925166,5.8782405268403135,3.15994487827436,1.4496021671207648,-1.3042234466793126,5.120755283872244,23.14107641224483,7.27371620971476
2.58,4.558330402864581,7.319726071030184,5.732815692173439,3.1546089638175343,1.5539931224315828,6.767277333888608,22.430889900378684,6.024960203388451
2.584,5.048922581432132,6.009362676865373,5.484268867727705,1.4534971106551362,0.5453459572970178,6.541227318382017,16.349865930478124,1.2415131647922033
2.588,1.4151781823792138,1.0444620362065087,1.1343761394100702,-4.783982577288981,-5.521626784278036,3.0858445330294617,5.082716768798587,-7.6773086164631525
2.592,-5.688323567817885,-6.872999574840709,-6.766530019441159,-14.90009072221552,-15.538534622236673,-3.420994111798021,-9.098419472374905,-19.699759583782953
2.596,-13.824346997475132,-15.49411337880974,-15.927018780314507,-26.436827983447863,-26.344220072838667,-11.18483133430026,-22.454706028471726,-32.25825148801536
2.6,-19.81210814280667,-21.86799326633657,-23.255028841702565,-35.98429746252551,-34.01762332614093,-17.528099586285798,-31.10154500179319,-42.06431006887578
2.604,-21.171918442070343,-23.604834970133684,-26.175264339595486,-40.535365442585714,-35.59967404330631,-20.09107353024537,-32.460740480215186,-46.317732863215426
2.608,-17.236234430512635,-19.93812847278913,-23.70460908332742,-38.727284165832685,-30.398073365834232,-17.889451640129177,-26.213716007625422,-43.77309573214892
2.612,-9.375045489559053,-12.065865147746344,-16.76314894100344,-31.364435974021976,-20.23206612933255,-11.691606427030667,-14.323330761261138,-35.16637439158335
2.616,-0.25449384116623897,-2.589404348024382,-7.622717553540202,-20.9763920538639,-8.510880909090691,-3.5501133927531585,-0.15709104929871565,-22.826698386807525
2.62,7.446791813223743,5.654636381305077,1.1655895199491049,-10.661276982268713,1.3426805918056601,4.227949900704012,12.859652133512196,-9.695216438004213
2.624,12.181365286452037,10.778294047553516,7.810098715575108,-2.79125115144919,7.322724581760532,10.10346189789077,22.457432702869067,1.7650959543433964
2.628,13.969034333573731,12.467544714960088,11.771420379706221,1.7779917557309686,9.430474797145603,13.785596301384984,28.075075409207795,10.25447662839352
2.632,13.98142113673129,11.786660996046052,13.578617047108132,3.673338047939503,9.214258242577085,15.978275735940805,30.605508281210398,15.67915938500972
2.636,13.608497095680741,10.363710486376789,14.191361274439785,4.277948560736478,8.629537315313385,17.629965253400243,31.571431781845945,18.65795061548421
2.64,13.601587544188757,9.458215955361787,14.344729085510554,4.786887900059117,8.904163577292767,19.200291720134985,32.21603683412456,19.88030952618803
2.644,13.774737906390282,9.419815744950913,14.270563272448484,5.585404753283654,10.026059685666564,20.388063243730812,32.97085660067704,19.71095093986674
2.648,13.380713449617254,9.782055439512364,13.858477100958078,6.239466912923287,11.0450118021805,20.45187428336548,33.479493366315,18.21490286674866
2.652,11.839748109788328,9.8165748330442,13.05855130810253,5.99879060956841,10.894840158204055,18.860024418344445,33.07245554518398,15.483663200309644
2.656,9.30577534967178,9.139771380013945,12.172616566964354,4.421299971789026,9.175698072565925,15.802371953770859,31.343597021217565,11.947809829843777
2.66,6.70073387398748,7.978665727723264,11.795738000472248,1.7116742461135326,6.415221339131092,12.208476563035884,28.48427251180141,8.40275104980327
2.664,5.196667986292148,6.962374591086074,12.452130558268259,-1.3920239127990675,3.7018619592759743,9.247630916627754,25.218748714010168,5.695528645110061
2.668,5.492537572035928,6.6345441097797355,14.169013996518931,-4.063987543157359,1.978785740668024,7.635011892030112,22.41357858506494,4.26825577119494
2.672,7.354724721406162,7.036560898873244,16.325819119660473,-5.834902049316291,1.476844201439519,7.20514833599703,20.639744912234114,3.8756272392229705
2.676,9.716547104286317,7.656539757037555,17.91282625361634,-6.748598868539524,1.6403531490242411,7.0392717861238605,19.932277200366507,3.6903087884003067
2.68,11.275012891473356,7.765407579534047,18.05698744149491,-7.1773220399760875,1.5537049768192652,6.07832051711105,19.855779370998622,2.7702152633863735
2.684,11.208379216182276,6.899989376967077,16.51226538780053,-7.4655163475504365,0.5651335928735897,3.833191357926311,19.807904985876526,0.6209917064793504
2.688,9.58514981360949,5.17677009002926,13.791225047360815,-7.686062115747278,-1.3081191980149693,0.7465689857896856,19.352765480467802,-2.484593892693808
2.692,7.225552524695853,3.2229398567053167,10.856846274046523,-7.6798021720304686,-3.4476894230404955,-2.0394485608789283,18.402828368876385,-5.626190944605607
2.696,5.139496076910087,1.7911958324085973,8.569133227955321,-7.317217747122256,-5.092242986979361,-3.3712024613936955,17.178200572802744,-7.7264264011077515
2.7,3.9138466523680373,1.3149717632751932,7.224537489225572,-6.762031071513704,-5.862651506452483,-2.7990493967959007,16.01885638606954,-8.130182846872804
2.704,3.4157056561674364,1.682674998520179,6.483549864015567,-6.501724233272865,-5.993002724267729,-0.8863031044910608,15.206853296313593,-6.940078715301945
2.708,3.0055734303219332,2.3843280342965807,5.711505977376451,-7.0773402329776065,-6.111399449970708,1.0953167226769565,14.894505895736636,-4.929879486645464
2.712,2.093069404507939,2.8969506816906145,4.513278814284944,-8.666629930322912,-6.72810396833632,1.901921348523655,15.16028894218324,-3.111502125304235
2.716,0.6435524388252989,3.039665247875348,3.0993556805219935,-10.825461947605834,-7.782734140741425,1.0318482031857523,16.09291764925048,-2.221554806313676
2.72,-0.7002770309364135,3.058061944003831,2.2282764770148145,-12.599727738173426,-8.578541996053314,-1.008124218055389,17.784342555157373,-2.414102579083016
2.724,-0.9878125676447683,3.3814318277142887,2.751293428051314,-12.989285965375899,-8.179706659018406,-3.037595782333285,20.21010886445481,-3.3025205902987107
2.728,0.41325067762596523,4.248910112146655,5.014216117050896,-11.50517919220599,-6.029997830481518,-3.918186491617491,23.058504473620054,-4.2678729827351045
2.732,3.327642490253531,5.4619724918515775,8.500723955083199,-8.477616155518652,-2.4044892546102306,-3.214884152132367,25.667353128013197,-4.822170499857565
2.736,6.735087532993558,6.439668874592346,11.944621959020918,-4.92235747062441,1.6114621908017401,-1.4186735965719421,27.17456240551507,-4.821058285408106
2.74,9.237435651989703,6.561968627239999,13.871292513952463,-2.024549741597302,4.64486546204365,0.3914037584801595,26.869174909540238,-4.4306557269928515
2.744,9.761744131374055,5.568168210649631,13.293511019619839,-0.5292654272193804,5.774181378095941,1.2037193922003748,24.5832722295334,-3.9421541800919933
2.748,8.120775331704309,3.766078428229872,10.179011757127947,-0.39616965685292094,5.056675536654168,0.6462848079371826,20.879206831562005,-3.587927101523154
2.7520000000000002,5.1056505590872785,1.8969980865887028,5.452320206032754,-0.9101794520669166,3.517465233625999,-0.8615282057570557,16.893431523396906,-3.478823553758775
2.7560000000000002,2.0637797099510085,0.7371508471535666,0.539299514642992,-1.1646589303043022,2.591097532149001,-2.447507725890781,13.849764583662767,-3.670837925798404
2.7600000000000002,0.206358671891679,0.6718591764312127,-3.296115725434721,-0.6254480532813282,3.3134314960243056,-3.3733731926704595,12.460326397761834,-4.263468393467416
2.7640000000000002,0.013258330179076516,1.4873162754780878,-5.465870288596971,0.5660043997323814,5.720235181534717,-3.496824051515488,12.559771994438718,-5.4118268154435665
2.7680000000000002,1.0539086392067905,2.511945038503282,-6.193313329732074,1.7055205471427475,8.799080384841501,-3.3225318025703015,13.17817320609196,-7.214623577852919
2.7720000000000002,2.289166784480608,3.0069860626161216,-6.229329206606398,1.9785578857185797,11.025190236874124,-3.6244547861952463,13.06715078977041,-9.54410147606638
2.7760000000000002,2.6608716971107063,2.578407671424328,-6.34749278981925,0.9763753264591681,11.188556597495761,-4.898392241393537,11.409795697097419,-11.958247620412667
2.7800000000000002,1.6436242474366374,1.380294575752968,-6.91934144254574,-1.032924729042744,9.04836076104768,-6.9864384243823885,8.31949640402609,-13.796917922228044
2.7840000000000003,-0.5459725141716287,-0.008162697221093751,-7.77049354043872,-3.2337809510610604,5.450598106459969,-9.12385272730192,4.8412113021993015,-14.446954525687781
2.7880000000000003,-3.1461889596375237,-0.9319153950716039,-8.375886765514489,-4.701661774541289,1.8561306338939971,-10.378175279124017,2.403553190180043,-13.648249285043347
2.7920000000000003,-5.314304187738656,-1.0356432252611771,-8.240682694257202,-4.8911050251833785,-0.457261221806883,-10.216579294069602,2.01970106636392,-11.671037613129817
2.7960000000000003,-6.597184218683481,-0.45998822752026225,-7.247781946113286,-3.91151321688616,-1.0722966984145206,-8.864766825294765,3.6629484093711038,-9.25444420156944
2.8000000000000003,-7.14779804150175,0.23229743759175303,-5.788355154608155,-2.4525727045828845,-0.6248032341105194,-7.225252493412434,6.1802871775223585,-7.3177676587344465
2.8040000000000003,-7.5945119709198154,0.3462433860903855,-4.596731123342948,-1.4173788303536217,-0.40546623804540327,-6.401193388997655,7.8318488547150125,-6.5864146816227045
2.8080000000000003,-8.654658716945724,-0.5984384136677421,-4.406027735700916,-1.4765328829245954,-1.598628822052011,-7.09372677962118,7.168722972575575,-7.310995165690709
2.8120000000000003,-10.70682946043122,-2.648363987193853,-5.596530924573302,-2.767534793056519,-4.586282165171591,-9.204629521942653,3.793130185963034,-9.199694730096773
2.816,-13.543104880036722,-5.415941640393102,-8.01118059931961,-4.866987462867514,-8.68947665599535,-11.869469991276345,-1.418487512937471,-11.575240438801764
2.82,-16.42902260620263,-8.280215109243432,-11.035714272460988,-7.025762266979063,-12.490992161589324,-13.904554096192687,-6.769596991479726,-13.668166334330362
2.824,-18.426595955632877,-10.680870164439616,-13.869560444217294,-8.518253725804959,-14.55909901865829,-14.420307506082866,-10.610574384503206,-14.907834964959395
2.828,-18.80154024322305,-12.337462410990906,-15.857329348040963,-8.934966514998314,-14.171574825261352,-13.262693218856544,-12.142100585092244,-15.093364607310985
2.832,-17.330495232335828,-13.308204526422404,-16.713196948810374,-8.29164364704371,-11.652915816133472,-11.058193585036738,-11.721352868018592,-14.404553494331326
2.836,-14.381255304147,-13.875708612002454,-16.553590986475843,-6.9466575346170725,-8.15940294448497,-8.858808776275978,-10.524413255856,-13.275760635443937
2.84,-10.737560443948121,-14.334401948323766,-15.756299637764725,-5.402483975655098,-5.056885966919993,-7.585325230824444,-9.789213320500515,-12.202911121163915
2.844,-7.279217918313255,-14.805517227450359,-14.724056193207737,-4.099681970772879,-3.2364347718748934,-7.576839554418536,-10.08228836019809,-11.557140435097505
2.848,-4.665845336922744,-15.171073071796512,-13.708014527247819,-3.3003513681230254,-2.7432378743265784,-8.471708536073582,-11.026204489210185,-11.461546854194506
2.852,-3.156750877284301,-15.159975319916992,-12.747233803979533,-3.0716599454789386,-2.891767300308519,-9.457380429842603,-11.612921476340798,-11.750676875554152
2.856,-2.624334852489726,-14.531317304579224,-11.739636938981242,-3.3430019035347294,-2.766914596740776,-9.737137606365227,-10.908075698720925,-12.036603432937241
2.86,-2.7021866580657585,-13.245719472629318,-10.589597907857664,-3.9795358891249326,-1.8130696140138634,-8.950643096122679,-8.705494631594382,-11.863499023240573
2.864,-2.964050005523319,-11.519391880440846,-9.313386244331523,-4.815571705702959,-0.15320633278510343,-7.324798291922718,-5.717186396857041,-10.897338227800011
2.868,-3.0476264517231604,-9.719733077819061,-8.062039669639645,-5.651887423585006,1.5302410171288185,-5.49465251848839,-3.196940538048347,-9.078260198523207
2.872,-2.691113311758642,-8.167110844002888,-7.039963727942259,-6.240777405237623,2.4567213736362996,-4.124487963869072,-2.2052761665267298,-6.664969281690294
2.876,-1.7102700213983768,-6.95336110589295,-6.37889108347368,-6.30309111070423,2.271967711661703,-3.5518522099165715,-2.9593367605483785,-4.14146657362967
2.88,0.01395804028732961,-5.896524869208257,-6.055643067723908,-5.610313848541925,1.305624394156169,-3.6425165359784724,-4.671926269890702,-2.016277371588855
2.884,2.48408100987549,-4.676777008983285,-5.8795378404689265,-4.097253703649244,0.40995927492660833,-3.918597873385099,-5.970914396821902,-0.6058763102738753
2.888,5.498230779977581,-3.074514367163326,-5.570414382344518,-1.9498341682563904,0.4774058547507165,-3.863191192626523,-5.670509259522297,0.09130487058832415
2.892,8.59349326870036,-1.176677582986727,-4.876416007542767,0.39642109755542454,1.913654001657378,-3.213205628600581,-3.452069347863523,0.3675165337570121
2.896,11.100231095426425,0.5843186587207643,-3.6863242394843083,2.3770860021431997,4.378013615444234,-2.0806093275766635,-0.07053987921522853,0.6294074565402639
2.9,12.345714639455531,1.611081682890186,-2.0939095079094634,3.508380769968013,6.93858589545294,-0.8421885047366163,3.0290396144061447,1.1741555028428903
2.904,11.933697058750532,1.4477563018742812,-0.37608936103492097,3.595192582998857,8.559998822398624,0.10175578193847423,4.479376979313216,2.0313001278729974
2.908,9.979945509955492,0.06120734758108837,1.096856986637147,2.8278779980694497,8.651012450383138,0.5411369473215855,3.695499534926196,2.9564513690195957
2.912,7.15761942279719,-2.075197013763116,2.008003178270797,1.7142225640883344,7.364435404077305,0.5194193629034098,1.1463070956851191,3.580920045956046
2.916,4.487497970974607,-4.157894738382939,2.2467524349139345,0.860076166014757,5.502594135008058,0.2243592936780927,-1.9296714551641867,3.620296447368382
2.92,2.95181124013508,-5.4012854414324165,2.002919980015271,0.7031090458635798,4.093482274657752,-0.1934646862278151,-4.180747029899109,3.0360241913863373
2.924,3.100732412206085,-5.380607819302732,1.7670983479936706,1.3456417047431084,3.8918308837199795,-0.7301443712574991,-4.789550798495249,2.0710382249592376
2.928,4.82965959344868,-4.190051111937896,2.1719086167755983,2.551535682537541,5.07143181954012,-1.4868671058080922,-3.7886246349734627,1.1321167333382376
2.932,7.433817780213723,-2.3495793827033977,3.710155861044692,3.90549239073557,7.239820703605662,-2.5028319904989873,-1.9008155785577978,0.5898101650706762
2.936,9.916093527111379,-0.5239038421910176,6.4383457039218595,5.037657267976254,9.720334766621548,-3.6022471260381748,-0.06926100023116799,0.5898867865288833
2.94,11.402293881157869,0.7933970234564702,9.813270883213626,5.782388714034318,11.902423506766187,-4.385856252880264,1.0229190147075773,0.9777698619816393
2.944,11.484676160869263,1.471026452845574,12.811942447799638,6.2007146358797405,13.466221562655239,-4.407960391683002,1.2056739914323824,1.3785808852450079
2.948,10.344491603885992,1.7272403217995524,14.30511950146813,6.453217547243209,14.36757581406679,-3.448964041929398,0.7298248942057555,1.3826460265532197
2.952,8.607145899397564,1.9391284536287179,13.560582242064516,6.615189013794083,14.649953338502717,-1.7086035069139522,-0.03264199445544236,0.7553307493263433
2.956,7.031160688643387,2.412128130019731,10.649811095874362,6.563978774856821,14.272548123337494,0.2239186559402513,-0.8599093439173373,-0.41303057227812334
2.96,6.178403619545966,3.2250579820063368,6.505912699411923,6.00594543093335,13.087327762588588,1.6376686526020912,-1.760782622925802,-1.6974866462114553
2.964,6.219980755435122,4.223010760549853,2.582903647978389,4.6594738851684365,11.008898725897431,2.070853597486541,-2.820441335238173,-2.470296666687272
2.968,6.939557894586794,5.140480642797609,0.23229397007158248,2.483361256290752,8.255377426247566,1.5701703773146782,-3.980302362542865,-2.143022728722372
2.972,7.906723982865458,5.7592329244733875,0.10564289196885435,-0.17639109851951007,5.468556507094346,0.6755034616694253,-4.920085589791462,-0.42317159051343345
2.976,8.725196002142159,6.025690507295411,1.8927694185611201,-2.6088667493585995,3.5879137883292493,0.12273839471391712,-5.156504110712357,2.52980190938285
2.98,9.218394649049838,6.069530810753737,4.515504319965428,-3.9581130159035514,3.4709611854981848,0.42925407820605876,-4.328407409926391,6.105256115016495
2.984,9.473975319943989,6.131550809210655,6.691250500347943,-3.55058194560288,5.454966154580267,1.6020210002689053,-2.466706826662555,9.429870006405269
2.988,9.742658201911876,6.45269421131181,7.541626042997137,-1.1994508056064634,9.091704459190527,3.1361832727247614,-0.0914690800891027,11.677014005455797
2.992,10.239537700023494,7.163026450401671,6.9344887037635985,2.6544283914273277,13.217730093955268,4.299252946015644,1.9557271133945495,12.376060243656749
2.996,10.957255265128655,8.226049200605852,5.4054141179826,7.03634219442336,16.383107361878018,4.5313017147014705,2.8777175350755484,11.58824020927316
3.0,11.59785860319545,9.451270757160405,3.730192382901887,10.739714646904817,17.443921503277586,3.728465421674236,2.2854883698404658,9.865181604709647
3.004,11.672561317436553,10.55239532244639,2.449733895744287,12.7387962385841,16.047881232532692,2.257226117198914,0.3925245493314735,8.01761473001605
