Timestamp,O1,Oz,O2,PO3,PO4,TP7,TP8,Fz
0.0,-6.181721801112872e-13,2.1316282072803006e-14,-7.531752999057062e-13,9.450218385609332e-13,-1.5134560271690134e-12,-7.958078640513122e-13,-1.8758328224066645e-12,-1.5987211554602254e-12
0.004,41.39618013364367,26.67916744064194,41.593874941650476,19.228118388607825,-2.9186739998087674,30.908592198861086,35.40447363234235,-4.40224637863016
0.008,70.86123481457868,46.32034556963913,72.84479591087018,32.9157510870815,-3.918872446467475,53.23771268142531,61.2874956286397,-7.6999392458949245
0.012,82.01177979018809,55.162448220453285,88.07903654857415,38.17764034910695,-1.7854700331073161,62.27509085774811,72.35396988491888,-9.277115419699669
0.016,76.64505673908688,54.263937624630344,88.5145541019282,36.01276244833027,3.555966225278979,59.05304937702755,69.60308700219937,-9.24122816990949
0.02,63.14635631602856,48.5415310226975,80.95224164595575,30.48849484491293,11.04035195566928,49.3445479679321,59.25183354232383,-8.282119925854701
0.024,51.695885152109526,43.90167064293304,73.77319467922617,26.38746319362985,18.869353825545254,40.39880273820009,49.20038227033453,-7.264218303526718
0.028,49.02258174096643,44.114766330619446,72.57207244107238,26.688394832608303,25.167768928950125,37.2881175324751,45.03928938427489,-6.782850810384005
0.032,55.55593189219026,49.154233706729954,77.81917067581085,31.264300289330777,28.6080708536321,40.812002320998275,47.72629749713427,-6.935381168749991
0.036000000000000004,66.29166865865075,55.79424589901935,85.61688293752343,37.40580640431388,28.768231614659626,47.892969300538795,53.98915601441677,-7.414348728328918
0.04,74.46116564199087,59.91598496084331,90.76175714227568,41.69007481212861,26.139225538916982,53.94942270741626,58.9139604840575,-7.815346848657704
0.044,75.6131877533783,59.03689189303394,90.0393273635126,41.980874382462005,21.809772058334616,55.652793857328504,58.9934487224749,-7.951348395446487
0.048,69.78198553362718,53.61067326126684,83.84059337877457,38.43907649778567,17.012929977033068,52.526172675398016,53.89648919657014,-7.96341211253408
0.052000000000000005,60.785103609209415,46.49385560920829,75.41558881085712,33.102130653881424,12.701459549484774,46.697642131356986,46.17636295874923,-8.19586330780043
0.056,53.49030577682148,41.1048193358538,68.5567240106842,28.484589532192814,9.29274189427008,41.27137403665711,39.396346955866534,-8.945052257898155
0.06,50.91216762694019,39.46450142058472,65.30984590056948,26.156389841977976,6.669257612368433,38.488449411725966,35.96684887325708,-10.245328388080836
0.064,52.80887686851511,41.21823753398701,65.03411943248233,26.091435011820415,4.378214983629604,38.718014069086976,35.94855524500506,-11.833687847682775
0.068,56.37115942042494,44.08742890151444,65.20122780390568,27.040058898710058,1.93775531644836,40.70711101509471,37.36928460502325,-13.292790112052103
0.07200000000000001,58.31186249961874,45.361057242814766,63.250730485006976,27.538599877205783,-0.894715644451928,42.70944779746716,37.67750754612866,-14.277108803595247
0.076,56.91141039978197,43.47134284850127,58.26448504393826,26.839862844517604,-4.006720456025967,43.649419751225146,35.3499075234869,-14.685648227291885
0.08,52.79882055872265,38.7531263066553,51.45874603132219,25.20716734158838,-6.979321153615224,43.60468126725653,30.697624116834405,-14.67386705403188
0.084,48.13751301302421,33.02473885620412,45.28434580919459,23.457632940818353,-9.277187486143035,43.378993000918484,25.469370569006372,-14.528540291611307
0.088,44.967109848106176,28.385251548729375,41.857408723981834,22.19551539846781,-10.469781681706564,43.636102271346424,21.654306240681812,-14.487814918261947
0.092,43.89758846695918,26.044364516708256,41.79085943238895,21.325307826871068,-10.390334765991042,44.300349674074106,20.327114223786054,-14.628992502372185
0.096,43.9549181357137,25.864106314806726,44.10095935056282,20.173704415200504,-9.174932883946532,44.63060912460359,21.22019126733621,-14.894045403187025
0.1,43.51547679015074,26.759983267323577,47.08101566419933,18.10324827146741,-7.160753914336237,43.864385598197465,23.147569929002984,-15.198707986631632
0.10400000000000001,41.549384406610585,27.56381783046428,49.411322201151506,15.124414273477178,-4.715179461539709,41.86940071285679,24.840739130870396,-15.535909644878682
0.108,38.3112138974244,27.75475114727547,50.776520361564664,12.067121891750176,-2.0938154846203787,39.32919393165614,25.61997408801345,-15.993329877576993
0.112,35.10744439945029,27.64880783160451,51.71401222011526,10.19182664507785,0.5763000025102762,37.34112372086533,25.560043057104053,-16.693878308179862
0.116,33.4222605786116,28.031254112855496,52.95007226031692,10.494446536536277,3.1866836091494406,36.7287208053731,25.171771498348008,-17.712536899609752
0.12,34.0009964678109,29.520232887273806,54.735626204265174,13.135667612764426,5.510602680417712,37.54576260149356,24.896066968811873,-19.0184725716125
0.124,36.422291745693464,32.05341249008778,56.56585641166062,17.301335871803417,7.138402518694477,39.03932214497518,24.74658577762588,-20.478145304843128
0.128,39.377765844417574,34.818183798124835,57.438956089628746,21.5749956346222,7.5846464280244135,40.10806197594509,24.31066350018753,-21.894805009287325
0.132,41.448330067584315,36.66645445579476,56.471197156304385,24.607426761065017,6.5243884996445765,39.97628087058901,23.09307778374653,-23.059021266397302
0.136,41.88312989459632,36.76408153724124,53.478122530026816,25.700527462376964,4.019050425652033,38.65660443656974,20.960059799358973,-23.7950616136444
0.14,40.93357266044294,35.08977052938585,49.171908407278366,25.015147279887398,0.6009112763856415,36.93744313897823,18.382632762817025,-23.976285761082515
0.14400000000000002,39.56650979607021,32.45184333092284,44.81601840114706,23.30622365009117,-2.894001762778032,35.86397956897916,16.285717247511805,-23.537197168757228
0.148,38.77966474946958,30.017947510714617,41.56349061797624,21.392854332110524,-5.672774735156256,36.07021177526925,15.587033943687103,-22.49245648561802
0.152,38.992323033662515,28.66474694869384,39.89721855935776,19.709423789062132,-7.3488200964018375,37.389286222394645,16.728531118742275,-20.964817402361728
0.156,39.86086069146108,28.521137547200276,39.477319414884604,18.186691126739237,-8.115820613553641,38.978608786091705,19.480675994145443,-19.19270021337943
0.16,40.55882988854329,28.941582059217772,39.42309816266639,16.489286608378386,-8.593172362787275,39.87122577295372,23.087228630555053,-17.47082363524424
0.164,40.27589047502979,28.894579834734593,38.79819026319734,14.391487123398491,-9.423198951604718,39.54181563422269,26.619397212891286,-16.036501200394675
0.168,38.64748640765923,27.565316916381587,37.0737458608444,12.055315655421712,-10.8177944463432,38.16890104507584,29.359361039390745,-14.949556807476348
0.17200000000000001,35.95616023162293,24.87395414462021,34.41192963106582,10.061473327923515,-12.32180966866985,36.49022594318464,31.050677785604947,-14.054910708828597
0.176,33.044178397548805,21.638110351440226,31.671183911255703,9.183720907608624,-12.96463765024852,35.36035145376965,31.929770224417922,-13.07781042481546
0.18,30.96973810638313,19.250358344028676,30.09348559781653,10.023420872679448,-11.727658157687955,35.28377934548187,32.52088170928919,-11.807455730339928
0.184,30.51794536417497,18.97812419983564,30.729946731613214,12.659723980109252,-8.102282113717443,36.130804528451264,33.268836914376095,-10.274344074448624
0.188,31.778296669339884,21.254447198976095,33.86995212500322,16.503633163332136,-2.4245954666877196,37.203898372876715,34.218363425868894,-8.795194822793096
0.192,34.058869093414074,25.38341019112194,38.79854559517155,20.475171943682064,4.197128607242696,37.64485335964534,34.96033950546416,-7.84452644503763
0.196,36.214833510233944,29.849776552118872,44.049928430869315,23.445707518918518,10.31738708063192,36.95590247385087,34.90442802344211,-7.808815054287869
0.2,37.220603193067156,33.070963596482294,48.044865326940695,24.731308627353783,14.740903685433505,35.338640016884916,33.71362783372153,-8.738006952549295
0.20400000000000001,36.663670199807,34.15729666685682,49.75328956309079,24.36385657573218,16.944244864403444,33.60098647595012,31.60182328650695,-10.24408149530505
0.20800000000000002,34.90584954009306,33.276052106137556,49.061554614166766,23.016312161104153,17.14173807794013,32.69731989088535,29.300694845721907,-11.611192566807802
0.212,32.85858786500924,31.45910088298502,46.7063136645827,21.63578583537785,15.995292869570974,33.18735164680563,27.725019674059943,-12.087445613427032
0.216,31.496095204213105,29.986836352739747,43.82964016841926,20.966055754409506,14.147236280110107,34.91830852856561,27.51479073557761,-11.238240098812232
0.22,31.338312443393928,29.68578199301009,41.389820694213455,21.197030062086483,11.875485118534584,37.10469115756841,28.685302448969725,-9.175885261499962
0.224,32.16967178575229,30.508248582347747,39.70734178191308,21.89863509276718,9.061256618011612,38.71010993132532,30.567076670524763,-6.54414486571552
0.228,33.1813946636887,31.636049626096813,38.41521717325154,22.289364492413537,5.465520645441774,38.956569595273834,32.11512486024087,-4.254243034673582
0.232,33.483190651200864,32.04417184040915,36.846442791291324,21.708183501853192,1.115938255939387,37.7084916291839,32.462140276099404,-3.096061685324269
0.23600000000000002,32.66320026414214,31.15202820496926,34.55249728613826,20.013778315959954,-3.4638642600491245,35.49095910021336,31.376082434864443,-3.4017928656134035
0.24,31.057049780956888,29.18199386886011,31.63865401275463,17.69799334193874,-7.343135215963439,33.173388186943214,29.38211296087209,-4.901681162781426
0.244,29.594293086140244,27.05528708192089,28.75667178814247,15.669088326664598,-9.57549176551241,31.538996300530897,27.501939246513984,-6.83974651160155
0.248,29.259038920452813,25.866874306717527,26.729383600165708,14.7955061930307,-9.670892641425882,30.94239131504527,26.70563354851149,-8.287192281043168
0.252,30.453160148155508,26.232781004455177,26.034794397764493,15.437090928224752,-7.862314862465869,31.20305035655234,27.360945222814493,-8.505208267203711
0.256,32.66684694863321,27.903420370368092,26.50422065232027,17.230992880621464,-5.014329145147206,31.771793391039562,29.006062999582657,-7.216334183314924
0.26,34.702954302023585,29.89060678885109,27.465086689632955,19.272731310371896,-2.2063553861724525,32.07667168135637,30.609122469622214,-4.687334663774883
0.264,35.356291141779835,31.035403572976534,28.25241678211947,20.5966085617359,-0.2128841126219747,31.846698609016855,31.190905796622793,-1.6081701173010057
0.268,34.10057166044712,30.653229442244214,28.69239454341819,20.65992755232509,0.8385289466803254,31.202749290506517,30.411784524448763,1.1748871029916046
0.272,31.33999467513626,28.867558925994775,29.200316786563413,19.554922553883873,1.4550746007296933,30.48071733192219,28.76933612747133,2.9677898737780843
0.276,28.102686591950313,26.47754924796721,30.431585051229774,17.861868628586553,2.4209986660091047,29.933077655237064,27.30048097744858,3.4578744170205233
0.28,25.430988280928126,24.49752046128627,32.748874778302394,16.28319951496383,4.307556044491507,29.560097269748844,26.988821950376796,2.780964411822385
0.28400000000000003,23.86004125041091,23.655618684892346,35.88610956754347,15.294922012277265,7.123852403425463,29.181291822361807,28.228727441072763,1.4125556070412468
0.28800000000000003,23.236552772113708,24.08437478766843,38.996863251519194,14.981115264490583,10.297637178653593,28.63891667193632,30.602516359064026,-0.04709687819702246
0.292,22.936896220507016,25.319447576844336,41.04473190070771,15.110612191958957,12.982617567815446,27.951259588308623,33.064381370389526,-1.1056139595978376
0.296,22.34375717196162,26.584457168669587,41.32783971958803,15.389247101047772,14.493518386579957,27.31167730760732,34.446161730112195,-1.53746075142098
0.3,21.290059804496337,27.206987647472317,39.85936261124463,15.726276957682224,14.619844958458057,26.959013671725025,34.03947399315932,-1.418559198081252
0.304,20.191871595233415,26.947434820822448,37.38622580245623,16.334183817197854,13.649642816646463,27.017081882864975,31.95081591413781,-1.0501419779239747
0.308,19.770902270652847,26.067731865332462,34.97919214787913,17.57985276531974,12.12392694134105,27.393324810533493,29.01691490349073,-0.8076206465607063
0.312,20.521950756777454,25.120705617996798,33.408127545872226,19.667125664332485,10.495760165553694,27.78784641366323,26.314399465668014,-0.9787079959726492
0.316,22.291085445329216,24.60920174709014,32.69626536761588,22.357458702349177,8.904397687427064,27.822535640298188,24.549991196907172,-1.6608657239224773
0.32,24.287522848223514,24.747939660475378,32.17327884349335,24.951190026544847,7.211566310162443,27.25546283143906,23.71696400754191,-2.739423907681281
0.324,25.533216382209783,25.440206115605374,31.003745269043506,26.56979583907091,5.2424462398609855,26.154529672056377,23.214412690721183,-3.9476526648056867
0.328,25.42345662322946,26.39978659533964,28.807151150663476,26.573211423126203,3.0518859801478584,24.88853780292069,22.293374050770474,-4.973384923009604
0.332,24.042008659236977,27.304162900153,25.957201748711125,24.880771194313045,1.0330211246368073,23.92541334867928,20.541264883002935,-5.559538857002163
0.336,22.058984184552532,27.904348768883033,23.393029334239763,22.02891146784915,-0.22580593551454164,23.56632934548407,18.140932520518636,-5.567678943258922
0.34,20.330025243593774,28.080385361377566,22.095355848277926,18.948642475763073,-0.2538863696732676,23.790422650344645,15.786632191183664,-5.005347597864432
0.34400000000000003,19.476339722836848,27.854034558883384,22.56749410234075,16.58392854451606,1.0045371372064125,24.305308717138708,14.328542940690724,-4.026790145315712
0.34800000000000003,19.650418693405932,27.346259988763677,24.579876450764885,15.512792738665716,3.107128102123852,24.727234965928936,14.320518305973625,-2.902814722239201
0.352,20.569876338256122,26.695227940494846,27.289142974305605,15.737753246675151,5.319279433048521,24.759316525957907,15.702341757230759,-1.9543629600362404
0.356,21.75086451196287,25.973684384811747,29.64545739662975,16.7258224806803,6.971720370890464,24.280263316269995,17.78774553900426,-1.4763676339448768
0.36,22.77527328261249,25.163674299934254,30.87840815275677,17.68359566673677,7.7626928405032345,23.350912751150787,19.587930048183544,-1.6582427246458096
0.364,23.44641083691356,24.215702980205748,30.819112605612123,17.937127557611433,7.828743351169138,22.17079009369182,20.30206650211443,-2.5283216514007503
0.368,23.73596566657035,23.125541877595712,29.864570608124026,17.212011823004005,7.55890073124838,20.990683362771595,19.677517322518423,-3.937999181465333
0.372,23.611317308244857,21.97152359970968,28.635225346843974,15.699690066575622,7.2956722399275415,20.01092373897632,18.050058158222484,-5.586137079961207
0.376,22.95488777092862,20.906948836179357,27.57934621351271,13.9247301567449,7.1221721714372705,19.307287922578123,16.093796962217315,-7.099574333358476
0.38,21.67904401444528,20.107067251812232,26.782875016628623,12.50191198293385,6.864363259501711,18.820659314154597,14.472499064020194,-8.160020399533213
0.384,19.972265947444534,19.693750770168236,26.076629850924363,11.902982336158377,6.286241384950501,18.423040007596892,13.607637728800594,-8.624689491428274
0.388,18.419687265850243,19.64010824608818,25.273811638804652,12.298085573763297,5.332237616849205,17.99220385524537,13.624000438394699,-8.58313821647719
0.392,17.79836760775019,19.68971891483652,24.306297905530208,13.485164547813016,4.225205994133619,17.438828152891805,14.410316943465078,-8.329714750583728
0.396,18.61059192020631,19.37879994201936,23.18964581980196,14.931550387562657,3.3350969904851446,16.699689477568043,15.72446869103406,-8.248914191710776
0.4,20.658407269952153,18.2259515415015,21.912547421836187,15.942544695455798,2.905081751729704,15.747472302012817,17.27697150353617,-8.649675482172817
0.404,22.988897088667883,16.048352129777278,20.40614939196012,15.92343944788519,2.828891857556041,14.627554478757515,18.7840309888214,-9.618598731727799
0.40800000000000003,24.290002035690367,13.213494216143971,18.62498818201211,14.630548540846586,2.662850597479934,13.47113999095105,19.976768300749683,-10.95386255886088
0.41200000000000003,23.564269361220447,10.645148183639934,16.67719716358287,12.307174717369268,1.9055135112563972,12.461316394794103,20.60217899342445,-12.211528824099698
0.41600000000000004,20.734992706032557,9.526903279854727,14.895658452198411,9.64695750169247,0.3802412501735217,11.77266600035737,20.47463565089965,-12.852745759183993
0.42,16.818731161053186,10.810928409567543,13.765574575211026,7.573459088372598,-1.5396410640389888,11.53637566055751,19.576426376335235,-12.443412639652625
0.424,13.533607832553937,14.756820783214682,13.711704548625958,6.907798127835687,-3.0469526666615914,11.850128344166954,18.145734312044592,-10.833823376306182
0.428,12.471648786449494,20.69975088551246,14.8101899355879,8.027263919244128,-3.3315178036999686,12.763298621097878,16.640305325474475,-8.237077619095892
0.432,14.235956692633845,27.178595066263732,16.603586435052776,10.651823280545019,-2.0841035380867696,14.208307605834886,15.551900070775845,-5.163779025051882
0.436,18.04554898829108,32.41722387256268,18.199424565715802,13.884217374803832,0.2389231203128519,15.91311397184771,15.172036569124844,-2.2407402629733744
0.44,22.074267638582953,34.982084406261606,18.67819571948575,16.529916002622894,2.5740008189298758,17.382591440616103,15.467419112256895,0.0050695573587775655
0.444,24.387883898030747,34.34595621032334,17.63353730918529,17.593728820879203,3.7764280017963037,18.019911598111026,16.1559178450848,1.300674703654109
0.448,23.937220850509863,31.066683596410144,15.47224744724155,16.711367321406136,3.232868034354804,17.349499331802424,16.90712908604314,1.6614962749347475
0.452,21.03850387343439,26.478899420991375,13.234255479759412,14.294392260628928,1.2115099044921829,15.233439822747041,17.51395662499615,1.3065430684621884
0.456,17.10697823174507,22.068148698514634,12.011122272330176,11.313909642566896,-1.2723399927125243,11.975718084219928,17.932549863360308,0.508348624657132
0.46,13.839639962183469,18.851314902064264,12.313792332388006,8.842554867955236,-2.999357104607544,8.264312577601622,18.19059521756708,-0.5400934187161184
0.464,12.33282891680925,17.061645715804943,13.784797674739055,7.585098194494663,-3.1955787922498082,4.960153680415793,18.266403024242305,-1.7792496227948247
0.468,12.593080926312021,16.24334803823396,15.414337130940897,7.614942665721758,-1.9145988109349066,2.7910759456786094,18.0295548185902,-3.2335700275791384
0.47200000000000003,13.675754707974663,15.644125388166906,16.13594884952494,8.433790627513522,0.0692349171313058,2.0816409127370905,17.305599858150167,-4.891908099189821
0.47600000000000003,14.327341032452843,14.672535481077194,15.459576515104564,9.30210004324311,1.7657309005859294,2.653581359357062,16.0426814996067,-6.610632691754196
0.48,13.749892977046402,13.186224994555541,13.78066411300938,9.662813082071924,2.5583536960197533,3.9592044903729016,14.470293150964904,-8.11303683982185
0.484,12.057683715256651,11.487012163279498,12.180910970310535,9.424945397352593,2.5148637220587258,5.371075506444558,13.116797658529903,-9.101132283660636
0.488,10.15106857405381,10.046052817339653,11.79282142393352,8.952988882892228,2.2489973068309372,6.443604776582186,12.593557013152719,-9.408851598544834
0.492,9.110626863488442,9.14775520290134,13.083105648662572,8.787267274012741,2.4530721585356625,7.003194450751235,13.217236133022883,-9.08536713906223
0.496,9.495092106193031,8.679055029292961,15.496705406601254,9.277235661567952,3.4060730478066583,7.0567043947879196,14.719174698026212,-8.347583978741628
0.5,10.987731651979182,8.213237711779062,17.71614693306038,10.37010268223313,4.769309480308848,6.656222828556954,16.264440523069247,-7.420761340706867
0.504,12.626007764285264,7.35885656948583,18.43549303838239,11.699656270697314,5.807106422775451,5.864632382339901,16.852907671635673,-6.368543392559086
0.508,13.425166767624605,6.11226218526631,17.15997524835313,12.887995485081618,5.88328645257461,4.82839975105154,15.875836320137372,-5.039236327394485
0.512,12.977109458689561,4.953017719658314,14.525985520724166,13.835649350046838,4.907276133364826,3.868979100857934,13.480761520205288,-3.182495159033646
0.516,11.674519655786986,4.600557345822299,11.94738643987876,14.792510482719102,3.430325456767342,3.4637279231106763,10.501835262170534,-0.6962454411925734
0.52,10.422957122125101,5.5569828626857,10.805035976826339,16.147814113423667,2.32243323289084,4.065851888570446,7.986102976601366,2.1469804411707454
0.524,10.064842052027227,7.732744134761699,11.678479193195741,18.082836793923114,2.23841761519874,5.837045235505538,6.614641367173814,4.667282125086329
0.528,10.870917467928088,10.401972039022336,14.054453339548688,20.327644554850966,3.22720307973786,8.444068235526034,6.343551170065844,6.034555084654693
0.532,12.379483521339028,12.533744300984834,16.666328826333523,22.20058605577184,4.743411012657455,11.082035679541693,6.487330606096577,5.723834304565903
0.536,13.698256322957743,13.347257565207824,18.27190138987486,22.950160143495836,6.053355353986831,12.786052999368776,6.212090814329837,3.912863179202889
0.54,14.08017222994042,12.769335825184827,18.4057074001779,22.21297231018891,6.757374779060643,12.91184782334064,5.122089379374064,1.5434171054474928
0.544,13.404689721535599,11.500077312360503,17.646187777057822,20.284038551484205,7.048183524434407,11.510739723248562,3.5417083011900656,-0.09225172009897076
0.548,12.222803855177405,10.581852859493234,17.17880360871166,17.96554948944463,7.495329566357682,9.313060029476096,2.239811029220308,-0.09721617375965996
0.552,11.29646801898274,10.672077026101283,17.880895739547405,16.032711480326107,8.46868386152801,7.2636884977352265,1.714997398819201,1.3464957424864379
0.556,10.923669724058493,11.452822275448119,19.496797818527853,14.62572268824156,9.57820197824944,5.8528156709198935,1.521047639681563,2.7755336723579576
0.56,10.527257681438343,11.598918174024123,20.482529992138303,12.991966735967072,9.565637377672575,4.682758429868575,0.1630225843171882,1.9500977958034897
0.5640000000000001,8.871193085766835,9.445374764235716,18.739495282859107,9.851241906147594,6.842504020216127,2.625388875631382,-4.20422857116267,-3.0733622550259714
0.5680000000000001,4.8226219966640045,4.0258621416842795,12.870867988938937,4.242805833998494,0.468506753328799,-1.468759161687415,-12.583490007862322,-12.780998178497061
0.5720000000000001,-1.7578831736897418,-4.1018035433885025,3.2550926750206166,-3.6114658369680193,-8.961761546890571,-7.892217029449581,-24.133887517882588,-25.562690280115778
0.5760000000000001,-9.540551617312751,-12.759555417911287,-7.7084372329188655,-11.971929304806032,-19.099864906640107,-15.558860981523537,-36.01690284252419,-38.01811120017989
0.58,-16.02265951076197,-18.933895460756588,-16.40807587530969,-18.072087711266096,-26.551681760221612,-22.20248341517193,-44.32062788493468,-46.167591773843164
0.584,-18.51193999453422,-20.09631874367211,-19.531880562778127,-19.275433990597946,-28.27614167557864,-25.274500459607488,-45.689994914392855,-47.07059443842073
0.588,-15.371380090234485,-15.417007759467893,-15.57606028331819,-14.358755946583695,-23.01429974091776,-23.136574620661033,-38.88628991565646,-40.087773357630006
0.592,-6.916269562059146,-6.2439923341685555,-5.6072175269259725,-4.247783918200096,-12.005120053617585,-15.932397516264627,-25.472147306526033,-27.16806333501495
0.596,4.535874693161219,4.439499954858023,7.128113372929959,8.222859740741628,1.4146915804871352,-5.6596553510788326,-9.228582067786366,-12.02152742825388
0.6,15.536495291521048,13.329479522828487,18.5788671479981,19.451984395754238,13.170863760651539,4.63615308250222,5.444595664536223,1.421609343780255
0.604,22.909799490420838,18.23302284741557,25.594230366947635,26.5672402050025,20.117227069247384,12.163333274727115,15.35712890215813,10.515566930899649
0.608,25.00372403764998,18.890337803246666,27.109377858852625,28.525145829513725,21.216830363238717,15.50511099463529,19.667201151792533,14.688651145870521
0.612,22.18198918468398,16.785038683484423,24.26257682556583,26.279955150009837,17.707092436990095,15.00357974919724,19.804566100050984,15.22293742309892
0.616,16.390225508986628,14.118691249627277,19.497298082689298,22.006131512953367,12.241949188788297,12.282993162497204,18.330810007233225,14.243383485767996
0.62,10.113808915747937,12.574386624320386,15.220057642762661,17.871921550785427,7.526433456453217,9.26208436533711,17.44645307571811,13.519460196694572
0.624,5.307619851833827,12.5564923262177,12.74896764099486,15.050350992750378,5.147347525943664,7.224711890967086,17.97081609238385,13.694282250178563
0.628,2.777231952040245,13.25106866744423,12.019957468092768,13.446739462523084,5.144660836132676,6.403216025299732,19.259027886649424,14.268793057774104
0.632,2.18850984651519,13.364136117506082,12.055742085534476,12.165855433700235,6.419938751694205,6.181265624611989,19.940405831307576,14.221553213077321
0.636,2.5672973041644203,12.0362871867564,11.805495117568576,10.329582996680653,7.616922690609597,5.686215456155327,18.936410431889236,12.808682155056973
0.64,2.948924033135563,9.386960651170181,10.833302191768778,7.727330176228502,7.930567162798528,4.385437845684968,16.146241592689684,10.062807869236048
0.644,2.8396601925068294,6.412762871898569,9.499688514355741,4.938339442784347,7.41542619490566,2.3667216174721872,12.470260005396518,6.742875612649669
0.648,2.2963431056930945,4.353037011607017,8.592201445823978,2.916038268850354,6.718161778336089,0.19639773868644506,9.236273515255752,3.842770997528854
0.652,1.6816156761494216,3.94191234686906,8.692982986972128,2.356870440233217,6.507599469898839,-1.4814217142814905,7.429617585904573,2.014896012109552
0.656,1.3347938299446427,5.020171158040946,9.718002818865099,3.276425959894638,6.9989813917804025,-2.31574229141472,7.214174895387301,1.2610439557034994
0.66,1.3688019651554821,6.720720465990894,10.92020064550194,5.042306729620105,7.855832693132749,-2.3655077601173224,7.989466632580665,1.0467305950741266
0.664,1.6941221364874641,8.084229574855119,11.34148568425826,6.801860048351434,8.466343359895333,-1.9367222510899156,8.875400385281608,0.7119660134717334
0.668,2.173964073666541,8.679909131134057,10.385854398470599,7.988805749903647,8.359445471817791,-1.3141587814762303,9.249167345178986,-0.10161969435414031
0.672,2.7463780158962603,8.824270951720514,8.137208530203758,8.564767021322574,7.477819262548346,-0.5973675294088578,8.991403771356882,-1.252189935475144
0.676,3.419348231078769,9.277888110853814,5.245885600946534,8.871597062792299,6.144411508120311,0.2584795574139238,8.346233049266942,-2.2170474833827694
0.68,4.1617562180749434,10.630045608735882,2.492866118073164,9.240092415381739,4.7840826913216885,1.2719806186329135,7.566005359786232,-2.4206983127444124
0.684,4.795170528027209,12.775399184173464,0.33885770364734835,9.647843049278634,3.613015008669971,2.2945647418017474,6.649232659522669,-1.559940131985285
0.6880000000000001,4.971114779481207,14.811485962499335,-1.273873376221255,9.662860987412792,2.5215567372806946,3.0075924341759523,5.359227271639529,0.2549769671489708
0.6920000000000001,4.26095512444547,15.430270837597561,-2.765060457854591,8.70163575839376,1.2310699998290033,3.0656425789059116,3.4837580311755563,2.5849744991214174
0.6960000000000001,2.319050279149101,13.590656458710328,-4.5296291522895515,6.417770685947137,-0.40212670344838797,2.284408253132625,1.1277593853640968,4.8703907299513896
0.7000000000000001,-0.9284288139804251,9.116585266447796,-6.573070324810453,2.977413590205226,-2.1523360228294948,0.763197439199452,-1.1810405320443902,6.630754468452407
0.704,-5.156257656393011,2.8945910511580863,-8.394090874729677,-0.9570636199011213,-3.444632835301994,-1.1355227682202451,-2.6662948191453033,7.556857657019444
0.708,-9.66393220461557,-3.4493963847228715,-9.211184571058137,-4.534209036732054,-3.636713819292024,-2.9516901672905558,-2.6962380986835575,7.49397630295911
0.712,-13.54908321665129,-8.232050925840966,-8.41546997546302,-7.121408979072651,-2.3942017262932254,-4.341096442076012,-1.1784536941759587,6.391769066950946
0.716,-15.998859261421813,-10.425268774210668,-5.978837958326371,-8.573484617774392,0.054749236171313775,-5.224399219692383,1.2931004741140653,4.280959149633345
0.72,-16.585675433339123,-10.051328784834176,-2.5612215577125412,-9.208747402286033,2.954495458533375,-5.783669378566401,3.642641731537499,1.2971359985456585
0.724,-15.424950542654628,-8.077002668812328,0.7635169404620665,-9.516898264967294,5.32912312662892,-6.307193613853411,4.773692421790874,-2.299701279617726
0.728,-13.135751809233932,-5.8900084259985075,3.0189472727119036,-9.79795266466979,6.41501766440447,-6.98459351812731,4.05849988454483,-6.147977108413822
0.732,-10.634182916661373,-4.650232968617674,3.7693681329928275,-9.969034837781162,5.988049745774009,-7.786065106390851,1.5921905637046048,-9.859075083588314
0.736,-8.809354452626263,-4.81330832764025,3.264513708668657,-9.637934589419029,4.422378899463476,-8.485416460724513,-1.895553931077992,-13.105898584280357
0.74,-8.205499554443806,-6.023494436581455,2.227383200445935,-8.38382059536321,2.4656543940503672,-8.795085184171839,-5.402312268542586,-15.665411755331695
0.744,-8.833762437115226,-7.382990948078193,1.4361739616755145,-6.066410574904783,0.8546387052680995,-8.522601913578265,-8.07304428331429,-17.398840109036236
0.748,-10.197422945641296,-7.940622830093328,1.323296427676743,-2.9800836039004652,-0.018876620239769437,-7.670708828939469,-9.496680748195887,-18.19355777254117
0.752,-11.538117149202677,-7.168273707007849,1.7787194644776942,0.22834112317691324,-0.23924713578947987,-6.4349407971710875,-9.77980472940347,-17.926525285761564
0.756,-12.181184983094093,-5.20719433863817,2.2463833534781976,2.823824952468061,-0.2693349774276599,-5.111132623964875,-9.393460557055352,-16.500805485237596
0.76,-11.80613528717954,-2.7844230039171056,2.0397381670892774,4.284915289875132,-0.7081349813891582,-3.9559624115969294,-8.905869629751383,-13.948997161804236
0.764,-10.51903095534025,-0.8563232823069331,0.7108954643570211,4.480394508527398,-2.036913940818292,-3.063333608435187,-8.719830286900404,-10.533281201714434
0.768,-8.726186066284598,-0.16947238092868488,-1.727320346652557,3.63750470000908,-4.454944887991516,-2.3321186973696766,-8.929268940063762,-6.745405865936872
0.772,-6.927977110547234,-0.9686098862138426,-4.845364323832605,2.1319576106704465,-7.851274990123544,-1.5557210766776457,-9.368098103861513,-3.18092998093063
0.776,-5.549030830183899,-2.9690422547605024,-8.049563866618815,0.2296874028390068,-11.873604552126327,-0.5934322462700394,-9.79321168182927,-0.3404627370855291
0.78,-4.858728437830397,-5.558486719923412,-10.87126459901637,-2.0448985446653314,-16.025137176590043,0.4903750156158354,-10.075223265000789,1.545888111256037
0.784,-4.956066329183279,-8.09081074168527,-13.11186133361086,-4.829389534882807,-19.75434928142793,1.411319257631324,-10.279518018319548,2.5586429016815115
0.788,-5.778759307555886,-10.127230366709572,-14.796798376455431,-8.195115135173761,-22.53361497713348,1.7939210102870402,-10.609261342800536,2.963750190939188
0.792,-7.10822903950257,-11.53594666844825,-16.018891955285543,-11.92765376969883,-23.950504870640426,1.3826667061945908,-11.263130285974007,3.0010346666243146
0.796,-8.565291876453193,-12.433130084909823,-16.78594188421527,-15.471078130416847,-23.808093157551603,0.21474239799047168,-12.297930477636644,2.7166031226920992
0.8,-9.646956892650003,-13.034265914202749,-16.96940794303957,-18.093469369374446,-22.204789435722873,-1.339793853845014,-13.563665245658743,1.955206197995019
0.804,-9.84559321126716,-13.50515604078586,-16.373116351897608,-19.20551009217057,-19.555410632450766,-2.699587791299753,-14.738132436526602,0.5191171687532279
0.808,-8.834207523044425,-13.8714328250326,-14.863683078367313,-18.65452944360363,-16.491448580080807,-3.3149354458576554,-15.444937970662615,-1.594509187520659
0.812,-6.650103153208839,-14.021692417042583,-12.48950212827247,-16.82974047870237,-13.654145050677414,-2.923947143148006,-15.403568129464308,-4.035207822039789
0.8160000000000001,-3.7463254134527446,-13.772766745393946,-9.513108930333422,-14.498224795794641,-11.466673054246094,-1.6875457132985388,-14.530712778876197,-6.13447884777557
0.8200000000000001,-0.843884778753349,-12.95152419638136,-6.337493861033721,-12.433640987748085,-9.988056130363532,-0.10734610168306435,-12.949728981242082,-7.136236616697772
0.8240000000000001,1.3792292182626653,-11.454707611179023,-3.3609513336138086,-11.032800964871642,-8.941903391083104,1.2367685753231843,-10.913482694259963,-6.52160269777262
0.8280000000000001,2.601346662669995,-9.291044791551055,-0.8484540552075508,-10.134966375344863,-7.90927934774853,1.9869718072389269,-8.692394113797295,-4.245749292808341
0.8320000000000001,2.9812497857919276,-6.613507143695038,1.114496757020543,-9.157173518041418,-6.572342791148099,2.189858877301237,-6.493735746443743,-0.7453223886856577
0.836,3.014109353359654,-3.7319379845185026,2.5726718624156284,-7.486099679344307,-4.88658614416566,2.2461317746007943,-4.453052676887335,3.2747824464755624
0.84,3.2124069817282486,-1.063840246670038,3.6188699517865857,-4.891138822733737,-3.079155142267389,2.6627272844835694,-2.663675004954971,7.1728191365119205
0.844,3.8141829110671486,0.9916225064857755,4.345256313633678,-1.7182527490582027,-1.4954282621766994,3.757690460349915,-1.1903058542542109,10.632146722832589
0.848,4.677861855256092,2.203772546614248,4.834211886031385,1.2413236126974088,-0.40319173089095184,5.471821583491216,-0.05895861107202016,13.720050165175385
0.852,5.406605980879544,2.6088092577338924,5.1649742215392935,3.1398889971609045,0.1328201853949782,7.388559689785165,0.7629845316959329,16.735927404872736
0.856,5.604830782625137,2.4872842739049403,5.407097429942578,3.5068916255221705,0.2329838022555446,8.943109168472368,1.3730846112287898,19.950089082873244
0.86,5.102807418805305,2.216635758298665,5.594606745902565,2.493879561157452,0.08172851455233676,9.710798135419122,1.9048755353054236,23.403958633708875
0.864,4.02942918012458,2.076790179835937,5.718539816651556,0.8099998572137275,-0.19419355546286443,9.63137623363366,2.4910681757505078,26.87993695964973
0.868,2.7023978505662845,2.116500254243282,5.746380006024421,-0.6116840669579267,-0.5536353099721838,9.04549993708745,3.2285200154372244,30.041021610199948
0.872,1.4456807213734217,2.170745250536757,5.66435466803131,-1.024402790134431,-0.9443800284096717,8.531111360058672,4.156630144039827,32.64561218100337
0.876,0.4748116020447599,2.0229978633858345,5.518864479859298,-0.15046290174109345,-1.173096909715607,8.621476686192185,5.264570935429111,34.68231654958391
0.88,-0.07516364535457898,1.6157312533175507,5.422869605064814,1.7943114633234496,-0.8528900002191655,9.566747463764163,6.505299445797551,36.35349139407696
0.884,-0.02251567623091777,1.1817587787414707,5.532285614072006,4.315569243514043,0.48621869847017685,11.26320944233235,7.809961998011781,37.92015371502428
0.888,0.9481279609348352,1.195966432598091,5.9948380627715405,6.940299263297814,3.1522288838189247,13.349672626072836,9.091405023236064,39.512839155423094
0.892,3.205374572153147,2.1507057317701834,6.900038336764265,9.428085879010872,7.066692020265068,15.39835535076925,10.240719344723765,41.04123698649886
0.896,6.911455631742593,4.271334846239258,8.248923906767176,11.7841475992151,11.699178662474786,17.07053348695232,11.131845113361534,42.24716490841699
0.9,11.747974440333973,7.3430510412347,9.953637676825409,14.11069728687442,16.23039592930606,18.16804259749133,11.649425467010953,42.86126483704048
0.904,16.839168349790576,10.767156466192617,11.868459282484977,16.41698890628641,19.866613990856926,18.59827235103907,11.740139644373375,42.74955611356881
0.908,20.95373500028161,13.79357919788005,13.795045699173055,18.49338974059145,22.12675330799464,18.2960442836666,11.433557107291382,41.94733419568021
0.912,22.936257812825474,15.804545946636464,15.456192297346181,19.926806287000762,22.954151272903985,17.19115131306338,10.808068564578576,40.57972096971387
0.916,22.175632256507875,16.50005854283577,16.487181169284984,20.251596736679698,22.606520309382866,15.265179762104303,9.914962447640363,38.74365138327796
0.92,18.866455596125945,15.90534525293345,16.49507052300278,19.15997360292008,21.42218951901765,12.670850954492833,8.708698845756945,36.46413915759766
0.924,13.940334141642191,14.253846224474353,15.227695689918765,16.680189579241326,19.62931237324325,9.83045140479387,7.070971964212642,33.76569494228705
0.928,8.717151037913652,11.859014547679141,12.783424522194036,13.247854404809548,17.32568602533707,7.411999007973373,4.9371252701712365,30.815749590771713
0.932,4.435273755581912,9.054015865888728,9.71178398742805,9.627753218449254,14.61699318533475,6.141266378838935,2.447454058968681,28.018441746072302
0.936,1.8646816114139808,6.2077811235208795,6.885566911308065,6.691510554071679,11.776065975654488,6.4998263909073035,0.015460405333657334,25.944169041413424
0.9400000000000001,1.13631250558059,3.7399094567692615,5.135364203343425,5.100830385889089,9.263360798550773,8.448725691217982,-1.7801099744870124,25.086705929800946
0.9440000000000001,1.823231835939339,2.066735886927995,4.819090528722905,5.02592598989444,7.544433754284541,11.3514498263373,-2.4408484311137943,25.56259497558751
0.9480000000000001,3.1817803235721946,1.4613235416410895,5.561587518180337,6.026099073326365,6.803705004279528,14.171973509995546,-1.82270004541253,26.94085707484894
0.9520000000000001,4.428586205864698,1.893557778365503,6.3595715272807585,7.177086695813282,6.771658887070846,15.881006049061888,-0.2689420487001062,28.34600358683146
0.9560000000000001,4.955343091086223,2.971326966032165,6.056848388956401,7.434556258812842,6.8172175038891725,15.885345867002554,1.5050153060324174,28.822090759570784
0.96,4.463369958857939,4.078646114295794,3.989601485188014,6.119308557959187,6.3157045408533765,14.282094767924685,2.748168693610338,27.800195437834134
0.964,3.0226916858222714,4.674950029157643,0.4672259937081291,3.2930482972505746,5.07949216902224,11.810198908576272,3.074102507911393,25.40454618834362
0.968,1.0567812984818392,4.5971963703004,-3.215299195198125,-0.18245840734293894,3.5813235002675583,9.50195560177305,2.7032770285029413,22.412860739771908
0.972,-0.7513311903139215,4.184689480696678,-5.2997745563857315,-2.967822442996864,2.798050571247913,8.199967057237647,2.3858086273927057,19.880125703421694
0.976,-1.6567438595551303,4.11452933871055,-4.39860061796918,-3.84899732896897,3.7076259023398688,8.169483101409343,3.016783083128316,18.60713615513854
0.98,-1.1326748089413292,5.00801361695489,-0.22101294369184998,-2.3425141376238745,6.70786563828984,9.001614103451434,5.138258157419972,18.734046384242518
0.984,0.8947133883484422,7.036075610105689,6.221620059752187,1.0266840081059136,11.294872881999517,9.866191235102372,8.613224708583825,19.67688387071455
0.988,3.965426557997591,9.748800787438892,13.044118258285877,4.931802428875948,16.20017216095715,9.968790068003848,12.63606176796014,20.427248907933823
0.992,7.21743783726149,12.238820539984859,18.3266486366987,7.850560846535659,19.93290671179192,8.980166716361992,16.06802511750824,20.05747258917431
0.996,9.707986199024155,13.561602350125762,20.923815161505125,8.777026927922698,21.431467846605383,7.208421515554587,17.910828095077967,18.16518023297853
1.0,10.776531565330977,13.18696030485383,20.824701607072424,7.668156198403642,20.478076627071427,5.423070742743658,17.675805417213162,15.04140430158703
1.004,10.316092696345791,11.256950223487818,18.94218455263046,5.406581976367621,17.67186792732239,4.445083140140921,15.499890665921942,11.496597070271692
1.008,8.820958835907899,8.517366211147554,16.489561513041608,3.3023676358211236,14.011427908068324,4.716684786784835,11.988966357374952,8.457470092921215
1.012,7.170232605493723,5.967348411033346,14.323261451542546,2.4142565818099824,10.369468906503819,6.083763431243947,7.920517182567544,6.5601291187992015
1.016,6.2390627594855115,4.41774587070514,12.613823189938934,3.041599441550529,7.162215240416106,7.886825060503297,3.9800777930290003,5.930222444616145
1.02,6.495689351029283,4.1649485825507195,10.973537240344388,4.6269490018452615,4.3714385470725095,9.29025271924586,0.6315055566515202,6.222014050221353
1.024,7.783194710878034,4.933872979329215,8.907908890353633,6.100633065568328,1.835289909034442,9.6877348882941,-1.866664874019845,6.850133754326818
1.028,9.370277183013336,6.075175934863868,6.266209468596323,6.4461984439844,-0.44578836042884706,8.962200738661618,-3.3911304431334495,7.262490714818972
1.032,10.266596833799476,6.891496983403934,3.4037263156658764,5.186321722434743,-2.2140020187397518,7.481560500784253,-3.9256013051453973,7.129955935227099
1.036,9.668444647644243,6.929711273791122,0.9769097183047286,2.5576156754747092,-3.136648941354514,5.855061964415756,-3.586885992011398,6.392858622752044
1.04,7.3313406073515655,6.106394390784173,-0.48032030995756436,-0.6726041006707959,-3.1155872108195535,4.601232647967083,-2.664090220508566,5.191237291813772
1.044,3.721602227532605,4.657701128702202,-0.891906508195075,-3.598612525253298,-2.4823967852852196,3.922189897686894,-1.5874506628052352,3.747941852513849
1.048,-0.13471429885054675,2.977447281205924,-0.6636995898170657,-5.556967791299553,-1.9043954808447427,3.6827991383441483,-0.7922914421631901,2.274149003621151
1.052,-3.0653244557069232,1.4398290460130116,-0.3870834918609063,-6.323914378718707,-2.0144024592009924,3.583764478797513,-0.5328839665789893,0.9373420094000862
1.056,-4.257886711342824,0.27520310180220164,-0.4382009170547789,-6.092008574249112,-2.993047740294556,3.3896181058943693,-0.7690162607731992,-0.1390492128702263
1.06,-3.6381431449922834,-0.4766583882051574,-0.7446974364012817,-5.306598780429269,-4.37796570677695,3.057190831754907,-1.2285923206604608,-0.8798310772022253
1.064,-1.923136212446709,-0.9274846849178751,-0.8541605387783964,-4.479884683580214,-5.258054498790884,2.707449192556749,-1.6115247120683556,-1.2829125739279625
1.068,-0.28190939988985386,-1.2441083252139125,-0.2546811490703531,-4.048710004399245,-4.775097154497369,2.4727645631699686,-1.8181581698817197,-1.4572066465760027
1.072,0.25069483224857625,-1.5403906550667497,1.2591851965824947,-4.282761200961289,-2.64585593197822,2.34080763784136,-2.058291504476669,-1.6393962685589942
1.076,-0.705450189232059,-1.816277649823082,3.4098345474371197,-5.232697556102003,0.5971578357622604,2.0979629493224117,-2.7552502138779804,-2.1540401104089586
1.08,-2.6883209687437013,-1.9735063968456181,5.552511461245315,-6.701620620131354,3.806202400914664,1.4180575843300922,-4.288280276635931,-3.317033056600121
1.084,-4.631397231303749,-1.886616533967727,7.025076326502635,-8.246338530492238,5.765158533193169,0.06224937724865681,-6.708434711728829,-5.310018414657212
1.088,-5.41934122423589,-1.4902143109613295,7.510608412080327,-9.254208311370046,5.784285416611613,-1.9333072233367237,-9.59372851028515,-8.07035594286901
1.092,-4.496275305335168,-0.8473353743353922,7.175935255567925,-9.135208282073101,4.004553341972038,-4.20938723407116,-12.163517169108832,-11.259394392187858
1.096,-2.184720729701246,-0.14781638800455354,6.507491900133061,-7.577611667125092,1.2556756620658653,-6.220003705348676,-13.611712207357868,-14.334439393278517
1.1,0.4470980233432469,0.36294978291747526,5.939828643921759,-4.762822948104452,-1.4442521163624278,-7.492090276002932,-13.497178120047902,-16.71256156590426
1.104,2.1094355059099774,0.4923610633039237,5.530596693647194,-1.4134187886307457,-3.4674392912416545,-7.868006924797371,-11.983653436044694,-17.98147136190688
1.108,1.9352669140826473,0.18828488337368388,4.896066551184096,1.4013661019775572,-4.889479975477615,-7.588831180477963,-9.798377963949685,-18.067199334616213
1.112,-0.10868994347696725,-0.45073730223964237,3.4547920918008677,2.656921338723102,-6.360597110501732,-7.1585655328878595,-7.922859094168254,-17.27619130399713
1.116,-3.264012937844497,-1.251899456403235,0.8418890562404246,1.7922639198718286,-8.614348109088777,-7.06829161446272,-7.161966531690625,-16.1780910867482
1.12,-6.4309088620773585,-2.0882315808841954,-2.7651693982241734,-1.028293010476097,-11.88930793385398,-7.528135858537749,-7.801181177334285,-15.360888754140166
1.124,-8.745355089466143,-2.9487508657761365,-6.604001489546111,-4.941140137061613,-15.612367687847994,-8.344718910143445,-9.499670127533705,-15.168405120502058
1.1280000000000001,-9.954625918788505,-3.896676619945248,-9.608968875857617,-8.698345868128905,-18.540843290982384,-9.016137266394418,-11.446085086435279,-15.53858390965361
1.1320000000000001,-10.405525519088428,-4.940017835574843,-10.880778757831681,-11.143309594399327,-19.3112545571791,-9.003936901911075,-12.697781894539439,-16.026258182880344
1.1360000000000001,-10.69548924443332,-5.903393507516892,-10.098731493708925,-11.645516256254153,-17.119680846073507,-8.047459521630897,-12.55168640865956,-16.017339014900806
1.1400000000000001,-11.237637281753958,-6.406667527681689,-7.6651901089589085,-10.306391973740581,-12.166539597908283,-6.342792246628084,-10.80376735554187,-15.035468376838203
1.1440000000000001,-12.004028697458061,-5.99052824659513,-4.4950931398314955,-7.8528780362773,-5.630723538005306,-4.483130396878081,-7.7917425828952815,-12.994840129956264
1.1480000000000001,-12.587034704708334,-4.346540674104275,-1.569872354900979,-5.2806375531937055,0.818760884671053,-3.1818539160001382,-4.221578861706955,-10.273082083532785
1.1520000000000001,-12.512753873136287,-1.5330171504783892,0.5009442252751732,-3.419554084589098,5.734349159958802,-2.910081788680481,-0.87645799203101,-7.557052160034989
1.156,-11.584593914004035,1.9590414523064505,1.6861286641467577,-2.615883594922746,8.471905040836695,-3.648365375966866,1.6700838872988792,-5.529810251352803
1.16,-10.035584782209018,5.345474087542213,2.412904825795198,-2.6558715420674184,9.367733105414011,-4.888352547126095,3.2275565039695304,-4.542572072319533
1.164,-8.387436938624344,7.860041575816325,3.235106528697444,-2.934002383546637,9.446091653041886,-5.876554084025837,4.012462042397954,-4.434358903341264
1.168,-7.10342299847913,9.086271309123966,4.48032949211829,-2.761151914256616,9.825014966639692,-5.973951140730648,4.519439170251513,-4.593514425635301
1.172,-6.278313556821811,9.128130983500848,6.066698729085846,-1.663400810488199,11.142975983573596,-4.951941738632524,5.28534959537334,-4.23457192653976
1.176,-5.575797031949822,8.519352409306034,7.568801364376592,0.4475671251869846,13.290904005054408,-3.085900013133986,6.638482727028521,-2.7741213912776157
1.18,-4.4547140219562005,7.91102637127123,8.454430879588392,3.2796871273235624,15.557652466783878,-1.0129545936512963,8.508147764228578,-0.12398783392824131
1.184,-2.529685181764917,7.719772269109641,8.373514148113022,6.322242413334179,17.0788822718398,0.5812741676938464,10.403048436040624,3.2433912035502632
1.188,0.14069488909633265,7.9210130833145085,7.33208958576555,9.062782949251687,17.315584980484967,1.275719463303786,11.593758326756527,6.486290732712121
1.192,3.0254741108283563,8.109862772252344,5.684725971021065,11.16523569150293,16.31855177462813,1.082747380067167,11.443220265393412,8.768469045451248
1.196,5.35821585358099,7.780685659639662,3.9685715345293637,12.534335966636114,14.651358693706849,0.3965454884633992,9.756059983279492,9.655186283639754
1.2,6.488961319827961,6.644948165597063,2.664498435011311,13.25569017839107,13.039500797286216,-0.23994733921675215,6.96575938028179,9.340674145228503
1.204,6.166409900804766,4.809045061635763,2.0192360213739926,13.47321333635425,11.946789158576301,-0.4055459735703717,4.037047734736951,8.577288315500548
1.208,4.58592899779751,2.6966282048866037,1.9808510496207408,13.254879969842815,11.301610693644852,0.009045884003214821,2.07445998283896,8.307727120172538
1.212,2.1908625615913246,0.7478561908430956,2.230676393209525,12.501379788609892,10.502894090733857,0.7636143256382809,1.7702687549142797,9.142319984329301
1.216,-0.6340042792521174,-0.9229540972493031,2.2669706328477517,10.936990043225672,8.681733973196692,1.368764244369121,2.935035197673759,10.917866799404905
1.22,-3.800666494711588,-2.698816605103218,1.4896386541875302,8.18308112537256,5.076105206535743,1.2493412298789661,4.358839044226757,12.57676122638868
1.224,-7.523162395107862,-5.317487807497084,-0.6855630195037863,3.915979034784197,-0.6460417000996053,-0.08695197460497317,4.165930603652621,12.480164603107681
1.228,-12.086662207820334,-9.447620285361968,-4.655005567915934,-1.9320716741355142,-8.230865362042993,-2.912671997061497,0.5902870422087576,9.07430895396843
1.232,-17.517493896208926,-15.192569839373665,-10.413783388981289,-8.999137050405153,-16.865334167807603,-7.173762444107024,-7.132058017347459,1.6467645892726677
1.236,-23.341892415265164,-21.79371583867056,-17.37518553591614,-16.418075361342378,-25.343441964595414,-12.420135754598025,-18.161154590410757,-9.165458569617803
1.24,-28.591470352911212,-27.732156806424086,-24.345480627813092,-22.91292578844204,-32.300980596111444,-17.808623523691608,-30.080052346023184,-21.378524851262164
1.244,-32.07373590966249,-31.22393669045951,-29.72023929185712,-27.078999265773913,-36.47505248449954,-22.213414451152147,-39.60405057564691,-32.225908131984696
1.248,-32.798539448456815,-30.91022470462042,-31.91110562229189,-27.79192630870221,-36.97703269940976,-24.468306148648132,-43.73954087099396,-39.083294418184906
1.252,-30.379913263164717,-26.438738531693833,-29.88957414078324,-24.616325223450666,-33.549594189875975,-23.716337606307338,-40.9371895120868,-40.38219439437263
1.256,-25.21796741648081,-18.66086406112289,-23.63570571377948,-18.048261985246654,-26.734728775455455,-19.76138380922973,-31.739139101380758,-36.13187967402345
1.26,-18.398224902749398,-9.370299253674577,-14.300219355133489,-9.474761128721873,-17.85598075288906,-13.270049624588037,-18.649315795821224,-27.837346085540226
1.264,-11.330888818066114,-0.684243199078423,-3.9383173504797084,-0.8086303104919419,-8.746128062818169,-5.670579386017665,-5.249746544953158,-17.8776814702418
1.268,-5.292975993716149,5.660331306207771,5.117697239073563,6.089575959247773,-1.2585332689329158,1.2672840495477318,5.072473917382686,-8.641402986972897
1.272,-1.0547615747348311,8.807903411516577,11.01925643379716,9.997137330559191,3.2890602989981166,6.031392601112147,10.262392900507342,-1.7948425302481033
1.276,1.2693631775362206,8.902789128727346,12.9870272383694,10.686137914550233,4.520671046038319,7.899574367392417,10.149869786116861,2.0482919810971065
1.28,2.0676587193322704,6.814665883664972,11.458529273182743,8.890528903291733,3.0693825171928726,7.147711090279694,6.226620117956487,3.20404340800033
1.284,1.9213355646617583,3.6732937351471753,7.77394309641154,5.927203098872742,0.26175080417090735,4.845371292383919,0.8295356684208927,2.4996974224498265
1.288,1.317828626032577,0.44932952937535386,3.558413593196372,3.143654239818417,-2.452841432475914,2.3379807377747253,-3.8550944960297606,0.8167086607672509
1.292,0.49935677830500347,-2.2752398398222473,0.07610260094124754,1.4166286383256264,-4.0758907542759735,0.6547121393138342,-6.54397705150238,-1.196554924214909
1.296,-0.4966741627026561,-4.30579583111785,-2.1632121310611083,0.9083361944900377,-4.38112027537867,0.11066372813042546,-7.100975920748607,-3.175454100805198
1.3,-1.69023368489986,-5.699666494411489,-3.414220721706789,1.1452983604270068,-3.841901675771094,0.2766699068867786,-6.262418293295882,-4.927137062205871
1.304,-3.0285445284604977,-6.619401076108874,-4.356536261758674,1.3487447947055768,-3.2424258501670744,0.3073270150791041,-5.053160048583255,-6.30249783212459
1.308,-4.356106219780769,-7.246104485990045,-5.606301115610872,0.8393852786892646,-3.198256417873008,-0.5567697553781414,-4.21825458447508,-7.163295461542651
1.312,-5.507389689905477,-7.762408004637139,-7.337572141793936,-0.6681026984726657,-3.8320896943605467,-2.570423706620981,-3.9259282704782423,-7.447286408743668
1.316,-6.446891154349724,-8.355497499395621,-9.197492700201332,-2.9959208641101474,-4.7661204929061025,-5.359769723268991,-3.8399462123204806,-7.259443067297754
1.32,-7.328819412384927,-9.183971617786096,-10.539295128874292,-5.645371481951612,-5.394493458433432,-8.131495602040731,-3.4754767438115537,-6.8972932363644945
1.324,-8.400004737447999,-10.297160144236882,-10.811107570805941,-8.039768024425834,-5.2616190015755135,-10.07421567616526,-2.6063895151003384,-6.76727233843331
1.328,-9.785545276520802,-11.558052047175671,-9.881849904920283,-9.740938669518973,-4.335798477033337,-10.733197052341037,-1.5047364475949765,-7.231672180701015
1.332,-11.294490378870492,-12.641506152079767,-8.128351977314965,-10.556310337927172,-3.0299858745387906,-10.176501774722212,-0.8839199954064689,-8.465087037543498
1.336,-12.394374965443419,-13.142154816891676,-6.249462576195529,-10.527364523731258,-1.9759029984732912,-8.903860301589646,-1.5701658494769868,-10.392461797636116
1.34,-12.42607082490329,-12.76597959354611,-4.934977124980425,-9.855215420092652,-1.685749262889467,-7.577471960157138,-4.077377470516964,-12.725176056032758
1.344,-10.941538973645937,-11.495264525299856,-4.548266856948512,-8.804078218850112,-2.288479444007157,-6.710762214253097,-8.270645724588958,-15.052077576069703
1.348,-7.978887668441773,-9.6313777114796,-4.984057794858618,-7.621833493125352,-3.4857928392063635,-6.461773194274331,-13.282289914393656,-16.941429508961548
1.352,-4.114256470363837,-7.6913019099221,-5.771575525120012,-6.49381287758204,-4.735531609027618,-6.620865611677796,-17.750815180118096,-18.018383181530357
1.356,-0.244830321005173,-6.208528268464785,-6.3527516465717575,-5.526023274047538,-5.550973647001284,-6.781649199702892,-20.29691041468098,-18.018120100765557
1.36,2.7757448830805957,-5.541970812735304,-6.394949519259822,-4.746620718898444,-5.741327538811033,-6.597752932876686,-20.060294304680284,-16.831892965831173
1.364,4.457685379365775,-5.776776933149231,-5.959136421244041,-4.1171110217060445,-5.463838211318923,-5.981354214627833,-17.05781925540411,-14.55310641291767
1.368,4.800850314668328,-6.733067954727754,-5.435844617128988,-3.5507309148556394,-5.070140570344113,-5.145801155544313,-12.188485269592992,-11.49947963162425
1.372,4.184252485303992,-8.060476876486542,-5.3002170925304934,-2.9418032832982606,-4.837568461568894,-4.48106448433166,-6.8706310252901535,-8.170848846986749
1.3760000000000001,3.1236292122146865,-9.354340215806738,-5.824752942368672,-2.1990671817123655,-4.751330658853028,-4.338274428184055,-2.4670990503885157,-5.130175792546312
1.3800000000000001,2.036246642668768,-10.259646681868189,-6.9265359803338615,-1.281617492577917,-4.472200269055385,-4.842057075619795,0.23180864021012548,-2.8315968564239755
1.3840000000000001,1.1488567036436166,-10.538212341657491,-8.208757376749396,-0.21823581345442067,-3.5213100982369796,-5.817075592364279,1.2445390753847816,-1.4672684305413437
1.3880000000000001,0.5423616012106942,-10.123378554720546,-9.177568148941507,0.8797245114339809,-1.605343622424869,-6.8738505447645615,1.243176774767935,-0.9281400662416077
1.3920000000000001,0.2264754016142665,-9.164351116584632,-9.514820668683923,1.807841422228015,1.09742573396008,-7.610244219107467,1.0936145591315634,-0.9061890130444166
1.3960000000000001,0.14961682869870208,-8.036524783374148,-9.255958201388935,2.2720374722389356,3.8703918740942314,-7.824488129977342,1.337510915298151,-1.085915770124772
1.4000000000000001,0.12333521848948426,-7.276419634991155,-8.786799829007334,1.9280207008580263,5.697016066965813,-7.62609204905929,1.8806407044559617,-1.316146545935827
1.4040000000000001,-0.23126990001095993,-7.405921831746602,-8.650880338148774,0.48464262470957253,5.713341302848854,-7.369750782276852,2.0604218426639296,-1.6681281724097445
1.408,-1.3961630327137664,-8.690069751138997,-9.259914932972404,-2.1390205366447335,3.6583496681636785,-7.437580775005712,1.0587284394820533,-2.353520524500125
1.412,-3.688117484972021,-10.941509495790122,-10.660046850120942,-5.654927249777819,0.09393301199187043,-7.978796256941961,-1.576215631721236,-3.5515621975561285
1.416,-6.9489201817216575,-13.505514201470842,-12.482129111952451,-9.348304709465964,-3.7587865995376415,-8.769910937572064,-5.592995360204884,-5.254164195069736
1.42,-10.407736431443448,-15.480914166446503,-14.122500787053982,-12.217730215888999,-6.521128671933597,-9.300924034507513,-10.091895289870594,-7.229839674222208
1.424,-12.869290139445503,-16.09720111878407,-15.04366005592335,-13.299963656567805,-7.267162878295629,-9.041818648342844,-13.936219768097608,-9.123935786931176
1.428,-13.219843720434362,-15.066819716306659,-15.037247274056607,-12.073936032474194,-5.9515353966632025,-7.751065424879512,-16.29208346101675,-10.629557855707343
1.432,-11.025430170538534,-12.731158251519059,-14.318096761330374,-8.762365952302538,-3.43452219905443,-5.652231657322934,-17.004195782399286,-11.627039944729718
1.436,-6.88229559760069,-9.909111554422193,-13.405225614254224,-4.360952831143305,-1.0844897981071413,-3.369751302414053,-16.605346226005167,-12.207666967250395
1.44,-2.2799304169128103,-7.518592138872696,-12.864813764247062,-0.32708510336268626,-0.1350772753567302,-1.643701599469786,-15.97869910818704,-12.568828756710536
1.444,1.0153231350070917,-6.16408626256669,-13.042953031115658,1.9758881314562362,-1.124309798131221,-0.9675734694311435,-15.86650741112916,-12.869229216132597
1.448,1.76412130839635,-5.904427262602207,-13.91956287357165,1.8320965962994396,-3.6939224988279102,-1.347392193002574,-16.489852785379078,-13.146224787903309
1.452,-0.16681831071786168,-6.308036710354779,-15.156500384878886,-0.5367186680236928,-6.82676193374038,-2.316340649224548,-17.487762700232658,-13.350419176422562
1.456,-3.7712498403027594,-6.745505570651419,-16.308045471492726,-4.087919606145228,-9.385317291129763,-3.202970746588762,-18.19042739885802,-13.477177758545567
1.46,-7.442124718708914,-6.737713312006157,-17.074320439178194,-7.432466814151282,-10.644649104329194,-3.4965725916306223,-18.054907290164255,-13.67575396846358
1.464,-9.75835418936446,-6.155952645157333,-17.44940562943674,-9.432568641296644,-10.556378494006749,-3.0995040244344287,-16.998586617352068,-14.240707122333754
1.468,-10.097168419453496,-5.182884606781405,-17.671858523643127,-9.635603374635105,-9.637303195895646,-2.3290259598218244,-15.438134369986294,-15.462917403269257
1.472,-8.768120556006,-4.100862662068851,-18.017853553361064,-8.355973968879422,-8.586925808292426,-1.6737412713174598,-14.037603555781,-17.407108790654924
1.476,-6.643844231635585,-3.075652610630875,-18.574583518522147,-6.4071178522412655,-7.882502917493994,-1.4764316925751126,-13.331069257059902,-19.765116292948207
1.48,-4.577141919584729,-2.097060116385802,-19.149693339011666,-4.666799446969814,-7.579647438235682,-1.7467332997839424,-13.449467370521294,-21.899536267372728
1.484,-2.978228055122238,-1.107010635027078,-19.374394040286923,-3.7156317585903866,-7.405577203275375,-2.203406144604527,-14.098106431264245,-23.094437688922334
1.488,-1.7746084758823524,-0.2017972774238157,-18.945516301623304,-3.706077152305838,-7.046410903761181,-2.506921488106352,-14.77640319225946,-22.910497668479643
1.492,-0.706166724934449,0.27635477116570306,-17.85481445091481,-4.462022932864828,-6.411005397287809,-2.5113595036347784,-15.078926243397476,-21.4474136413724
1.496,0.29553596243393154,-0.13397021060110126,-16.446177135135486,-5.681469332895503,-5.694407462467382,-2.3569014570392848,-14.883747169500836,-19.351980256720537
1.5,0.9336737222695601,-1.724564049710785,-15.261155867542602,-7.0885735054978944,-5.207358850965603,-2.3459284865294956,-14.338795835334306,-17.54544626918645
1.504,0.7190712026655559,-4.341410088865009,-14.743443689432157,-8.4541846734183,-5.106301704716767,-2.6798398368848315,-13.681624065980463,-16.799031234777996
1.508,-0.6157448282015698,-7.311093040854214,-14.957610811179851,-9.519595011086423,-5.2195662414785415,-3.2348440891979164,-13.027549455644504,-17.37102137821639
1.512,-2.7593442037131712,-9.662521217429658,-15.504762818798682,-9.944563079121723,-5.1009877674039625,-3.536679065397326,-12.272695757955006,-18.88969400879099
1.516,-4.809314264445655,-10.557596987085144,-15.706787775869168,-9.384554109165862,-4.291003392284181,-2.9917231394711408,-11.1779003312308,-20.543415454366034
1.52,-5.682537865784721,-9.712257675325784,-14.990491498026206,-7.692721114564875,-2.623321861314955,-1.2551568028754407,-9.587295684227604,-21.465162651530427
1.524,-4.728401203552241,-7.5702515626452005,-13.24486802370176,-5.119840950102594,-0.38686041153372486,1.4934722327394025,-7.608786954262457,-21.117551862011858
1.528,-2.158634495083117,-5.10808841519686,-10.932752451224587,-2.3425933540795856,1.7649209607525855,4.550570430606045,-5.613400347093601,-19.49361638391759
1.532,0.9643287024649787,-3.376706146165305,-8.884748976425875,-0.2511780531848542,3.110538404080635,6.988388316438735,-4.047699339469425,-17.05506882881357
1.536,3.213376476504024,-3.023309289354515,-7.879466929266388,0.42513100217608724,3.1867084296521178,8.093419337662453,-3.1777374414907307,-14.486771449480392
1.54,3.499827321827347,-4.050864434381037,-8.250649070376532,-0.5386562619111981,1.9735222031624993,7.698413650489474,-2.9392961974072485,-12.41543584209348
1.544,1.6336437081771145,-5.904109077678671,-9.718553492932926,-2.73001393978514,-0.13846775512053533,6.244222666632037,-2.981262972277623,-11.228067460582249
1.548,-1.5533086678736865,-7.8007730178517924,-11.53112718163855,-5.266412401229552,-2.5577530688380143,4.542052405189299,-2.883035121132341,-11.0447480463477
1.552,-4.579901137180995,-9.10758919473627,-12.829926796617311,-7.170574380039467,-4.726951154109152,3.385868626326072,-2.4002000215837427,-11.782735683881807
1.556,-5.997471375585691,-9.566898203989021,-13.04564026736502,-7.776275947536273,-6.270918071727135,3.213596109941932,-1.5861764476904359,-13.227535827613245
1.56,-5.048251343457319,-9.284752551720771,-12.118343861963647,-6.97039666393017,-7.004412755985357,3.9770850323183717,-0.7054443998505449,-15.037138754809794
1.564,-1.9745666464788592,-8.539317972345886,-10.437843450031997,-5.158579131143035,-6.862527199502604,5.256919295859451,0.007176324779099907,-16.71557436258248
1.568,2.1311401418977205,-7.569994080598447,-8.57774795085734,-3.0197574351169543,-5.863823422020271,6.512288611679871,0.5593260258681028,-17.655024912594655
1.572,5.831783697604141,-6.470920018605929,-6.989172566891733,-1.1916191008210504,-4.1370254717358215,7.318457409259721,1.2325225490780962,-17.292963333116067
1.576,7.954590081385778,-5.231857837836373,-5.82097075778041,-0.04045413278832832,-1.972373757770896,7.475895644115672,2.390499076834951,-15.35078575854455
1.58,8.010594021709679,-3.8839186481179224,-4.969216132558166,0.38896532520962523,0.1798397231389579,6.971597312696391,4.1527241040843865,-12.038057523519432
1.584,6.290608242772842,-2.604018414901752,-4.265651271792274,0.2842510086458372,1.831828121964092,5.891851933966979,6.164879711775043,-8.076215608427857
1.588,3.65741610052554,-1.6852018085914318,-3.6489818293918406,-0.06686039764710117,2.6729483217246752,4.385024650047999,7.663492545330665,-4.467121936567151
1.592,1.1669880837549877,-1.3817228141461242,-3.1986647636290577,-0.3685862819508614,2.758108186148914,2.7003236374562,7.84140357481701,-2.0774925393179258
1.596,-0.3301600855328801,-1.73633771033726,-3.0242358663734716,-0.366851919572623,2.5153320821209295,1.2314672276898269,6.332892944255015,-1.246660318604985
1.6,-0.48288181672942665,-2.5243577494965326,-3.124804480997015,0.09565343322306497,2.531405158696238,0.4573901357584198,3.5125632373669315,-1.6315612206725323
1.604,0.4882736259124477,-3.349365454122178,-3.318965525128525,1.0169165698234597,3.210743883475777,0.7583132173768936,0.4116437274271898,-2.3949863102414017
1.608,1.9371269333657088,-3.8431578974915643,-3.3077777057406563,2.178324420401765,4.495719245997696,2.1820478421009826,-1.7372458662701709,-2.64898116750022
1.612,3.0974072501637813,-3.856264737491313,-2.8479566623354993,3.153965300225358,5.8372573918143935,4.311222666123033,-2.103082049885936,-1.9098413789819628
1.616,3.4175723349797984,-3.5293487227373896,-1.9240776381331717,3.4372046310019524,6.455432217069484,6.348808663015642,-0.6768535592017213,-0.3126297476179821
1.62,2.7696540991254635,-3.2156529114478785,-0.8181447820162542,2.655571227531784,5.7668896992191065,7.422081611624666,1.7181925524190889,1.5230490973035016
1.624,1.4662735614149598,-3.285447135215155,0.0046040166698408935,0.7930752502484049,3.7478773570947976,6.992546393127039,3.8588371240969073,2.8941215970292418
1.6280000000000001,0.09031737234966564,-3.9122606216823232,0.1474964259212601,-1.7069663587366601,1.0127647561517776,5.153895550617384,4.769852945934134,3.43753161731814
1.6320000000000001,-0.791738294836339,-4.965032589673408,-0.4723476116080836,-4.051711084723978,-1.4487060736157953,2.644182689357272,4.218501571770442,3.321784058912441
1.6360000000000001,-0.8969953761962901,-6.062177740272203,-1.5317560784841973,-5.4060223007390995,-2.7478997959684435,0.521978351672721,2.7724339114049474,3.0930569107547754
1.6400000000000001,-0.34403636328672116,-6.755414959660776,-2.428284563167322,-5.260117643469377,-2.511471106571097,-0.3441891419521115,1.400957671522289,3.2988923787721167
1.6440000000000001,0.4517118495862944,-6.736799965574754,-2.5567731485351475,-3.6646302096513006,-1.0132328231835497,0.2978972946901237,0.8744083043736741,4.128293024241955
1.6480000000000001,1.0512363102293214,-5.9589028531017245,-1.5901566383525327,-1.1933838690701872,1.0300323406406544,1.9799272423215397,1.319372078814801,5.290191816384047
1.6520000000000001,1.2725597717388935,-4.616636576632458,0.38013147061376706,1.3525406153841395,2.880470928382495,3.7837813195450014,2.196513202359272,6.213137113804076
1.6560000000000001,1.3084388496115036,-3.0220440359193876,2.894010691603301,3.3353870473401686,4.166212649613541,4.8269903814186295,2.6958329546970337,6.429377671796888
1.6600000000000001,1.5929284846174565,-1.4552565333290717,5.319491213952313,4.551754200601777,5.023076544702234,4.702387689750138,2.297299306928683,5.894868626500061
1.6640000000000001,2.493283423834898,-0.06874993467340107,7.112273494971429,5.248605579590951,5.928364478178949,3.650917243830128,1.1561609193679372,5.040168783763088
1.668,3.9931351298420226,1.103719586492362,7.99348179522821,5.880371880443816,7.343566662206917,2.365760354763328,0.05532207160180658,4.521473266377054
1.672,5.570350035270431,2.066836950718297,7.99163617731764,6.7606057989392125,9.385933809579399,1.5701834314558258,-0.04159680105076724,4.828951017760195
1.676,6.391710292291279,2.7946958679415195,7.378310970828435,7.829267965485558,11.70976433550793,1.624977867719461,1.4348311016777147,5.994818963455232
1.68,5.7284447033322925,3.2110245288305874,6.520173897809579,8.663716822151574,13.654852616710471,2.3574625724162432,4.276114426999533,7.587269652853805
1.684,3.398287943961859,3.2457108961131835,5.745931456980081,8.74076638920918,14.572688169872707,3.2093632790082514,7.543036761728049,8.991714498934758
1.688,-0.016140026971454446,2.9255252218374532,5.266942025385655,7.784810338649182,14.141020829004502,3.5770142909732225,10.016985657747906,9.7933844777211
1.692,-3.3144233039571223,2.4267703569671992,5.1681341573728,6.003107748184862,12.514070376581012,3.1556228163975244,10.803163011476137,10.027655654261233
1.696,-5.142695637550141,2.0420685072058617,5.454950856016842,4.0660929572138125,10.242598912918668,2.0943086857755713,9.760388577036146,10.136870776103551
1.7,-4.587076543750084,2.0478443749060595,6.081094209507983,2.815750277774859,8.0317579020321,0.8699497024567284,7.519378972558623,10.666058484367554
1.704,-1.5990260820764899,2.557269010362674,6.96408547310386,2.873183781682185,6.484668816431653,-0.00126102036814979,5.126484456250154,11.905939221609602
1.708,2.944634604566379,3.4424557604702732,7.985304085766417,4.3330255111462925,5.930264879715781,-0.2586437017862635,3.52472901048693,13.703559331218978
1.712,7.596007417923638,4.390707054025759,9.001657652209119,6.711924693279267,6.3911695043027414,-0.011110528791972385,3.156952670498483,15.55131647777952
1.716,10.955672342271665,5.083744609151742,9.892777638136456,9.1727624586924,7.656089371081444,0.38501624532423895,3.8803798277920603,16.88603431773717
1.72,12.25098020736352,5.382420863484625,10.587566204306915,10.877116749688707,9.385817708338099,0.5528556147154036,5.155276450151071,17.399706125861414
1.724,11.611576236532198,5.408398400846579,11.076307480518725,11.312413464066577,11.212173342320176,0.30389326585030485,6.364031174506692,17.17725701476024
1.728,9.928265933464104,5.455515194244003,11.383186596795829,10.444161476845755,12.795106944349591,-0.3041893726099638,7.06754668791806,16.580275168406533
1.732,8.399396666935825,5.788664576312227,11.531561792765885,8.66468771033611,13.866932417840342,-1.0580439227499245,7.098769915688095,15.96945975174722
1.736,7.978030508027367,6.450321321640892,11.53438985017252,6.598705857098266,14.270949294589968,-1.7447929440208714,6.523634283676753,15.453051777699248
1.74,8.962769562778917,7.1922649726965275,11.397701323678415,4.863580935466958,13.993219271405316,-2.282914951154308,5.534883243520218,14.832713222779612
1.744,10.908558590185688,7.586785576733032,11.150132883206986,3.8881402340284046,13.179015467567746,-2.7316380254633543,4.3780346512912285,13.776073386719565
1.748,12.870048323875503,7.25643543356672,10.8619026842077,3.8208635523315615,12.098805306292673,-3.206687727606325,3.3158504212482174,12.093009948094775
1.752,13.876283002131665,6.11413594312089,10.646829168917312,4.537995830546223,11.06742956315213,-3.7563238954105813,2.597536942014398,9.938044302304677
1.756,13.40960033026612,4.476775289888369,10.649540646040208,5.728525214661847,10.345057777665605,-4.276468564992525,2.4107913002703487,7.803907290378121
1.76,11.659677757661818,2.955925765082064,10.977087624315802,7.00911436262995,10.052181480378083,-4.549871170185943,2.787933141641787,6.2975208494043775
1.764,9.444478764564511,2.1822040248331005,11.626600892112897,8.05160289217676,10.145976867002108,-4.362032280100044,3.5363678002123677,5.83206977952331
1.768,7.829866289176927,2.4997903591021338,12.439525348135813,8.678144209762268,10.455163301686033,-3.6438620863431366,4.265708823364287,6.404332930602662
1.772,7.626825970444998,3.7882462774013534,13.121279198552454,8.902023762122512,10.754077421766283,-2.5469455424010006,4.534833403693329,7.580266376796388
1.776,9.003677449465103,5.501668308843977,13.345215172213807,8.88637127527712,10.835583088553149,-1.3991506757683831,4.058819620999615,8.676870768679922
1.78,11.36202177373365,6.883641718780723,12.866083595447806,8.802645230235454,10.554175551354064,-0.594728977457271,2.8398184128856787,9.033314355770033
1.784,13.552911513344991,7.263259216310807,11.613095298840783,8.672370072690555,9.84406928088929,-0.4554848544515715,1.1474072933670598,8.245599948305326
1.788,14.35740457172004,6.303826676645027,9.719454057354415,8.283632481383178,8.71875852386683,-1.1319363386873036,-0.644210617545812,6.278764099979444
1.792,13.029392783869385,4.118446812159152,7.4920930109844015,7.268951884712581,7.2684543632025544,-2.559604471215687,-2.251061708877402,3.443924994021333
1.796,9.668918796612395,1.2309759273519845,5.347476602949006,5.3383893926540384,5.650766274114632,-4.468506816703815,-3.5696274619879853,0.2806062509510223
1.8,5.219164788612231,-1.6098256179170387,3.6990836311996445,2.5329516804297993,4.063754288334773,-6.465163603794789,-4.6331390820399525,-2.5892225198546672
1.804,1.0833966774254051,-3.6800736692349,2.85067153376938,-0.6471412651791697,2.7116509386065744,-8.136911680934716,-5.467350017003307,-4.590993816738496
1.808,-1.4937613808516215,-4.529245054764724,2.907407554744454,-3.37755311473207,1.7460833075083713,-9.178836120454006,-5.98626180604122,-5.326887567173735
1.812,-1.9826694036800196,-4.139975842202621,3.741830858118771,-4.8689187750829355,1.2145505790727258,-9.481649704965625,-6.022704073399087,-4.688707841374388
1.816,-0.7736763251243177,-2.9255126804514537,5.048234189172195,-4.767595494154284,1.0510325784721157,-9.132553642528414,-5.468144188779719,-2.9162752731530963
1.82,1.0538600126496127,-1.5701248603113418,6.442540619952256,-3.3819003141358723,1.1182559851159768,-8.354262022652499,-4.441838803193564,-0.5574895528272421
1.824,2.30945364391522,-0.7440600009632079,7.594689769674948,-1.5584819800543248,1.2953264332188066,-7.37685506253451,-3.329351390240098,1.6988507879089028
1.828,2.32804409553596,-0.7975025405496765,8.333473723344987,-0.2481076276229659,1.5533472325823694,-6.317167726629235,-2.6256009485438487,3.270804200688658
1.832,1.3203741415706698,-1.5774959674029945,8.683328812623047,0.009838965650274645,1.9630104241048727,-5.129188071541031,-2.6514294850236295,3.9022039476603965
1.836,0.2489861056763658,-2.474748913337236,8.818963437911389,-0.6109461134647773,2.6135130972344345,-3.666498078896489,-3.3214907482433262,3.722039811790591
1.84,0.26106997580454694,-2.717227494097809,8.92339113798177,-1.3467928840796803,3.477451490183852,-1.8560357255592068,-4.1580968061300885,3.1035854741339652
1.844,1.9921223271958608,-1.778191510007101,9.054231235887437,-1.313074395086617,4.334535302302969,0.1517918047066198,-4.549904850675187,2.4194548681724273
1.848,5.12906227715625,0.3087461273248664,9.085897834184633,-0.06330558794023489,4.818472220972275,1.9471509469027817,-4.116282530604332,1.8335921545805518
1.852,8.493716335270618,2.9167820360503143,8.788926786452036,2.098258334924431,4.601781672663119,3.0061412189594012,-2.937579061572399,1.2704710022832286
1.856,10.649899802561364,5.127561270546111,8.028795281857828,4.268518940421259,3.63790885790438,2.9827435104948075,-1.4728180628421528,0.5919804473092336
1.86,10.683742278618698,6.194797344409424,6.923773733516167,5.459637372757125,2.291713712637737,1.9550187685636793,-0.23636600526551854,-0.15334872053265647
1.864,8.7089517065943,5.918219492142709,5.855113570133883,5.1627865309407515,1.240154950084479,0.4577640272344281,0.5499815932946547,-0.6136605183230572
1.868,5.785809868301076,4.694241646842565,5.252383774207589,3.5938248223310723,1.123476238269781,-0.790662323932029,1.0604928815585044,-0.29965669398685235
1.872,3.2564402305755067,3.191306456251648,5.2456439027583475,1.4575624223121526,2.093198579452749,-1.3481141177154494,1.617145460540927,1.0136638762784647
1.8760000000000001,1.8883581807580312,1.8555399160142354,5.4069335099081,-0.6105215166124827,3.512158316779638,-1.4205290859979933,2.2477356003697193,2.878717024625546
1.8800000000000001,1.3351088811563516,0.5445376128399946,4.756871068716171,-2.560776800541068,4.036317464630661,-1.9105858352443363,2.359882630201515,4.075183227949809
1.8840000000000001,0.2818458298100994,-1.4467161067105803,2.1403968159243045,-5.02187040808454,2.149915160986377,-4.013235544877458,0.8425465310184572,3.002969863853678
1.8880000000000001,-2.738345384051479,-4.932552798012826,-3.1524059501767203,-8.858979057680212,-3.050171971411373,-8.519843442814468,-3.3592290589615734,-1.5373475216222814
1.8920000000000001,-8.285809410420812,-10.186547110337484,-10.810591815069618,-14.426841953713271,-11.187042895243192,-15.172499440435864,-10.450079175083557,-9.532409704935503
1.8960000000000001,-15.321350814836423,-16.466653765727518,-19.298686704902195,-20.979995879745616,-20.438489371618388,-22.44680332854241,-19.237718786474375,-19.382589679710343
1.9000000000000001,-21.383484150234004,-22.064260833964276,-26.242631475469864,-26.67781922793257,-28.05404769286259,-27.99583876188114,-27.265758340137083,-28.261846438452558
1.9040000000000001,-23.641092648787122,-24.920427144716854,-29.29097482743078,-29.275044043183314,-31.380141622720284,-29.59925757473679,-31.66834253913197,-33.13561432364273
1.9080000000000001,-20.324605671820724,-23.53741417513162,-27.101650793257935,-27.195590634740974,-28.96908557200537,-26.199070416835944,-30.39861748371385,-32.0158589073683
1.9120000000000001,-11.779219291538292,-17.730864961660565,-19.972049910322433,-20.41274453602022,-21.24411219668238,-18.487481840632803,-23.216333207913205,-24.846510383570585
1.9160000000000001,-0.5361528714763153,-8.82137598663356,-9.772970617931403,-10.633746830413394,-10.386547438647854,-8.711021734029922,-11.88953304880936,-13.57914224020278
1.92,9.697474793050056,0.8442608849171886,0.7687205981791981,-0.6615793098681585,0.5161353054492066,0.22434246309011785,0.5087290234706503,-1.392660821828886
1.924,15.670012631968403,8.831681597747194,9.135111721634718,6.786551998176195,8.69642840366054,5.95746224174713,10.903609284221925,8.592396471321273
1.928,16.009331067028402,13.550048278704683,13.91686485557834,10.19504940810081,12.727182009223858,7.588476198459739,17.461773818952125,14.490443191570922
1.932,11.733353266914488,14.748673596405917,15.157098973183516,9.754411583610315,12.897217464959425,5.887979259865505,20.174244406342083,16.196584883983423
1.936,5.617084324851495,13.397436598260779,14.046280167179209,7.042696670807848,10.818493155879185,2.7379340897536055,20.55525512474002,15.101944250722198
1.94,0.7542539917865769,11.057979680963705,12.163544738190788,4.0925115556542995,8.510281160449082,0.11105011958824962,20.65109851691407,13.206646249471325
1.944,-0.9211485018192836,9.110376977457577,10.708711768281304,2.3774672161746713,7.44728882938953,-0.8494049390098106,21.93059661099304,12.132078893650867
1.948,0.5667681888712397,8.204230543503767,10.080298551678666,2.2155270151128765,8.00114622892169,-0.2256592171303229,24.615697250210907,12.49780254746474
1.952,3.4847820055433125,8.161389114743608,9.949209425043954,2.847995416051276,9.489499713663845,0.9528253529525941,27.74189859189009,13.897248385423357
1.956,5.505039523262761,8.306202643355189,9.71393891153651,3.0802290928399,10.71775766244426,1.455535492161429,29.843729469530775,15.367688628787144
1.96,4.977878498246946,7.9475512433492845,8.976313024993793,2.034545320704096,10.663603684357543,0.5791073459618876,29.803695959693048,16.013962651603833
1.964,1.7019965476730126,6.740432926765896,7.767134396593541,-0.38566234042932157,8.958010751228867,-1.5134276146484693,27.401786462760057,15.446351827595777
1.968,-3.145362788313519,4.765851853858025,6.43038095976385,-3.529644525559304,5.9611620650523385,-3.986160502217083,23.315627015062987,13.851154484257615
1.972,-7.760667312968997,2.3629397336333327,5.310502386883632,-6.417668033990106,2.4895244333977793,-5.8642375529796045,18.66298159485335,11.765481586595204
1.976,-10.672467858457797,-0.1267836166439329,4.4891352019577795,-8.25570249977958,-0.6164473486333106,-6.5621572613240495,14.415674870422475,9.752149828398966
1.98,-11.381468052387936,-2.532864798769296,3.7294715316023,-8.76309811009804,-2.8458093688291917,-6.134672663585006,11.006937712745085,8.176064702557454
1.984,-10.36766639793657,-4.840068360774069,2.680472647842558,-8.15535352342522,-4.123796702381805,-5.122719204610038,8.329325687773814,7.179663221025869
1.988,-8.585440146769425,-7.045123580739033,1.1678980542235764,-6.886521464044652,-4.699183326848213,-4.1735244953899615,6.040926603829629,6.7736454496951755
1.992,-6.82187078558977,-9.005704617998608,-0.6268892771547907,-5.343575948622578,-4.91585548259186,-3.6833318892889144,3.9330873754675033,6.922018925747228
1.996,-5.309008885977913,-10.391586206640179,-2.2005002114015086,-3.6682778863515866,-5.006864398621184,-3.6505657477173377,2.1401002464172203,7.540495910776841
2.0,-3.792625429889335,-10.79722001756914,-2.987651077630955,-1.794358811942982,-5.004984952310268,-3.8112291622009344,1.051972736617833,8.428887910611525
2.004,-1.9194380899142,-9.936249325647875,-2.655001455149444,0.39315312857150797,-4.75651192051437,-3.8878284190527177,1.0243628843201629,9.253584812529281
2.008,0.3695987201149311,-7.795345193376127,-1.2524783448825287,2.913993114518906,-4.006540494879924,-3.7691112746626425,2.091832742988836,9.652976884314185
2.012,2.714947108532772,-4.663514414427838,0.854972202466465,5.659889411361333,-2.503372376716233,-3.5074744287243727,3.865016401408292,9.444483132369445
2.016,4.562829653024496,-1.0229349797554335,3.22586447451736,8.464935107482365,-0.10766633708793982,-3.1646446120355023,5.680525791439643,8.803168454224815
2.02,5.551047921308465,2.6116788162403104,5.558322703692584,11.179782645000616,3.1092466471487885,-2.6859927527775156,6.899688834079396,8.263831584816572
2.024,5.7776979079581405,5.816283519728508,7.757622204889732,13.681892864342565,6.809741354516036,-1.9064450663512211,7.181843733872522,8.491717666274297
2.028,5.735428768462242,8.286259838535607,9.810219942470535,15.7969109496456,10.396950352187707,-0.7312873376395368,6.5782155208113995,9.893089894271306
2.032,5.962404749853963,9.803030981093233,11.583965994859708,17.229983610389205,13.138399417637608,0.6622793395839599,5.4232852165683525,12.288057924230548
2.036,6.674824999258742,10.224784204755691,12.749830498356475,17.625198161569696,14.399572098119348,1.8025927593855657,4.124485181224927,14.861452282851799
2.04,7.591516233108917,9.517672333672301,12.882420718699537,16.737265192580804,13.89329156225196,2.114016276317287,2.957926901196734,16.460527758465005
2.044,8.081710653108955,7.821992666475099,11.71591756013942,14.638824614885412,11.83681432313088,1.257711255799518,1.9860364788559255,16.128462092551498
2.048,7.554378948135302,5.491850788006689,9.385739408495253,11.817148331888092,8.909325508705379,-0.5947896930461929,1.1067702558168482,13.59786436304358
2.052,5.834604816595133,3.0361811664506813,6.478310989560573,9.049179297202695,5.998486060520083,-2.7518956476049006,0.17174117409774903,9.472090662679475
2.056,3.3046996537179156,0.9632434619509107,3.83737491877341,7.0818079585378,3.833615637724369,-4.292199146189588,-0.9016624665945083,4.97992732739201
2.06,0.7147536080660286,-0.40742297809855543,2.190037094336962,6.2704634912276145,2.6815285711268744,-4.5389330393992475,-2.099474811048588,1.4159631275379336
2.064,-1.2197846589459644,-1.0614160661719905,1.8044273050821,6.386852810016576,2.267586939248954,-3.4267586692301255,-3.3544279229210745,-0.4523086003589185
2.068,-2.167396232128399,-1.2480724167577284,2.382107439479462,6.738077706193599,1.970378614492419,-1.5411512044863385,-4.606549854650822,-0.7064496935629725
2.072,-2.2759194311541986,-1.2957351219624749,3.2549799504173134,6.560940688378909,1.1973166132662485,0.2135541424538836,-5.826115733007009,-0.1652971011038531
2.076,-1.9628184640626538,-1.3870125644342461,3.7895546832587876,5.486171494502171,-0.2684487304087551,1.1401610417288164,-6.9683267040045385,0.08206434693623788
2.08,-1.5936104430813223,-1.4622981666998274,3.7255464406170504,3.7735453622386683,-2.157430152637065,1.1249608680142837,-7.932235452822923,-0.7571802202788471
2.084,-1.2634082651288558,-1.3094318906899913,3.2613921299962825,2.1744042694536283,-3.889212998902223,0.6584812821832662,-8.566925959867682,-2.801942746747538
2.088,-0.8228670276060082,-0.7890588626171327,2.8327981951005317,1.4782549388626203,-4.943789806393712,0.47359035676090944,-8.745188832588322,-5.496148692782934
2.092,-0.1270531825159109,-0.048977252320006937,2.723652565896832,1.9951726599343411,-5.211025222261102,1.0291879087966764,-8.474991553285216,-7.955317957186003
2.096,0.7093320033106112,0.458247304576231,2.790828723515581,3.3005625990973195,-5.097183088863963,2.177290957843568,-7.953891505105565,-9.454019478290661
2.1,1.2493207365670829,0.19233705084295005,2.4747287885443385,4.401238784353692,-5.316292058751855,3.2076672881032406,-7.525156141368424,-9.788686407252133
2.104,0.9372167766755645,-1.1351383903982972,1.1219321822747432,4.2557028811866635,-6.468163233973355,3.2675035290162464,-7.528582967531079,-9.33707884353894
2.108,-0.5436280499000736,-3.311205381273548,-1.5673718446829037,2.358032354765934,-8.646427320320628,1.8906830023914605,-8.11904457396581,-8.816446991711317
2.112,-2.9927200603975317,-5.641289081723182,-5.248744226754323,-0.9491531801918212,-11.311223840070886,-0.6810882379890772,-9.166617022500896,-8.894005639577601
2.116,-5.686719801046528,-7.252904944729644,-8.987748167161289,-4.615281461625694,-13.520675201069103,-3.574408879080251,-10.289192015495408,-9.866274126840747
2.12,-7.70539655993818,-7.5481163377343945,-11.686080671393103,-7.42538053682978,-14.422094156646914,-5.7401114302190575,-11.034116029676946,-11.567254835448182
2.124,-8.405771919826773,-6.532503290266301,-12.627984295385714,-8.627732757347005,-13.716325608049482,-6.501427088960834,-11.104445827786641,-13.512185008613603
2.128,-7.759661458466768,-4.813151331772589,-11.843727852320335,-8.297210387589008,-11.842883155611544,-5.891386770757372,-10.501214268222375,-15.1770911062461
2.132,-6.342031421978858,-3.24987105018866,-10.074136378040208,-7.23219991450458,-9.764206142303586,-4.58477303084407,-9.4996599194045,-16.241717273717985
2.136,-4.9529235647978185,-2.4403892853876403,-8.319815200408216,-6.4345329639337825,-8.45148172176274,-3.4591572745712424,-8.452867103343841,-16.66742589867684
2.14,-4.121956223330722,-2.366519156620353,-7.273192593663934,-6.503478112790527,-8.365099709987314,-3.0862455829229143,-7.5655882788196696,-16.60943681274462
2.144,-3.799170119773109,-2.4149422509776075,-6.953628745658133,-7.285586326033261,-9.216480874071063,-3.4322419813282266,-6.778197385761116,-16.24565945438056
2.148,-3.4193581696947883,-1.7662415075882592,-6.760595829926348,-7.97670720230179,-10.150494187667725,-3.937572309967626,-5.828144466248021,-15.644732755012054
2.152,-2.3111558733140747,0.0692131953676336,-5.919825933846411,-7.612161710408959,-10.246486074021153,-3.9043962411131843,-4.468204755069244,-14.747526557638245
2.156,-0.20002167154089845,2.8941770527096238,-4.021861076930687,-5.651815600618999,-9.053335994702358,-2.9277557584541367,-2.6871941527572343,-13.460891535231017
2.16,2.5067922097868847,5.850425422741031,-1.3475304778079038,-2.3357344790495773,-6.864232234570417,-1.135992344346482,-0.809258100448528,-11.79437948677831
2.164,4.839487076502142,7.828854525437536,1.239307862412221,1.38962259836343,-4.562495887781416,0.9012723463813455,0.6191336385083117,-9.931706270687759
2.168,5.7460933906512075,8.040601784959803,2.7767027529459485,4.328867203473344,-3.126224822273985,2.50873079449123,1.1186660159401387,-8.177035655023417
2.172,4.672592798848656,6.434185761025015,2.777204279912538,5.6295135226925215,-3.0715660084427694,3.282939193286435,0.5860060866402561,-6.793713960566884
2.176,1.9177834217044287,3.737423593275309,1.5641974729858976,5.197924441192638,-4.150838957392778,3.299648340781739,-0.548634877631673,-5.834259229564575
2.18,-1.454481482179241,1.1055953127158251,0.13205682171354738,3.7103430378021574,-5.483131181412968,3.0180198437750088,-1.4467509635169633,-5.076296122141855
2.184,-4.104620737238367,-0.4119667559003164,-0.38158885526669795,2.2495914916511057,-6.028963869268288,2.9902615743006686,-1.2088993291757477,-4.104751732351017
2.188,-5.047883591554029,-0.3113169081503706,0.6841729421415347,1.768881770698202,-5.151542287363419,3.5509649345905645,0.7149565901260708,-2.523957943544148
2.192,-4.09857493347286,1.2162921446796213,3.143699154510888,2.653633198120947,-2.94972001473727,4.66803446192457,4.236964270890422,-0.19550668873350507
2.196,-1.8938569945507264,3.47611716038091,6.0826354293068166,4.597992668434941,-0.17302015800121695,6.034890310826906,8.63343443749482,2.6339191081039033
2.2,0.47981006911365975,5.650057438214846,8.363973713043684,6.819966905425094,2.2192822270562815,7.297236050888154,12.828216567935012,5.393639580582812
2.204,2.0537301914384547,7.16052552138958,9.247239819072774,8.489947014503755,3.605991478544448,8.278404517867145,15.823513086056206,7.425487651231873
2.208,2.441176785382832,7.85412052543202,8.76745432843851,9.13268843761482,4.037911991493191,9.051195220076668,17.072037453018478,8.275086111519935
2.212,1.9650962274808221,7.962199221986622,7.669061379118247,8.808804312571429,4.176090588935103,9.822527307379227,16.63093697995598,7.900052360687013
2.216,1.443267322597904,7.923622971973149,6.974465741134125,8.023642682458153,4.875240661353657,10.729922778513782,15.06140749716769,6.682671708495276
2.22,1.7544719957880464,8.155643149299,7.415034225811612,7.4216350172156345,6.64070806539276,11.674357199949265,13.127299851833929,5.23051421327592
2.224,3.3961185892732395,8.870565181417847,9.041849844659946,7.428366566636892,9.273306928250351,12.32129474688007,11.453815449041732,4.067457637358836
2.228,6.243312902593617,10.001117789617638,11.215441568498258,8.026277008242724,11.901959314200969,12.26605816985213,10.315592588813194,3.373260432858464
2.232,9.584976039700358,11.222190955340265,12.939560540582113,8.760113280752703,13.390865249752107,11.265509674529454,9.629202876386458,2.910719904171215
2.236,12.411001563496363,12.070735445236593,13.358712587641165,8.968145776918256,12.911978322777596,9.416230567910564,9.124353959158784,2.1780961340330744
2.24,13.801106068615365,12.123082537691266,12.130949416962753,8.113049328368735,10.37485163083185,7.148559907514826,8.558078876533505,0.6996861642310455
2.244,13.270369408239015,11.18663737702158,9.531082606013651,6.066700981449928,6.5120549525183336,5.050784971894939,7.861619962016944,-1.6874713548965152
2.248,10.951282960819253,9.433779879614082,6.280352803222357,3.207530976443107,2.582211226824194,3.6124813173936636,7.157643082243865,-4.702988214131513
2.2520000000000002,7.5478876840312426,7.393359937026657,3.2213937880877763,0.28211714012392564,-0.15213741585135265,3.021325871700947,6.647756451262667,-7.719062629105352
2.2560000000000002,4.092350375769165,5.775150256514909,1.0322326680296197,-1.9006068460760552,-0.9209042296747079,3.128372234126916,6.468671535477057,-10.037805362127514
2.2600000000000002,1.5728293907840918,5.171439059914405,0.06529093832055466,-2.816709062382019,0.3016568349488775,3.5712096291793305,6.605092278056757,-11.201094067391585
2.2640000000000002,0.5797755197407923,5.778578759332023,0.3383020882374943,-2.4359282821756203,2.880752613919409,3.99941411092815,6.910373161814022,-11.1711289086881
2.2680000000000002,1.1077187252483185,7.28038385379213,1.6060748169176158,-1.2000709817835649,5.845473479783481,4.254737248544121,7.2043621706759,-10.307686249714955
2.2720000000000002,2.5738429205567996,8.970764749069698,3.435623325435701,0.20046171226442588,8.274983879449852,4.4035477375058605,7.3734208725873085,-9.166183201751474
2.2760000000000002,4.071524548862515,10.08501676224062,5.282999637955516,1.150200254424365,9.576386961697832,4.627931926424069,7.420515455889569,-8.227063842642975
2.2800000000000002,4.746670413363608,10.159073404723216,6.56635050706323,1.355580618018211,9.567587949015586,5.022246333510507,7.420860005964909,-7.703324992161802
2.2840000000000003,4.1421590163922755,9.235694232201755,6.785345402086234,0.9106132695733367,8.40380030026001,5.443563578386648,7.421413284018405,-7.51086144723169
2.2880000000000003,2.3583793461495586,7.803219557839721,5.673786838019676,0.1641649590595513,6.425085849169564,5.505553923873601,7.354740126644225,-7.400482837375932
2.2920000000000003,-0.04077791577647982,6.500876427889189,3.3164869968981687,-0.5211487417169884,4.022452509045509,4.733802765968691,7.0293350943045985,-7.156125654046297
2.2960000000000003,-2.315433489195768,5.780140470817319,0.18608869950573048,-0.9707417245186605,1.5708310325363621,2.8265641266624555,6.230271175769229,-6.742611723261495
2.3000000000000003,-3.8700288585355755,5.706507637131906,-2.9838790334099627,-1.255211041208641,-0.5993886790771228,-0.1337492591026419,4.85328081046732,-6.325236050275107
2.3040000000000003,-4.449060624177353,6.008159812560334,-5.439744789980527,-1.5739445117143305,-2.2235616729399084,-3.6112548958312667,3.006290541985811,-6.157332709172598
2.308,-4.132844934792095,6.321980671306137,-6.665405448381873,-2.0616746848274876,-3.1432803853638167,-6.754538010700589,1.0139673050858127,-6.418756635148498
2.312,-3.1669319513690857,6.462405986470307,-6.545902833877662,-2.6490008305302655,-3.3418815522443968,-8.692945792661215,-0.69115992875812,-7.091146476685591
2.316,-1.7671056990397949,6.532549867711285,-5.352470449116055,-3.069168784857781,-2.946804009268011,-8.855752851762848,-1.719345208748579,-7.942322785243443
2.32,-0.027819710583149637,6.806130057062113,-3.5880339134477777,-3.0187175411804534,-2.1781318349075267,-7.19918428620749,-1.861680379367504,-8.631260246943473
2.324,2.025564909680459,7.475954160670457,-1.76200585545528,-2.3571130849307753,-1.2448679101578115,-4.2184753278227936,-1.1403273619540033,-8.859766601176732
2.328,4.283244657664509,8.436216465718482,-0.21568346621508727,-1.2289602318843023,-0.25606728548345714,-0.7652677595478008,0.23273178045936138,-8.497191003868405
2.332,6.425693752830423,9.256324720347187,0.9275310332821448,-0.027281681886709652,0.7999376956649593,2.2546742508582636,1.9545621590325937,-7.613335084507245
2.336,7.9561413435066255,9.387101604600314,1.7167430706222673,0.8012632136797389,1.9928567306080676,4.197928097099146,3.7443822050207505,-6.408677044043747
2.34,8.381273947882594,8.463530828769912,2.2557259279504143,0.9757954847413286,3.334120282248422,4.866855428334473,5.40348497361783,-5.095207574623821
2.344,7.459038652162079,6.529482096652844,2.612968969055113,0.5106445643186839,4.695564979847924,4.521462844410284,6.823096107286122,-3.7906105641793992
2.348,5.37525734048107,4.042577552654105,2.7935004214794357,-0.32231336440805936,5.8164419288860625,3.7113064669830473,7.955873442777609,-2.4847360537489305
2.352,2.714116596473308,1.646206139031573,2.7532958401442986,-1.1767447544576544,6.406503322009386,3.0049195399124926,8.770306451819446,-1.093175558861911
2.356,0.2505212026881801,-0.1334617692066169,2.4572812620741944,-1.8253707917473294,6.306715284228436,2.7631594805632522,9.24068185568424,0.45426850517579975
2.36,-1.3424571514064882,-1.0957544285324554,1.9179377965531446,-2.2564760646148927,5.606450479865112,3.023723621569845,9.358986942627286,2.140539335535176
2.364,-1.7315826091388322,-1.3692460193556724,1.2092955927668028,-2.612238642592618,4.641521837108497,3.547678044144536,9.15438135053926,3.8426663456876593
2.368,-0.9960503919599135,-1.2330004803448436,0.45377207968345257,-3.0268426769222243,3.8595162604452495,3.9834714291894793,8.698858431567642,5.373098720735017
2.372,0.47695323772426057,-0.8884167282833856,-0.20191205726554484,-3.4732598399027266,3.629016672904905,4.059173147484113,8.093789190523895,6.559718849275826
2.376,2.2138153817997064,-0.3166023481739181,-0.5886447686464407,-3.709383114908852,4.092992604419198,3.7282404972509444,7.457419836896721,7.320622939966714
2.38,3.858716950818292,0.6885115944960583,-0.5378325927190196,-3.38111299274284,5.135287291074535,3.1690159471158403,6.90733949647225,7.687908184035287
2.384,5.272653564165227,2.3528878251080436,0.07740876098483218,-2.217808914823401,6.475471105187356,2.6676312459968026,6.54316241294806,7.775517603165975
2.388,6.505284271309401,4.7398508206384244,1.2837103945059765,-0.2092619638405544,7.81977384261993,2.4512347412634408,6.429963975316277,7.712669855522052
2.392,7.662836834434897,7.655226604247992,2.9467987494595067,2.333393715520957,8.975816702694233,2.5537144411807615,6.570072203102865,7.5782317243865425
2.396,8.77962696441753,10.702031606144478,4.7753991539319145,4.8805414852197195,9.87851793169488,2.810522192296313,6.896769574229754,7.369452138972487
2.4,9.76954769758664,13.433711687370591,6.396099913532746,6.893734078193435,10.533196595886928,2.9634543342133455,7.29190227648226,7.015381921801399
2.404,10.474271540906205,15.522797687647696,7.498541432899108,8.044952096373539,10.948701683315308,2.831171571609117,7.639789920287107,6.435319126417223
2.408,10.745797905703142,16.84658296341695,7.969667077581162,8.313477032576895,11.105426406384101,2.4191876878626672,7.889863058480009,5.597128936958775
2.412,10.52775341190675,17.472626349525306,7.935974779912396,7.9293834338804,10.993600899820402,1.9077589763993528,8.09136273675167,4.551890967158467
2.416,9.909820579859606,17.582468246379335,7.699602883800035,7.220258589192442,10.679115549615004,1.5416270834118109,8.385435064099124,3.4304826075621007
2.42,9.086768703459576,17.363114686700232,7.550853023967378,6.417705127557042,10.310012814154737,1.4558565730069049,8.916373507435758,2.390857172757735
2.424,8.234836089047558,16.91023541247485,7.561129060791008,5.527842385310844,10.030437205923864,1.5575186986063119,9.71395257767631,1.5387877313477658
2.428,7.398222530427766,16.183864805893545,7.481890134153609,4.341170426522462,9.8399135662258,1.5399937362301142,10.617427132695898,0.8653270886700377
2.432,6.431126147206831,15.014082002980523,6.817682720871801,2.5706289122025177,9.504072303458319,1.0296101465806584,11.304253773203548,0.2387489913309775
2.436,5.061136400039018,13.178118889908381,5.086408406009825,0.0669134113333858,8.615073566511246,-0.19543031438804825,11.44386596350878,-0.5427172941916316
2.44,3.057492031363105,10.536276253579006,2.126632893394614,-3.0005697967665674,6.809078193501646,-2.0481629302706974,10.898637447026596,-1.6525380385120574
2.444,0.43449706079934813,7.186724995022318,-1.6979848974862968,-6.0841130961839704,4.054796599877161,-4.104336360899894,9.867087550861108,-3.123653075526285
2.448,-2.420741246508421,3.5548839828727834,-5.530293027324491,-8.385758377572664,0.8215585940018713,-5.745157582092336,8.849093562461052,-4.794661514562838
2.452,-4.798734613823369,0.3378485455853326,-8.315116313804664,-9.14621562882045,-2.0039680943446934,-6.406308708714307,8.412030976895466,-6.3469409228602665
2.456,-5.92041234784106,-1.717291743244873,-9.228500623866205,-7.977394672147881,-3.466845205624012,-5.805821047276304,8.874579658814714,-7.42832377924261
2.46,-5.315402422078709,-2.150668609743046,-8.064631833521458,-5.107173490298023,-3.016527896546278,-4.0818418426423575,10.056748481256077,-7.821953972671949
2.464,-3.1261650711038405,-1.0664078295042112,-5.359049459268584,-1.3862419183330843,-0.8300980151245296,-1.7559602287187412,11.276324333928486,-7.560002814272554
2.468,-0.15520115350428165,0.8271456768948815,-2.1738902011447356,1.9868481947395908,2.2080776656588945,0.4525319675802324,11.643624016983733,-6.916162675948007
2.472,2.4173498310309176,2.4922072366331873,0.3647289311268411,3.9387438506718038,4.909222511860598,1.8930368416857428,10.524716588667905,-6.2585875309388035
2.476,3.5513424407159278,3.0536300133207357,1.574721454948723,3.994624785713716,6.371445752844682,2.238703463018024,7.952151037451749,-5.8399298029681175
2.48,2.8484087043822424,2.2412913077028422,1.487794744047557,2.4951793560613362,6.414573200521711,1.5975425362288966,4.707353126217982,-5.653263670855608
2.484,0.7688724004093044,0.5230436222916661,0.7579879250476518,0.4307965329844914,5.610331009877281,0.45972896683503617,1.9916830257641738,-5.440891827800525
2.488,-1.5916738074306074,-1.1910509646050516,0.24950307031997943,-1.0662480747793017,4.863138931168179,-0.5264418697020683,0.8219848079667191,-4.87700324996127
2.492,-3.0731277240356665,-2.1238366257564776,0.5224203151533753,-1.3339759250381478,4.786387431376805,-0.8570952462772121,1.4656137916551442,-3.8151635197568066
2.496,-3.0649668882585717,-2.1396462543064505,1.5270006774276177,-0.552920242307207,5.26554758337912,-0.39405472856799406,3.267697146057633,-2.4293493641414283
2.5,-1.8128730692588195,-1.8526013034095827,2.6676726571631053,0.34165891179227303,5.492657660019104,0.5790327705053695,4.996132233917581,-1.1325213307595163
2.504,-0.22932850652496017,-2.210011257544929,3.224773110934583,0.20818483017191824,4.501814640128437,1.5264437160612272,5.565115362062009,-0.2762317764532609
2.508,0.6922908432219138,-3.7755437754203207,2.882860080533797,-1.5795220884413383,1.8948583439249256,1.9675294764446063,4.7398260998574955,0.18994343082929
2.512,0.4992933104510351,-6.184179647705947,2.016046413280698,-4.662322730314683,-1.7117776094357202,1.752891193861307,3.3726895766650093,0.8506397349100503
2.516,-0.43141171993504135,-8.164738626017584,1.5379964793462617,-7.778828990040326,-4.857568094505201,1.157419959219479,2.972102395946754,2.5902534619509012
2.52,-1.1545961327309822,-8.234250186496599,2.3241490888117786,-9.434735370372648,-6.023672279700803,0.6871268784645578,4.755474873575772,6.029136545952182
2.524,-0.8443812567523459,-5.725880276981389,4.52411153592719,-8.822111897596224,-4.62783573364057,0.6996599322953112,8.698832355582438,10.914458416515284
2.528,0.5118905223687471,-1.5372760641833056,7.1721487297860556,-6.471821184281785,-1.6453901716193045,1.0498064385866004,13.156846101842596,15.844007399305129
2.532,1.8761457607149419,1.941120058335133,8.38807217958533,-4.207290550849819,0.5950350577236989,0.9962662868589518,15.367758199502157,18.586320491935528
2.536,1.5988400158787854,1.8380795774285927,6.186432205843257,-4.323710013129159,-0.5429292148859712,-0.4987844705196607,12.708798478256735,16.962504503309574
2.54,-1.6544802698728742,-3.6918552405025125,-0.4792700465369979,-8.368619185626265,-6.594368560691098,-4.205579801612091,4.105201854101418,9.923155981175574
2.544,-7.987258995999225,-14.248398255625364,-10.947405649871929,-16.148225842315277,-16.94801690986467,-10.058346183421865,-9.130285904472288,-1.7135297706111252
2.548,-15.91598608556186,-26.97033797046609,-22.7919354834287,-25.523497257621905,-28.774987457187144,-16.925134546635306,-23.514435346293737,-15.287616387173173
2.552,-22.85185457363812,-37.56182899832333,-32.60528696863747,-33.1733512365326,-38.051008541806056,-22.910639805307962,-34.65984205356662,-27.1594684105591
2.556,-26.22058625373301,-42.116286214532195,-37.28533984043124,-35.98919058768737,-41.228306590845925,-26.079577899960412,-39.01316089364202,-34.05727041165068
2.56,-24.66377418664449,-38.859631174737665,-35.27785652629608,-32.44105729968901,-36.76608306867642,-25.287594056087116,-35.262547480382906,-34.300662113114214
2.564,-18.69477044417131,-28.943416607534253,-27.19764178531057,-23.243399740597646,-25.774990559064495,-20.684792641574376,-24.753819074639974,-28.335052675442924
2.568,-10.454134736377732,-15.895336960744403,-15.549245284018818,-11.01943045338132,-11.496789125309625,-13.640113660945033,-10.770234956617179,-18.36312481949167
2.572,-2.6995258799325734,-4.026684858377399,-3.7104656092197903,0.834579140019325,2.0930412055733294,-6.136497545559504,2.896252700926312,-7.301364314188801
2.576,2.443988141045471,3.4026435773990635,5.360533828538076,9.50651467559148,11.856640731555562,0.07111057474850346,13.385354212674745,2.400885341304727
2.58,4.314914852626896,5.364239530157275,10.102170436059353,13.686837030719223,16.498774576366813,4.086303208268058,19.5618419140737,9.52368716895203
2.584,3.7353449733825257,3.0941915417920627,10.647748403191013,13.69717744207929,16.63941431812784,6.014651798692498,21.925983373628966,14.13911002217823
2.588,2.2768350236483403,-0.903181968654823,8.39748223280472,10.901318665322819,14.05667460800197,6.6025896610936385,21.864868206540972,17.068651015498922
2.592,1.2401563632162573,-4.253004910591122,5.163055081328597,6.82902450239718,10.616246826264057,6.632048611751874,20.746327586573422,19.13697507530174
2.596,0.9501268599319801,-5.752062162735402,2.34809669076248,2.523212723063404,7.471960004042623,6.46239950706072,19.355297506656246,20.654381134261257
2.6,0.7239559927341874,-5.609564799200572,0.4989517144985949,-1.614429214769454,4.860243117258298,5.934501874019989,17.849829682904165,21.35530676503477
2.604,-0.5138820584228823,-4.904386178269047,-0.6220922275880891,-5.520152295194609,2.4624639881637513,4.657969037759644,16.1046521377224,20.738434520339894
2.608,-3.390138472493746,-4.708024436026017,-1.6007254031798461,-9.035771311678978,-0.021023464292948546,2.43167829424032,14.103248589166201,18.520727985999496
2.612,-7.526703495158049,-5.410176392393671,-2.863537495148356,-11.687532594555055,-2.4611404060029987,-0.4967556968162561,12.088783234438113,14.916003421643795
2.616,-11.589402729937895,-6.579468796543223,-4.361788969511921,-12.817560586563374,-4.2836223276814565,-3.477073688126388,10.434820345112469,10.596993752491018
2.62,-13.923784385403657,-7.3551692826159,-5.599930093334178,-11.971240410629731,-4.802610466230414,-5.78729512152861,9.368138759168254,6.4030467916876255
2.624,-13.386225344731413,-7.028056079305504,-5.9255092399807605,-9.237467252840286,-3.632750743769306,-6.999462326657683,8.78285578752061,3.0072314690284636
2.628,-9.902817714291423,-5.4276541174486646,-4.895142704940272,-5.292093764920102,-0.9193582321414597,-7.1425973861730165,8.301552955319037,0.7342544496112158
2.632,-4.48114539898723,-2.9360443659288977,-2.5315697884133783,-1.1133888143700934,2.7239258967123012,-6.594886091856306,7.5189451844679835,-0.41965914955327044
2.636,1.3019192032764604,-0.18652338654233258,0.6650681075192897,2.461075538437723,6.494682025917028,-5.787120975136734,6.248942247338636,-0.6455690386638455
2.64,6.007297355256628,2.2955396280534273,3.9119439283069086,5.04845157617834,9.70094196673032,-4.955051035119942,4.593241610486091,-0.19520089711671496
2.644,8.852533715469265,4.266166081898886,6.444378371795718,6.734295573322482,11.927763879677304,-4.088504455656034,2.8109000525923085,0.6562263129398702
2.648,9.812541439083601,5.679200537896498,7.771091114541955,7.800258265541153,13.017238722133383,-3.095932629139725,1.0988020747921272,1.5812272476494962
2.652,9.326428372071614,6.463413728168243,7.767938211020592,8.3713465441274,12.942015909919622,-2.038688173797611,-0.5554329337562587,2.202186089195358
2.656,7.869013155151342,6.378577345067773,6.6213995733214706,8.247487742852071,11.70006784744961,-1.222752084057937,-2.313191588116643,2.19587927192453
2.66,5.670976290467607,5.079342583937763,4.661763342020141,7.023896494305609,9.297602283274074,-1.0836601940268764,-4.289820164962162,1.4672917980302995
2.664,2.741260740726416,2.36950400669463,2.2056203791330056,4.429147892755113,5.816317333195827,-1.9074531511467434,-6.37726727349463,0.281283795004462
2.668,-0.8837655382814482,-1.5273826005225448,-0.5177585967876768,0.6458612730339715,1.4849775025517986,-3.588193225320605,-8.23085983192528,-0.7734113498548063
2.672,-4.900638268441913,-5.894169045130887,-3.346683033064454,-3.6163738652544843,-3.311336574182147,-5.617462995017035,-9.459941665127793,-1.0205906095866664
2.676,-8.704089167372654,-9.729787006903805,-6.090144139112703,-7.359764084482765,-8.09320008676893,-7.3158495394538035,-9.87841346078978,-0.028970338749591207
2.68,-11.608601080978545,-12.166715032738699,-8.478206695852366,-9.736776825359543,-12.396336668264723,-8.20044070052243,-9.662912458852794,2.131671929373134
2.684,-13.173048870961354,-12.848323770725566,-10.19003644974682,-10.406557053859114,-15.849190883253431,-8.230687699367833,-9.27410781271093,4.87943374997505
2.688,-13.419779723181703,-12.055827941364708,-10.963364080875701,-9.614498977574746,-18.19964256998982,-7.785161540888138,-9.177386569814278,7.374955610262004
2.692,-12.802281575952108,-10.520491384582735,-10.744311605202274,-7.973380412684854,-19.31223748756968,-7.393350114592705,-9.557237982517616,8.909396616892305
2.696,-11.928390594182943,-9.018578415500365,-9.754329050772276,-6.083858852422695,-19.166095066362182,-7.373228634744759,-10.200241977790487,9.216382199684565
2.7,-11.235211671555914,-7.995948184272094,-8.441129293423192,-4.251422360733599,-17.88732761950721,-7.639714812628383,-10.65405483574741,8.531694642743775
2.704,-10.797055045946452,-7.415609311934688,-7.2981263933188005,-2.4430820687999732,-15.768420298363882,-7.777503242117475,-10.55185837976558,7.389267738198086
2.708,-10.377821849735993,-6.899023353139105,-6.6442512635566215,-0.4847167186682322,-13.234128253831194,-7.325350550735782,-9.896927004234676,6.288427857280831
2.712,-9.67521314400322,-6.062977523339242,-6.4914120227241625,1.6574878518850875,-10.728340778203275,-6.089369809335119,-9.126226223641654,5.434764045157909
2.716,-8.568945692378641,-4.824473714105885,-6.554465517268055,3.7299307627540994,-8.560597681245998,-4.26217331326951,-8.897245615573642,4.6944174703118104
2.72,-7.233734960741673,-3.512470605981436,-6.4467544228500016,5.255529539676791,-6.824906034783872,-2.309111367954352,-9.741215010361925,3.7488919355252204
2.724,-6.034284682523798,-2.712086545589692,-5.934356046436617,5.783936617443457,-5.440185572739725,-0.6962705462573768,-11.782995172737099,2.334243626119669
2.728,-5.291132238536803,-2.941557730188494,-5.10749897930619,5.153276777314128,-4.31182767502284,0.34278297521690004,-14.694256269281054,0.39340046260229755
2.732,-5.1012193068666765,-4.368941988528377,-4.387454694866296,3.579197663714676,-3.5235610401788104,0.8399260284720662,-17.902769815719452,-1.9428870346644302
2.736,-5.321798866987728,-6.7166988935755345,-4.333625188037543,1.5284620725328555,-3.4158561591749432,0.9492094030968099,-20.886512488521394,-4.494963286938994
2.74,-5.7162668876535285,-9.397933180131082,-5.361308892753868,-0.5401381746748708,-4.466026646668025,0.7397350422716125,-23.359589367194214,-7.1633381396529945
2.744,-6.137182156832145,-11.791241562841325,-7.506337264886559,-2.3882873111915925,-7.003145378788119,0.11396270162636313,-25.239796295110718,-9.924496566742588
2.748,-6.6107816761237,-13.502829322624727,-10.370829741049674,-4.041800061762684,-10.927322148839032,-1.0833379244301984,-26.46480242128479,-12.695209163058804
2.7520000000000002,-7.278265344431585,-14.49419062389262,-13.287908801009358,-5.666280989892011,-15.609756634634756,-2.8543691217127405,-26.832456518276253,-15.170678938977085
2.7560000000000002,-8.211778551741082,-15.002748010032839,-15.584410216853257,-7.35261837167484,-20.056192309433598,-4.8793106933741655,-26.0067206157551,-16.78116493531141
2.7600000000000002,-9.275226887858551,-15.342985088592437,-16.83652366041908,-8.987352423336741,-23.2907611274442,-6.577044444071375,-23.735019479969708,-16.87094829139964
2.7640000000000002,-10.14152550778487,-15.705851644201385,-16.97670342086493,-10.282011290116829,-24.752037430918833,-7.380389190568622,-20.129656929639832,-15.037043030721867
2.7680000000000002,-10.448030006606746,-16.052551391921522,-16.2112387228374,-10.924845595547797,-24.483871720569564,-7.061557208170066,-15.800793567342932,-11.445958385412524
2.7720000000000002,-10.008050414868666,-16.15139770468131,-14.834948368754445,-10.754479578502774,-23.015637985614916,-5.902783134138728,-11.717853007571106,-6.9223221678923474
2.7760000000000002,-8.927493469051925,-15.711973808747908,-13.044722087788914,-9.831702993583834,-21.012628277838708,-4.553472356932936,-8.813467749685419,-2.715815025291456
2.7800000000000002,-7.5576268295486075,-14.553460167588947,-10.888254262635035,-8.386359392322657,-18.921533454684173,-3.6626046177388023,-7.554668057600125,-0.037554442508358044
2.7840000000000003,-6.315230850638378,-12.727595903006177,-8.359134590830877,-6.689321783629196,-16.809776268071737,-3.4907362214856796,-7.72935986809545,0.41689209450383835
2.7880000000000003,-5.496061962495915,-10.539028486715726,-5.566692024129862,-4.954182358392989,-14.487838087715167,-3.753323413704943,-8.587505101797262,-1.290756065734513
2.7920000000000003,-5.187582830020122,-8.460168357605529,-2.8666963203592726,-3.32581511093091,-11.81239119251649,-3.818848507585375,-9.282289432412789,-4.448204256183947
2.7960000000000003,-5.313183770528655,-6.966984618954611,-0.8221637575939438,-1.928871585499203,-8.951847058389502,-3.1269654942548124,-9.345681675497598,-8.069243251226263
2.8000000000000003,-5.7542180469669155,-6.360334720660378,-0.01255474791812361,-0.9146074423917825,-6.43006061429863,-1.5803148305239176,-8.925019992219374,-11.324391272413562
2.8040000000000003,-6.414645225527657,-6.62066892229653,-0.7490831385645773,-0.4130343883312344,-4.884556060345674,0.36755333072333407,-8.619058848460243,-13.781032690161462
2.8080000000000003,-7.184523708846303,-7.379893205023851,-2.8588450965787473,-0.41422038420265883,-4.71027839920422,1.9850757986988308,-9.024068618356347,-15.375448263072808
2.8120000000000003,-7.865827596136744,-8.052964072220233,-5.69599984686349,-0.6892381440002615,-5.8254371377832,2.7163214627889163,-10.288769994669877,-16.19477143651223
2.816,-8.126822176697733,-8.071831562048438,-8.365852369706342,-0.824424934166629,-7.699563257210176,2.55764887914152,-11.937276898876068,-16.24829643464036
2.82,-7.603255457305207,-7.151263887369833,-10.09251391382746,-0.4216455261359897,-9.650412068352123,2.0822100978721414,-13.087314721223866,-15.411466830327152
2.824,-6.118314077275868,-5.450153974090392,-10.54141522122072,0.6378082871651252,-11.220510350597552,2.101987657739847,-12.94953867280164,-13.573111192478683
2.828,-3.869280258360451,-3.5215779163552545,-9.92288875540001,2.0378168328931876,-12.397312845119705,3.172676240410791,-11.297748690591805,-10.86852238484492
2.832,-1.45544290549004,-2.062046195247255,-8.83977395416306,3.097332435531049,-13.53516937486996,5.231431838331187,-8.634511789021094,-7.8128040561414345
2.836,0.3424018401298232,-1.5489822396353423,-7.935152025816741,3.100031163694201,-15.020124577821809,7.6216293286624195,-5.93199046560193,-5.196968646288068
2.84,0.944221663748114,-1.9596608930610206,-7.546691394212619,1.708497302141675,-16.9033538619798,9.468260245881247,-4.106567652164893,-3.7820052504118116
2.844,0.31115398705146635,-2.734500954390559,-7.532961306589309,-0.7616422678782289,-18.72742331838046,10.193590456052206,-3.516482128162476,-3.9511794140940477
2.848,-0.977765051442054,-3.0345189105415016,-7.365003322267773,-3.396370665697771,-19.677857814632493,9.851004122400878,-3.771880790210916,-5.53100948419932
2.852,-1.9929382624828804,-2.1841659796043116,-6.446433589808946,-5.080573234734385,-18.9860540011651,9.061288007569651,-3.9834657016120723,-7.898032929767412
2.856,-1.9176056313671337,-0.05163093729710111,-4.452805554532653,-5.027454300352931,-16.344093811715254,8.6258896502212,-3.28565829285308,-10.30103694556702
2.86,-0.45781071971069487,2.842040540155491,-1.526228732704433,-3.172209764255811,-12.107329043768205,9.037648797246874,-1.3449018240012407,-12.20171630556818
2.864,2.0362348382350683,5.56310252694975,1.786565522932798,-0.20562498268172646,-7.171120589620888,10.205206466298938,1.4317665337011833,-13.430804128800148
2.868,4.794047518531526,7.234833946598059,4.812104710886926,2.762356734009369,-2.6031693325346517,11.551461000236978,4.100962666850116,-14.079515043339072
2.872,7.041349567050757,7.470264475699518,7.055820704751826,4.7152336803183434,0.7559634870492551,12.396766097153211,5.652192525081251,-14.226346938256377
2.876,8.375045825383387,6.53744323537501,8.387778824390034,5.160569687049058,2.522535951381448,12.400417158631704,5.4954414482461935,-13.704959316182991
2.88,8.884174385402172,5.166152736575791,9.005208388058257,4.260183675964495,2.7575404903699092,11.75659603962582,3.7002087901511542,-12.09588855108044
2.884,8.973444354468924,4.117711143004777,9.22077886212203,2.6330212580456527,1.787278847661864,11.039586943619605,0.8885317183655572,-8.97324002951769
2.888,9.05165589920898,3.7848594001365155,9.235133130645725,0.9895755316729073,0.009072260179770808,10.811776351281523,-2.1123796265435493,-4.262413862724861
2.892,9.297031502097418,4.04457727926376,9.028170347030708,-0.18895951843214664,-2.1951707250575776,11.236465567607553,-4.660877368421474,1.533322497312355
2.896,9.647471469731482,4.437825932969501,8.445016579245195,-0.7568902726467437,-4.4320129254983875,11.958823475422456,-6.514374655595808,7.406788350406892
2.9,9.965179775061591,4.529361426378337,7.377875741433801,-0.8017929461306084,-6.260445816402189,12.316670946491246,-7.790690329193051,12.217566683213663
2.904,10.208376890692117,4.205149509957778,5.9196815138460375,-0.45795689357646197,-7.245159499100373,11.762176731208434,-8.745747785083893,15.179026328403555
2.908,10.472686652662968,3.7198290452248175,4.377736519196252,0.21118150472491504,-7.127302779841541,10.227707486262354,-9.523099623888143,16.18672038070941
2.912,10.856453815275266,3.473265171961322,3.1216015680872573,1.1817998565596182,-6.009177346762952,8.197477702045756,-10.018897798026927,15.812909824057854
2.916,11.282573698937751,3.6993373196937913,2.401587545751247,2.3622013323249025,-4.38524809949706,6.466291160433089,-9.900246248080688,14.979490653406891
2.92,11.45024563704379,4.284213601324378,2.246014702164466,3.517952110511236,-2.939407588953072,5.6991578918703825,-8.754664895732947,14.48303658088262
2.924,11.008578143127803,4.8420854267351565,2.517558194128096,4.321278179789775,-2.171581323419189,6.065379485067737,-6.279348941102951,14.633923903599444
2.928,9.860992352877464,4.997441009402445,3.090064901451044,4.515396215640453,-2.060558551637577,7.160917924130935,-2.42755306782003,15.186346480129668
2.932,8.36631309577966,4.6606570118463715,3.9872247344518716,4.082337805042679,-1.9869579846854908,8.238245634982817,2.522976923506125,15.565864670920332
2.936,7.25754502444974,4.1075318463458075,5.388619922347122,3.2961182619889318,-1.0054069026215644,8.617051042324393,7.998380266443552,15.236957375143545
2.94,7.235502015795828,3.7839659835752766,7.4519821603584635,2.581781386571751,1.6373102283663352,8.014848719384922,13.2221481105264,13.98853123347814
2.944,8.458175880248506,3.9695530803827683,10.082263958899764,2.2718563259167395,6.027875010072552,6.637975372441105,17.375490343891048,12.002275011006134
2.948,10.286207226704246,4.5574905229430875,12.832121147088458,2.414920692274533,11.43366949838233,4.999911228545848,19.808228078075928,9.69772646519963
2.952,11.48447792608676,5.10849997523007,15.027448289617405,2.75469671208968,16.59048965682892,3.57988410688948,20.241590958059557,7.481476529256059
2.956,10.86034312907451,5.171492615749995,16.104843387281797,2.9232934170144222,20.29281386431009,2.564766778712903,18.896307839997643,5.559652488096294
2.96,7.987046436999147,4.6457791116205875,15.940922812261737,2.709073275315996,21.945354510443995,1.7972285856615202,16.44182327444401,3.913743649636533
2.964,3.5748714251229514,3.9254436639071626,14.968043617621904,2.2272243907788236,21.77443768589302,0.9612657388416932,13.754341915956761,2.428640948490002
2.968,-0.7697176389193583,3.693316115357634,13.966952892674325,1.8726690798790173,20.57461582664475,-0.1262665716603788,11.56427211206971,1.0550149738135195
2.972,-3.334075102485163,4.454845621139544,13.59636620819764,2.0622335988761282,19.14340211210474,-1.323941646012468,10.129245181519863,-0.10467974367982791
2.976,-3.205084394269111,6.120219150593114,13.952401874936825,2.9320105018042195,17.75483598898267,-2.1793337939889206,9.123048810526704,-0.8416242167007262
2.98,-0.7742513984372472,7.916720633984083,14.41242701085121,4.169091997480177,15.983849088716298,-2.1772510018892124,7.806307062892724,-0.9924985213449737
2.984,2.463411322712057,8.73058743619989,13.90114070469737,5.109187630026426,13.001005351715431,-1.0665259773104605,5.422218684969465,-0.5915660257811304
2.988,4.727793347432332,7.7127814810053446,11.475152745770131,5.056184907019508,8.16043750724374,0.9237647492516086,1.6380974508752306,0.07532020629705016
2.992,4.911668997130414,4.792845656848889,6.902826780614319,3.6450397514794837,1.5422053547397478,3.1087031682407753,-3.187466463633153,0.5676454407965341
2.996,3.1479429498393108,0.7947164241829747,0.9345621776011228,1.0607070479965577,-5.870500083502323,4.640976693238332,-8.047712235712197,0.496011356345611
3.0,0.6564767311555153,-2.9451376939360356,-4.930521717070246,-2.0269789497877406,-12.50929636915765,4.903266160571931,-11.657284330837998,-0.2832335409276976
3.004,-1.0173186877736375,-5.234448694225695,-9.062889607260878,-4.755288653560369,-16.847151823694485,3.8237694653276195,-12.958805397217187,-1.5713683280747812
3.008,-0.9047028331527196,-5.587458687795358,-10.396005415126528,-6.437044458662932,-18.01397748111946,1.9422858230216598,-11.526764602661029,-2.893627488166776
3.012,0.8633495499915433,-4.397392019368635,-8.868369037483047,-6.827055765318539,-16.09806826681466,0.1683300075784846,-7.726210623540679,-3.7072675695081836
3.016,3.2197338786655827,-2.625556583521117,-5.374050965044377,-6.153109490867802,-11.998136636181405,-0.6333291667039036,-2.558059681797671,-3.653343119221921
3.02,4.861458810005642,-1.2251288113716394,-1.297422032644619,-4.944980468755177,-6.950015104741326,-0.05671887387354868,2.704297915139737,-2.7390852824335394
3.024,5.059939260429959,-0.6299107483554959,2.126850117919536,-3.754211754339848,-1.992713194474121,1.6572726099685455,6.92586988003058,-1.3559536998843345
