Timestamp,O1,Oz,O2,PO3,PO4,TP7,TP8,Fz
0.0,9.485745522397337e-13,-2.6290081223123707e-13,7.958078640513122e-13,-1.1084466677857563e-12,-1.7763568394002505e-13,-4.789058039023075e-12,-1.8047785488306545e-12,-3.083755473198835e-12
0.004,-67.78437184872425,-59.13486429288015,-108.26450556014524,-71.47737590458591,-52.63969702457026,-46.80181608864443,-59.933043011678585,0.10565011057610718
0.008,-117.30977622492506,-102.13261633836727,-187.2430086288704,-123.92565161142906,-91.00674301971344,-80.7654369456099,-103.19571257975238,0.9226949308985297
0.012,-138.39459945143224,-119.97502208008956,-220.39704549653112,-146.6294438102621,-106.9551294098033,-94.71088541861612,-120.55250198351122,2.780847731674207
0.016,-132.91210425237688,-114.2948182229987,-210.29774642595237,-141.3321255724197,-101.55242679485224,-89.91272925118535,-113.85253435932563,5.44069238918911
0.02,-112.7106555257584,-95.59518314728919,-175.5312525186918,-120.2004402230712,-83.65787431327077,-74.68536576008523,-94.09031705128982,8.179806019375008
0.024,-92.90870678579913,-77.3658442240567,-140.27497856704974,-98.99021537293572,-64.9718872585883,-59.703466945684596,-75.18952361433334,10.133554768183572
0.028,-84.29842644943153,-69.3553660731748,-122.32787714293713,-89.19303424052988,-54.29946258948271,-52.67240120207468,-66.99623150851747,10.708312495515813
0.032,-88.94189970194643,-73.59172207652199,-125.96170589571473,-93.34681342366135,-54.055535289112456,-55.202315747933895,-71.24850771346229,9.860642132261631
0.036000000000000004,-100.96301924321324,-84.96186799865268,-142.80674504546272,-105.64275545793504,-60.56882995942643,-63.297712246583956,-82.36949773457512,8.100095599787323
0.04,-111.36989281538266,-95.40440976434697,-159.11689506458825,-116.76526655850549,-67.4557113889812,-70.69314040069916,-92.00692017468214,6.20006916171404
0.044,-113.71980667338623,-98.95569146343229,-164.55870524493452,-119.77421218592627,-69.77936287025196,-72.8136248217564,-94.32579562897544,4.788794821531674
0.048,-107.33712119432934,-94.72253007234883,-157.400100224823,-113.62649853625813,-66.5804540910032,-69.06498118787013,-88.9651262572991,4.014341980919163
0.052000000000000005,-96.71123733191655,-86.49524795180338,-143.87233066190524,-102.79686725998967,-60.68269446417658,-62.45728860834966,-80.36196706056947,3.484252511285611
0.056,-88.07795935722511,-79.78688398913678,-133.11198831196128,-93.86778844873413,-56.37152269559617,-57.23291490930306,-74.39405757985418,2.534708706117655
0.06,-85.56328205617531,-78.35535368629394,-131.24999417851373,-91.44373077425305,-56.60438897291075,-56.16399041755567,-74.63815352155137,0.6604478677048888
0.064,-89.2014713869911,-82.30366728279725,-138.23764752919448,-95.82150693527119,-61.434489929950885,-59.145153276498355,-80.49731732028425,-2.1211116993605827
0.068,-95.63637541497593,-88.58069799673633,-148.77325676004563,-103.44515989455765,-68.34103074892579,-63.68895976759355,-88.0144122450121,-5.200427381347431
0.07200000000000001,-100.70664296026317,-93.27732017315485,-156.23905715464593,-109.52045610959117,-74.01864913352637,-66.78507918829072,-92.59371130730523,-7.664876650258613
0.076,-102.0980425385051,-94.1221300209672,-156.90700727754407,-110.99459958934813,-76.3793624625427,-66.82706654624019,-91.80710335125622,-8.793180564429228
0.08,-100.36779599568837,-91.58756750453578,-151.72951520143567,-108.03813366961089,-75.50842484277312,-64.38359045733597,-86.54804098775023,-8.493616104561504
0.084,-97.9696805927765,-88.13862089944661,-144.9713130941904,-103.37558089072971,-73.16639797193793,-61.486418561290336,-80.04601756138644,-7.400098190458799
0.088,-97.17835140396559,-86.3218675901447,-140.92670857001826,-100.16428593906191,-71.35186343645378,-60.06969817154006,-75.58990989963058,-6.568343406443226
0.092,-98.47130109214189,-87.09167238203354,-141.13108495592581,-99.9742692752344,-70.98938353811629,-60.69808425489649,-74.56477244381165,-6.910788065930873
0.096,-100.4250202544815,-89.43270938904016,-143.83377305245892,-102.12865789631886,-71.56703675735434,-62.38911654583922,-75.99682388565283,-8.666165497720868
0.1,-100.94296697520764,-91.29354075875321,-145.65083866379848,-104.53261005652928,-71.7541821677962,-63.472807847070925,-77.61200342338117,-11.231432791239705
0.10400000000000001,-98.82191407493346,-91.05127366629526,-144.02003196459833,-105.21741120883539,-70.43041934968585,-62.782986360827884,-77.52065235069901,-13.449831106128109
0.108,-94.53149699624328,-88.48463957847659,-138.7265684071052,-103.49909283816247,-67.39619425217482,-60.353516098455366,-75.35480447375008,-14.23445553699898
0.112,-89.81861082184062,-84.76072694392857,-131.76081650676153,-100.17171566867346,-63.41499147856769,-57.26570719628079,-72.2688116867421,-13.171559744388631
0.116,-86.57980766515323,-81.63062907041471,-125.9400224573288,-96.84611434652362,-59.723979896670556,-54.887143823413126,-70.02024899905703,-10.762002989271075
0.12,-85.73245923081137,-80.37548751356579,-123.23333671779385,-94.91175317703025,-57.3587087135402,-54.01607953829713,-69.7907769037405,-8.168033504620297
0.124,-86.7864112921052,-81.16027965067113,-123.82736872888154,-94.77811828395434,-56.6898499701598,-54.46568003426056,-71.50489988744113,-6.574880362058536
0.128,-88.25928225965566,-83.06853173858147,-126.29118150471331,-95.73809339673002,-57.35468695235424,-55.27052478108763,-73.96162297343503,-6.54101267658649
0.132,-88.63249737769644,-84.7315643929455,-128.6252019417854,-96.47941299326924,-58.56482904212345,-55.34345714180156,-75.63922668612838,-7.689720293936766
0.136,-87.26061393761105,-85.13955734705968,-129.49353137148296,-95.90662995900689,-59.56919991062723,-54.16601696180844,-75.63751355237008,-8.911564639686723
0.14,-84.64198748060684,-84.10230974501312,-128.78756766776502,-93.71580547389284,-59.96553754634111,-52.06418100280604,-74.1205261174403,-8.995108139750414
0.14400000000000002,-81.98867564190012,-82.18405245280836,-127.31682251995545,-90.45948266201529,-59.7416554272287,-49.94460490769958,-72.05917777627299,-7.314333217749251
0.148,-80.40651044485236,-80.21693904684008,-125.93978422429427,-87.12995285970183,-59.090521046574956,-48.700855719848725,-70.48759325049456,-4.2076576887225485
0.152,-80.28308956347703,-78.8046542904269,-124.89242389212257,-84.63181787460736,-58.21542569202828,-48.725915445989784,-69.84616735944542,-0.8295183819833056
0.156,-81.24112409493483,-78.12312859816495,-123.78585065019377,-83.46357511448008,-57.25967956530367,-49.81446195873468,-69.8344660688035,1.4545943396739318
0.16,-82.48983512773721,-77.9630641772954,-122.04273841995195,-83.60748697241458,-56.29018067876465,-51.38790188561317,-69.7155198211243,1.7739198382680144
0.164,-83.27355043188479,-77.89120500928374,-119.37217796330076,-84.57921947214776,-55.27371400354013,-52.827317680355414,-68.81691795565924,0.19427923881736575
0.168,-83.11589577284147,-77.38017567672856,-115.89938443832709,-85.55445908434586,-54.03768944528147,-53.69769893022086,-66.88442029205812,-2.355413217724667
0.17200000000000001,-81.88133217939833,-75.9630037777422,-112.04134331603753,-85.64109128122894,-52.33771181088228,-53.829462051744095,-64.18450361233823,-4.612322537931313
0.176,-79.78235757532585,-73.46574989175014,-108.36732403901168,-84.29667259180314,-50.079553722214094,-53.325391501842844,-61.40404310042333,-5.649680719265255
0.18,-77.30580487679744,-70.17233314561088,-105.433617824273,-81.63867694222091,-47.53087576495899,-52.494079781797325,-59.36517767588569,-5.33383705487082
0.184,-75.07921645199224,-66.81750798528574,-103.6367647556527,-78.45520464324326,-45.34443917316087,-51.72738310110577,-58.682546963104585,-4.309284275574377
0.188,-73.62885744523956,-64.29841854928368,-103.03696526020369,-75.8202397676088,-44.28123246316403,-51.3278613479784,-59.46338667798422,-3.5496264924324095
0.192,-73.1603061783791,-63.25332911134514,-103.31270458663934,-74.54524189838988,-44.78678070171669,-51.3741820819317,-61.225765125206706,-3.7360920900559513
0.196,-73.48902453857029,-63.74363014321437,-103.9389035532642,-74.78398858334069,-46.67643972037017,-51.69484195271261,-63.10639564964358,-4.806633672199343
0.2,-74.0735055058581,-65.14255776354926,-104.38453099919906,-75.91435493248804,-49.08493064158887,-51.92049300123733,-64.19314466805393,-5.9463790884031305
0.20400000000000001,-74.18298093678841,-66.34384430414126,-104.25650846784511,-76.76909053286602,-50.75383815851248,-51.59998447195412,-63.84380443951908,-6.004853812959141
0.20800000000000002,-73.136096947063,-66.21802981224332,-103.31618787208599,-76.11078455652168,-50.54877021368892,-50.35417182633141,-61.86068503181344,-4.1295375709828726
0.212,-70.60502462690775,-64.17894358320314,-101.51280531986878,-73.21790925064948,-48.01915421933745,-48.067838970625274,-58.541668777746786,-0.27112241895778766
0.216,-66.88384585823772,-60.5940948217187,-99.09642946759129,-68.33160033212849,-43.73250435101424,-45.052017994143796,-54.624998548327795,4.715204856347423
0.22,-62.86028109201928,-56.69986404536649,-96.58975156679092,-62.636250058493815,-39.11585770923273,-42.01122656325167,-51.05342810151583,9.401420865850486
0.224,-59.66574241557916,-54.01275044853313,-94.58843447097232,-57.75449201857823,-35.83636459672793,-39.77747208470028,-48.62293620149648,12.403236710166993
0.228,-58.14806854240496,-53.528151822545546,-93.4755213908446,-54.99828803437411,-35.03606264162182,-38.93214281950587,-47.672793937823556,12.957027951324832
0.232,-58.47415768894626,-55.187190011619705,-93.26435538188593,-54.799954264562885,-36.837006619874785,-39.53710426390376,-47.98525629733146,11.188238202413977
0.23600000000000002,-60.028780293901804,-57.880268656474925,-93.58945046590674,-56.56061872401671,-40.33418039379774,-41.08996757669883,-48.91613984240497,7.984119443604797
0.24,-61.65271794626052,-59.9857677044462,-93.83230298149155,-58.96769614634427,-44.06310506650023,-42.737799748688815,-49.6842966216024,4.552725553670953
0.244,-62.20741150841102,-60.239713292708714,-93.46958241833624,-60.698684975978146,-46.75156164265405,-43.71010110378972,-49.76394312125847,1.9030959145257782
0.248,-61.11783903802392,-58.389677866757886,-92.35008169009433,-61.06423528732948,-47.902396142833474,-43.69416903963993,-49.12566735446619,0.4879848614177611
0.252,-58.56936601658088,-55.22135132022025,-90.6754462324241,-60.20681857327675,-47.864991432318824,-42.912219979850086,-48.15775914773506,0.1570455440166647
0.256,-55.31733854838726,-52.002214645635426,-88.78120763105073,-58.81796607495437,-47.429343615269275,-41.894268362911674,-47.35803684292944,0.40087276519706094
0.26,-52.2685776010137,-49.71966460597271,-86.92127494191428,-57.618784012480475,-47.2524975811937,-41.11905417330783,-47.01845975960703,0.7155566962969324
0.264,-50.09834998675393,-48.60386267239703,-85.24410967014018,-56.963282490848144,-47.4913102595979,-40.7633880050745,-47.10905161605607,0.8888513473551889
0.268,-49.01374537719944,-48.1349097931275,-83.83008602049111,-56.705558929467145,-47.78934877506937,-40.650541098868516,-47.34135477342649,1.0545286268885086
0.272,-48.70726505385397,-47.45236889277243,-82.66081410984063,-56.33351380378801,-47.56053104992136,-40.38613901608452,-47.30988167524436,1.5143398802956654
0.276,-48.5369601122253,-45.92642187486254,-81.58229015467388,-55.306646497761804,-46.39682057274513,-39.615006164851934,-46.654351095391945,2.4617520413627503
0.28,-47.88278781045499,-43.57847437844022,-80.371539685112,-53.44441103431845,-44.380241150524604,-38.27862901285495,-45.20966224814178,3.76728479909978
0.28400000000000003,-46.52902669932075,-41.127449678177584,-78.93943552580703,-51.166028982925695,-42.122726563966296,-36.73591106892376,-43.110294605999165,4.972710647217784
0.28800000000000003,-44.791547003979936,-39.58441007579924,-77.44426896569053,-49.34929161996386,-40.45861247352191,-35.61914664375528,-40.75718181124635,5.49208292931068
0.292,-43.278006567680706,-39.605351481370114,-76.16215907583955,-48.824984918701546,-39.92780349784812,-35.4600521848552,-38.63147377831308,4.913814475874393
0.296,-42.458192526154576,-41.024823761425765,-75.24725655579086,-49.83429584874646,-40.38489454518792,-36.325212081272284,-37.087527442751075,3.243297702056596
0.3,-42.34373864058003,-42.88976023092489,-74.60056484145942,-51.818351519443254,-41.01779580117526,-37.71204493940996,-36.26833967721413,0.9383717768398085
0.304,-42.51138562423523,-44.00587630723979,-73.99499504951336,-53.72045989333705,-40.81115577638915,-38.80632961701271,-36.181828015020926,-1.2728187827834514
0.308,-42.38397731488448,-43.609269969133045,-73.26713227782453,-54.55608997700806,-39.142787874273296,-38.90887356197361,-36.79024821468184,-2.7023463266983505
0.312,-41.557703727216825,-41.73654312023679,-72.39153158754849,-53.8841084595576,-36.148754837644326,-37.76570737416205,-37.99643145560663,-2.9908599624633396
0.316,-40.02677217589763,-39.13134477935157,-71.4458998955684,-51.959368264811495,-32.666477282727925,-35.650960375209934,-39.560860391384125,-2.22971487084146
0.32,-38.21674838165197,-36.81458112641119,-70.55397883451978,-49.547600244008464,-29.828996647470355,-33.20603303435857,-41.07779019583495,-0.8817202240372897
0.324,-36.83975179158104,-35.62152550491798,-69.91347581280492,-47.572800133813004,-28.55983054076079,-31.164204512485174,-42.10940000175109,0.4444876132835729
0.328,-36.562491332424386,-35.882878190306656,-69.76748575884977,-46.721579831614946,-29.173197659451894,-30.059693346173496,-42.36472548409935,1.2451645382584227
0.332,-37.6090328732503,-37.337959633789396,-70.22760069119977,-47.150188026228,-31.23453885512675,-30.02498030294703,-41.78787927645642,1.2841500242586088
0.336,-39.54692808715077,-39.29300626078281,-71.09394085348293,-48.450553432981394,-33.74899661724525,-30.77342776146612,-40.5220141048318,0.6256228611776384
0.34,-41.407641683567704,-40.917868026666135,-71.83167280804236,-49.8867081870459,-35.588986620193936,-31.764044575538904,-38.77577151158398,-0.43684620077667
0.34400000000000003,-42.142506282252775,-41.57239083628463,-71.81525785652111,-50.79689001344508,-35.98639426562646,-32.472485322567266,-36.703377029379794,-1.488086821229441
0.34800000000000003,-41.13162034995116,-40.99646161625859,-70.63449918504512,-50.87903225776689,-34.82291585135172,-32.589033882385884,-34.33542918005293,-2.1057079419927334
0.352,-38.45004205980118,-39.30262830332966,-68.24743066346326,-50.190898802134406,-32.57915111155815,-32.03968996600052,-31.592210685727927,-1.970453766080233
0.356,-34.80443136318212,-36.867059274214455,-64.96640164208931,-48.95576840557016,-30.03205860028205,-30.892780678515912,-28.41315165633909,-0.9680902952270705
0.36,-31.226626514015575,-34.22969888668365,-61.35029355770826,-47.379445929501344,-27.910964523733877,-29.286327933261145,-24.961014688271703,0.7173188345506567
0.364,-28.699776374314926,-32.035037400678384,-58.096047524948595,-45.629647029347154,-26.67635211913803,-27.44530879315551,-21.77328908105428,2.5895884549333283
0.368,-27.79577684425893,-30.88856175625035,-55.83139492137792,-43.87535756019373,-26.419027827495817,-25.696150929872008,-19.64637921409727,3.9598019902651584
0.372,-28.419026906899557,-31.088575539212393,-54.79452958397884,-42.25894195834509,-26.834820100738,-24.379499996368736,-19.21602357632827,4.208453971518251
0.376,-29.80551462597169,-32.38758462493411,-54.623345175451966,-40.815601841614324,-27.31153936632856,-23.69001400359217,-20.494217589222707,3.0952433984584076
0.38,-30.821862675851733,-33.97778639790745,-54.459282275793896,-39.41490577543288,-27.149233802501737,-23.540771043079648,-22.693275631061212,0.9550675674097613
0.384,-30.508495372808703,-34.82984902293167,-53.427823553625124,-37.84431552301965,-25.891678949664374,-23.585772029223246,-24.55189455690541,-1.359662691960958
0.388,-28.577364240632008,-34.21833912997345,-51.18277163064659,-35.97668160133661,-23.608750576870996,-23.390424652678924,-24.999952082979988,-2.8310446547991823
0.392,-25.576161705865786,-32.11651583852601,-48.137335280826136,-33.88842296362738,-20.93853117166174,-22.647028892889175,-23.74985871560341,-2.7609905949026032
0.396,-22.643880364851835,-29.238655336543243,-45.26395312172488,-31.871147245175052,-18.83831355321216,-21.340713622408472,-21.471313903134764,-1.1307186872677835
0.4,-20.97263848952146,-26.682801585183235,-43.583622705449045,-30.312662649628002,-18.13414156576453,-19.769321201426745,-19.42133153402868,1.3810487472148303
0.404,-21.259701887682922,-25.373111589585225,-43.65647381755279,-29.51736958668572,-19.082807520249585,-18.403460535607792,-18.72652172157954,3.770948516916464
0.40800000000000003,-23.358744237270656,-25.562785458656144,-45.256976117222194,-29.499588036256558,-21.14798966639512,-17.62253549897357,-19.681796481635416,5.263568855042392
0.41200000000000003,-26.28302569722169,-26.664002077062204,-47.37363477754153,-29.850410806559122,-23.134224939712425,-17.453433358425656,-21.480695889439126,5.710126345643161
0.41600000000000004,-28.652653524313823,-27.573454914943554,-48.640915537956204,-29.866558592213075,-23.710352996396935,-17.525686210813873,-22.63007312481255,5.565584530822368
0.42,-29.421002058096597,-27.36442802621638,-48.06547785066823,-28.969777038166267,-22.1365888378856,-17.336117145984062,-21.897632114944702,5.419117344064206
0.424,-28.55234474778554,-25.980871401210152,-45.72598278914198,-27.240443179702954,-18.847185499101528,-16.709233987063996,-19.29105458496745,5.370540115035261
0.428,-27.19608334922244,-24.444930792972457,-42.93614400953939,-25.659560879397258,-15.47547524074411,-16.114923390156935,-16.398076249145372,4.675072767604544
0.432,-27.145904953302946,-24.3603512271246,-41.644391021875094,-25.77551934963634,-14.182301127127326,-16.55777310690682,-15.748200226615733,1.9687342155918195
0.436,-29.83277471763579,-26.959113170831323,-43.37515946265799,-28.897625789081562,-16.58033579429093,-19.032661607514903,-19.474563832691192,-3.9538208321407673
0.44,-35.39410257070027,-32.24122091132287,-48.298235423612184,-35.237241941380105,-22.80798562081849,-23.835633883527006,-27.99843245869116,-13.211333126120753
0.444,-42.38846020401651,-38.75291437807006,-55.00913451722516,-43.52329419202351,-31.285195397423955,-30.15523782541218,-39.511860034253544,-24.305718529180364
0.448,-48.319709006920704,-44.13397485964065,-61.08722164090047,-51.326124120199864,-39.294331099098535,-36.19655905481432,-50.56210144937113,-34.394459660914926
0.452,-50.71053239600137,-46.14773526438162,-64.10536645030267,-55.97022604841208,-44.106096629007986,-39.8193818647432,-57.45800652743901,-40.34004812009299
0.456,-48.22487864145419,-43.687702659938125,-62.640868759446626,-55.65298762228091,-44.13017588037062,-39.428236394989675,-57.82884621091393,-40.05213488284524
0.46,-41.30476757501056,-37.27731314658604,-56.85394825482679,-50.27064621986485,-39.56321947948352,-34.69847483156484,-51.59537080303926,-33.4643000092943
0.464,-32.03315162385965,-28.853424583162532,-48.44071670372741,-41.56554972510815,-32.25344610471861,-26.789506404094546,-40.929149915439766,-22.61828668581504
0.468,-23.228819570948254,-20.901115596636977,-39.906735842274145,-32.429380526510165,-24.81592473032094,-17.871982381656068,-29.207781709666698,-10.78190087485104
0.47200000000000003,-17.193620673572653,-15.366443496683178,-33.47026618310453,-25.64800143159503,-19.430054112922633,-10.18810248869692,-19.502908482445932,-1.0517035240969308
0.47600000000000003,-14.77780198997145,-12.920420401665721,-30.164214739826477,-22.729329146157102,-16.933119036658702,-5.148995094228536,-13.38069090801413,4.855902313947876
0.48,-15.224413724144414,-12.918900070019461,-29.56801319445059,-23.390925315225214,-16.642723978627735,-2.9249694480029396,-10.568776940204685,7.044655782341693
0.484,-16.83324135973227,-14.020297152926464,-30.282729294457592,-25.94612196701916,-16.95669410644006,-2.698876998831584,-9.56116778576208,6.9791387326438485
0.488,-17.97791510723372,-15.019665285680071,-30.76470837304293,-28.283799723929697,-16.329821846450102,-3.3388232576141417,-8.680288768527388,6.451127834108983
0.492,-17.877209888033416,-15.400521782607065,-30.02295128716997,-28.87822347211145,-14.076660636131209,-4.053853552350391,-6.966009172586635,6.562232146424619
0.496,-16.764309667900378,-15.369481024427813,-27.913668810483937,-27.35499406653426,-10.633269700366984,-4.680182133564115,-4.484588817536844,7.26510153403306
0.5,-15.47387418256642,-15.46622461681903,-25.005768225630764,-24.42850709632806,-7.232112620840365,-5.5213844224996125,-2.038374903759364,7.6271102140966285
0.504,-14.817743433623288,-16.098114343047307,-22.24687185605037,-21.387196833724694,-5.245393832098289,-6.950819930716434,-0.5932826530624689,6.579031545021127
0.508,-15.103487380638096,-17.259365701235318,-20.54665310418504,-19.409606592171727,-5.518520916715945,-9.043616384005853,-0.7480339246336871,3.65995978213369
0.512,-16.01552076767402,-18.550396706558345,-20.39552182527256,-19.02972102249463,-7.977440474885017,-11.448675019962197,-2.475040219380834,-0.6662398626770623
0.516,-16.875753577790196,-19.447245330751358,-21.674271467377984,-19.979927771627665,-11.659459270754086,-13.566784000306665,-5.204573933973613,-5.250093437414133
0.52,-17.082627797010307,-19.616403446266585,-23.71689572514483,-21.434030100251494,-15.120369545132442,-14.90015060852263,-8.133579567013825,-8.867453400514112
0.524,-16.476105972283296,-19.09187368861421,-25.635494748455315,-22.49416177220199,-17.028351150507717,-15.351942633677007,-10.586013411770388,-10.810749853362907
0.528,-15.383077257267608,-18.192101251220176,-26.694707316161235,-22.595692160406507,-16.65893680150057,-15.256361120519639,-12.21712539525879,-11.139885983454436
0.532,-14.330729647599004,-17.234902078742145,-26.537819998986087,-21.621351628618505,-14.090225333277875,-15.114170420592515,-12.988415631616032,-10.500480996195634
0.536,-13.662450295012508,-16.277098043059535,-25.233595791327307,-19.763325376964556,-10.083150694745877,-15.235062745928374,-13.017320284876263,-9.665285107906678
0.54,-13.31913121813907,-15.081014527527252,-23.18521554979817,-17.305815303618626,-5.758908779007612,-15.535318760041756,-12.44253121576496,-9.097893400730637
0.544,-12.959205051933276,-13.370124645866454,-21.025036244835412,-14.530603079566804,-2.2429984364177513,-15.645523789481775,-11.410628964243905,-8.769977916440507
0.548,-12.267810653325725,-11.158156077026455,-19.445187888127542,-11.733075654265878,-0.35929881771633565,-15.214145555742231,-10.113659837259668,-8.310279573381337
0.552,-11.217963401017276,-8.89865066296233,-18.958895583594867,-9.25576998399437,-0.42994881365646487,-14.183541697855219,-8.796252240646288,-7.357759024082521
0.556,-10.122659848596513,-7.333217863241364,-19.70231583199927,-7.465041377791639,-2.228487984826259,-12.857680642579231,-7.707880226385626,-5.871207606398113
0.56,-9.460831529935088,-7.107482691602133,-21.377808091643672,-6.6447873820835595,-5.10344926716099,-11.724985486081058,-7.022356614749944,-4.212155883173814
0.5640000000000001,-9.64076748346685,-8.412622413606584,-23.438554477668756,-6.899251194412603,-8.256834099133242,-11.185220450418427,-6.817373583906454,-2.9651038989690672
0.5680000000000001,-10.791860892902374,-10.818584493823368,-25.341870311930784,-8.08085920949009,-11.027958650251216,-11.326768689667293,-7.078838526093848,-2.617530463155152
0.5720000000000001,-12.668018913248215,-13.387891842308061,-26.699573909257918,-9.774294434778241,-13.04504229232981,-11.873201560722297,-7.684770141409141,-3.2905285261703856
0.5760000000000001,-14.720379735134562,-15.044842099128743,-27.301809192108344,-11.395732264285382,-14.21184300795538,-12.337565009639714,-8.397408466228082,-4.670819266726067
0.58,-16.281678268738418,-15.018221592289695,-27.048599778563993,-12.384925846379112,-14.56526213020348,-12.290851375889734,-8.885483955635078,-6.1752170194550375
0.584,-16.819620577425255,-13.18110241576767,-25.93859576232819,-12.446317585330586,-14.145036391424519,-11.61584955817025,-8.837939605315878,-7.243937021473311
0.588,-16.124192696400133,-10.098419296288919,-24.091405981302646,-11.674470813340342,-12.942889631035523,-10.576019409966115,-8.112236617342198,-7.606582195700676
0.592,-14.345284624933488,-6.741323620502299,-21.735835534914383,-10.46321805512712,-10.937862396152985,-9.652844391749202,-6.823429283179772,-7.377372813200225
0.596,-11.9159654543434,-4.039221022417515,-19.17786731355806,-9.271760685193314,-8.20746266351717,-9.27230206361054,-5.34052239568492,-6.941444226744953
0.6,-9.41517644233841,-2.498596783728618,-16.745285650220794,-8.384952801306028,-5.03558718718421,-9.574808775109492,-4.166683822211834,-6.705552680920632
0.604,-7.454890922035444,-2.1023862226681653,-14.78257744486074,-7.843519597765361,-1.9592818194732446,-10.378031140469336,-3.76739632916697,-6.858185989883845
0.608,-6.561708863443588,-2.4764050616046505,-13.62038471638257,-7.543419614676318,0.32865685796997735,-11.313573439872613,-4.387821223162623,-7.275200744267612
0.612,-7.017799459426678,-3.169536661625575,-13.476785869488154,-7.395610727788046,1.216942445718273,-12.018306015738165,-5.933814410476932,-7.618083686552084
0.616,-8.724637462581228,-3.8979620068289336,-14.36223373434402,-7.445541679586707,0.42713261199979335,-12.272334004952294,-7.999532945849685,-7.555830307293229
0.62,-11.174724258692166,-4.640029490187178,-16.054619982454476,-7.878226916790534,-1.8592834640161886,-12.029966456433177,-10.052761327063347,-6.982004762091369
0.624,-13.625488772220308,-5.588911567410969,-18.225460810131793,-8.940293559506404,-5.101279471722661,-11.391511423728542,-11.728483838865547,-6.098345167874971
0.628,-15.39490535041189,-6.987945901393982,-20.594903427798386,-10.780662859884888,-8.654423142384854,-10.534010428292486,-13.032656055661601,-5.330856724435608
0.632,-16.129246472218338,-8.929133097450075,-22.992416223308478,-13.280798054787784,-12.02195574985733,-9.634154312868297,-14.316694905688893,-5.127441335084715
0.636,-15.933239005816233,-11.243965933593135,-25.334491811632013,-16.00887958467365,-14.99358858386332,-8.82797603529872,-16.04469014481572,-5.750337942099146
0.64,-15.296728090598261,-13.549899919469208,-27.559601337041165,-18.350810023219278,-17.626405972625417,-8.210699011975239,-18.494533037983732,-7.184629228253588
0.644,-14.879294224822814,-15.451905017318259,-29.62643259283946,-19.800136546164794,-20.12376701982712,-7.87219529905783,-21.58502577694909,-9.185873032486544
0.648,-15.204457881216374,-16.73769364393986,-31.51366875905712,-20.20831912686795,-22.659550128062957,-7.902600996090065,-24.88982319975384,-11.420110005065947
0.652,-16.39971520125708,-17.443206332360585,-33.16649500648471,-19.830718163819974,-25.22776151199089,-8.345655621271778,-27.796937739160505,-13.606797824519699
0.656,-18.13315640949609,-17.76270371377165,-34.42581096773651,-19.149223601055777,-27.59062559098135,-9.142226270377222,-29.725384579389257,-15.580538053653989
0.66,-19.769612832141004,-17.853665976161984,-34.98275756813173,-18.5604628684699,-29.335551813124937,-10.107343740488291,-30.287229953038988,-17.25704872778314
0.664,-20.716943577977126,-17.704307876964865,-34.48606760655949,-18.17012688117407,-30.04989777541027,-11.009389990287033,-29.384498313969893,-18.566927979733805
0.668,-20.74430472636991,-17.125096737054296,-32.724702328947856,-17.78154973463849,-29.50801813945351,-11.689855814813694,-27.212750807200777,-19.434716765588227
0.672,-20.07152275247663,-15.861295607519116,-29.770211607873744,-17.06036040805962,-27.77604414469456,-12.1380207206745,-24.19622508017981,-19.840433613533385
0.676,-19.205990860041982,-13.783087951982301,-26.024329173438773,-15.789736023765792,-25.198489121855182,-12.48303069174245,-20.90346329851974,-19.920539738010046
0.68,-18.613768743830036,-11.033073768422545,-22.116039039251323,-14.047816218738049,-22.27023364479068,-12.892939172194104,-17.94546746207505,-20.003220247376436
0.684,-18.45480967838799,-8.07113834248589,-18.73306598582303,-12.232351719986884,-19.482131088658406,-13.462098938064461,-15.887776859128877,-20.510922290928626
0.6880000000000001,-18.504620136394422,-5.545215808837541,-16.39763977455179,-10.875434263821761,-17.172005533622333,-14.140006606362077,-15.116236890168755,-21.74894620472555
0.6920000000000001,-18.283413780037744,-4.024268401493437,-15.261984045503494,-10.328443816383924,-15.42328191000615,-14.727286412435605,-15.669396030324654,-23.68529212166011
0.6960000000000001,-17.3344119203472,-3.7362655599792647,-15.057514034967234,-10.526530661592503,-14.063038462968429,-14.957477270811246,-17.15189191833222,-25.86395785638136
0.7000000000000001,-15.486782373533202,-4.448436848700023,-15.232728670012383,-10.975666840103179,-12.767203786878968,-14.621509352131044,-18.806405780015464,-27.533012178580638
0.704,-13.002817856034076,-5.600041161295705,-15.286286142872491,-11.028225879833393,-11.268703548922081,-13.695892159264835,-19.80637495612163,-27.949057265551424
0.708,-10.491488964254739,-6.588370406236911,-15.053188119733083,-10.256012726082238,-9.534225116091552,-12.37334309464701,-19.620355876478154,-26.71133272135983
0.712,-8.619211833032178,-7.039734772022834,-14.741255816499311,-8.679549190317141,-7.793959735667646,-10.960023499399362,-18.241407054805514,-23.954454030983165
0.716,-7.792204049796225,-6.940705366811281,-14.719928300565424,-6.736107714481957,-6.4120088964698585,-9.711395465265488,-16.166797549532106,-20.292956746205828
0.72,-7.9646820979335455,-6.5667486350596205,-15.187327129473562,-4.995584550013401,-5.663007431934655,-8.699570766973977,-14.120577311091623,-16.5465328123923
0.724,-8.704098081609986,-6.300426493635113,-15.987645555840677,-3.8391574047775716,-5.56218564131466,-7.81639679534216,-12.705778419617916,-13.393414895858673
0.728,-9.430282557065823,-6.421208198363088,-16.65732749062734,-3.2586925044313237,-5.830708459051723,-6.8842413424259465,-12.139799179676151,-11.134661168415573
0.732,-9.658114096475584,-6.954187141189586,-16.643473400917152,-2.8688498320789337,-6.011510716736818,-5.786230364459022,-12.196315527675914,-9.679133000235964
0.736,-9.130110451528118,-7.6557172771039195,-15.575999663093809,-2.1219365267644608,-5.673743878206959,-4.533839160113745,-12.377468799665625,-8.709613394193468
0.74,-7.7940952420006235,-8.11509836346856,-13.412540894652382,-0.5810531398957903,-4.58275035962804,-3.225187197353584,-12.190271591063816,-7.9046579218570425
0.744,-5.738100276021095,-7.95045378752521,-10.447678010555208,1.8507735055486592,-2.784733262194223,-1.9603050069361188,-11.407116160855114,-7.08518280101144
0.748,-3.141337951271689,-6.981981388049881,-7.153635317739214,4.885990463417352,-0.5519587300390387,-0.7596881123827899,-10.149728081458658,-6.219657436410613
0.752,-0.26974327070119053,-5.30060131609986,-3.9367998768757984,8.006365169550719,1.7695693485855455,0.4527803192004063,-8.76687397926558,-5.333699187096121
0.756,2.484957391420542,-3.2350682403274678,-0.9982986213355134,10.68583128791731,3.8875022203902345,1.7685916502391121,-7.606512537813243,-4.424869907499357
0.76,4.606596763381942,-1.235554588640351,1.6446750563661074,12.557761589175616,5.5983228934397395,3.162691027423401,-6.8210818939039,-3.46809790489489
0.764,5.526565469390857,0.24043927729763226,3.9632280146048506,13.420343538576113,6.707301135384457,4.386122985521997,-6.3502915536944196,-2.5051963838828533
0.768,4.8260655904767695,0.8503805141085059,5.76183550033394,13.176728925326561,6.961502762064839,5.009516615858524,-6.01438350842901,-1.7170645795147532
0.772,2.495510793645944,0.4979743953200604,6.733568989219956,11.826183644769218,6.111872344693083,4.631615553029606,-5.611500229342777,-1.3947940437262014
0.776,-0.9293939726093323,-0.5989304185058106,6.678048533183874,9.519583580991593,4.086074485544344,3.138807973003474,-4.975189160580324,-1.7949560953788717
0.78,-4.46472392756363,-1.9407534867337928,5.747188990963664,6.653336634652734,1.1800842782555963,0.8774268349305244,-3.969278980717535,-2.948749325137152
0.784,-7.054078048627225,-2.9307568315293047,4.459580199506528,3.8533995292572487,-1.915261318278871,-1.4158316339519632,-2.49754186702707,-4.552339456238215
0.788,-8.040744580681565,-3.1446773368913927,3.456202610954279,1.8083373032434396,-4.323836111366448,-2.9140725430356955,-0.553141182581441,-6.045132745491064
0.792,-7.475303487168219,-2.552527472372314,3.1488045026359868,1.0037789110431206,-5.353923169422907,-3.078703566949473,1.7125580561764882,-6.85903657061458
0.796,-6.08086853742118,-1.5645332350784242,3.4650748584527102,1.4856652000441728,-4.843177579579169,-1.917033118838924,3.952400506564749,-6.698332403883769
0.8,-4.860988860842031,-0.8316006821453623,3.887052463025652,2.807569223682239,-3.267429559608373,0.02064564505432731,5.680046482663399,-5.6954801775593635
0.804,-4.587194709064642,-0.9144685530372105,3.735009577608128,4.185988953946028,-1.5529212292796313,1.8841610154552209,6.412819090468292,-4.332234166147616
0.808,-5.408731300585842,-1.9666316754835673,2.572274311584508,4.833413535850504,-0.6522175641601105,2.9044725858622558,5.861834698034688,-3.172449909987636
0.812,-6.777284551926487,-3.5938703811553516,0.5131005113316025,4.32317921701879,-1.0915278340567434,2.7315602684304876,4.081240816749597,-2.570292456249949
0.8160000000000001,-7.749239768255318,-5.013612337651446,-1.7794248103709678,2.779450093613475,-2.7380516719948114,1.5590195189518672,1.4890278838836446,-2.5215170931732582
0.8200000000000001,-7.492860096789363,-5.451991951185608,-3.4100228299210373,0.7998297731283872,-4.910517727902546,-0.01015175091313436,-1.2638482506249997,-2.7552377423764627
0.8240000000000001,-5.765539649834191,-4.592927365666923,-3.757330022183952,-0.8774885738035132,-6.771878014842008,-1.295239976247002,-3.549653964573676,-2.989001772173793
0.8280000000000001,-3.086411714130903,-2.80273732369501,-2.829814832797274,-1.7497987989859682,-7.743029478654126,-1.869460999346451,-4.990333021984261,-3.1663227589602077
0.8320000000000001,-0.48675887672356,-0.96244778416064,-1.222950434114201,-1.7405589766504495,-7.690731527541593,-1.712302004699815,-5.525279419651563,-3.510910085935941
0.836,1.0174576804581523,0.01410771619190676,0.2731045920524555,-1.1337994534308393,-6.823707089107138,-1.1333688656612875,-5.323501597828482,-4.35144761021365
0.84,0.9611338587852205,-0.27935746363629965,1.1933974371682516,-0.31701420398971614,-5.409110348619161,-0.5364128303769178,-4.612217299426079,-5.837228715601559
0.844,-0.3386394629784739,-1.4837591208424907,1.6698304620121343,0.45438166213397757,-3.553562468945282,-0.19069631275901155,-3.5682365865531978,-7.731031997100638
0.848,-1.9608598204291683,-2.656450524559082,2.3048028112544063,1.1349122430208105,-1.1969901194959434,-0.12263469357204304,-2.323146962101198,-9.441905397141658
0.852,-2.858762563228643,-2.7980692151875552,3.746562946365213,1.7884375653669649,1.6914729234715766,-0.1671191114389179,-1.0432584487501542,-10.309202102137824
0.856,-2.386563867781522,-1.4297792255611572,6.230892105636735,2.4159536378046655,4.888513041338408,-0.11391585212925337,0.014148797827466808,-9.95661237738522
0.86,-0.5997390519907766,1.1268286535211165,9.392291753311374,2.8685734950516713,7.872503163297686,0.16064138658718097,0.5625702719851793,-8.50074185914245
0.864,1.7745797294859469,3.901413946526248,12.402763343684693,2.8898553335876755,10.011495403841902,0.6322124282042112,0.4320401689112128,-6.469937617163531
0.868,3.7018631730658473,5.796685745725263,14.382911891216196,2.290480610926922,10.900680369741462,1.1749041543683938,-0.27171547207920366,-4.476881725857546
0.872,4.3476264992154094,6.182150789868032,14.844559385260386,1.1355717199756903,10.62055195865192,1.662251350142738,-1.116554481687662,-2.856267859445362
0.876,3.4665002334535284,5.213092148377983,13.892883361202106,-0.2050300687975699,9.711989643246412,2.0461719422044506,-1.4744501459787767,-1.4878236175069655
0.88,1.5156615451242357,3.7164050408511695,12.117411235690188,-1.1812794082167413,8.862997806440365,2.3719332431796136,-0.7959767264420057,0.06388754956497467
0.884,-0.5946148842073002,2.6798787298761875,10.209298301034131,-1.3507604152405115,8.45606095099834,2.696352728748306,1.0700292051973976,2.181032802049606
0.888,-1.9687413192921779,2.6627389471183536,8.572782528839538,-0.6370201420325423,8.280133590449754,2.984303793135341,3.7186926538460323,4.837109571323351
0.892,-2.1518271312533512,3.494203289561468,7.1914851488109015,0.6205308387198802,7.638352051712381,3.078447237076464,6.325755394156132,7.501251152495296
0.896,-1.3291149431216982,4.405664507767466,5.782377304813237,1.842900154097559,5.804292271179987,2.7693666936141423,8.014464185558921,9.388700829915845
0.9,-0.19458033192282542,4.51975272578466,4.131928254636016,2.5370170939848347,2.568104027815995,1.9493565567676887,8.284455704100534,9.90903247544488
0.904,0.39156351083427854,3.364430443159849,2.308111544597905,2.5386457765914736,-1.5032156544407234,0.7227975010210964,7.243148462468447,9.037998588588788
0.908,-0.19550264330346945,1.123785731394257,0.6353191906567144,2.0504604129625945,-5.263461639991842,-0.5891605363774829,5.522422098858042,7.364288581712851
0.912,-2.0491320064868224,-1.4706151585236071,-0.4919135429821089,1.4924437026680333,-7.526001372987201,-1.5523515063474764,3.9522167532664985,5.7764965176508944
0.916,-4.677932965969592,-3.5189138720227273,-0.8258848111332637,1.2613563542399597,-7.646380521097672,-1.7924754224455248,3.1607672673188634,4.975124132389943
0.92,-7.191794604590472,-4.352427528081777,-0.3304619899574823,1.561853226802579,-5.794176710622598,-1.1434239541868045,3.328592502607937,5.0954295074168705
0.924,-8.67276933958686,-3.758469502848318,0.8933812648305652,2.3642601598546875,-2.7763898990769214,0.28301476309880425,4.192597842479275,5.684799366240076
0.928,-8.556304367920058,-1.9441955298754832,2.7502759334837354,3.494569511944081,0.4613016310338445,2.149173010045609,5.275761391809521,6.036595042354849
0.932,-6.852522911179706,0.6815326159605735,5.234857563221292,4.779447716707413,3.340770717343447,4.035977353430771,6.189063919388073,5.665033623932469
0.936,-4.144706037744909,3.7132757034738146,8.340646189160946,6.119354482932758,5.847846074169945,5.593693848325797,6.8080864818596964,4.618035117731456
0.9400000000000001,-1.3571711355020213,6.83008399077024,11.88114195307056,7.471617878254132,8.337013502185869,6.639811769422371,7.255708872133896,3.424579662542018
0.9440000000000001,0.5791910922841383,9.723944692092308,15.329783528640547,8.756049729947648,11.092454626776767,7.158148693867726,7.708473280390679,2.733498390442326
0.9480000000000001,1.0571877885481697,12.019144715639195,17.87813247829197,9.79762490519933,13.975991323724894,7.238434719710032,8.197403215243313,2.8881877370979687
0.9520000000000001,0.017394769589201164,13.325710926797832,18.772369915954613,10.392436174916492,16.42306746681558,7.023973505876994,8.564649945346698,3.7213467843407457
0.9560000000000001,-2.0224098277145135,13.42628421457083,17.749233943167102,10.459924014507095,17.788638068106835,6.695303650113728,8.600333404780592,4.705018853213044
0.96,-4.125288015710985,12.485287391430294,15.325695178635785,10.192305700634632,17.80685433773934,6.4882002617400625,8.270627517242232,5.343128683541769
0.964,-5.272839278865732,11.07492657058852,12.661752188979829,10.036796673755495,16.814197132836608,6.679381250177968,7.835842473798299,5.542919926009027
0.968,-4.754558965204116,9.944036199196347,11.027299301860467,10.487084293579471,15.569320524184725,7.512321784078708,7.762570342158853,5.705615146211312
0.972,-2.4554082147059573,9.621362473394345,11.148371887522213,11.790573836971507,14.77486903513338,9.07859803839142,8.464258289625057,6.463138662744617
0.976,1.0696621742063952,10.082371108034618,12.788182520325915,13.742507551565451,14.613958958811098,11.213005090566117,10.020862945050537,8.23349500505978
0.98,4.814736593231517,10.746585124899585,14.87474824519531,15.748196404833065,14.649079105096034,13.51413760470152,12.104305179784536,10.89231308483625
0.984,7.717437062030969,10.816218075094573,16.076541438611592,17.112271899482177,14.147599875038726,15.47686436030422,14.147058279099284,13.783172753092652
0.988,9.069527280577839,9.78474803692188,15.522527678643762,17.413056797712624,12.638508241430177,16.688079342226267,15.659715594602153,16.05922865896199
0.992,8.775762186383275,7.814801384253574,13.279208914687533,16.763386796239637,10.342014064176277,17.00142469255085,16.51014146147989,17.13830202109179
0.996,7.329322543610742,5.714440397529696,10.300896725519676,15.77800633177069,8.155993911288142,16.584590676701232,16.967623611429172,16.983510243661502
1.0,5.533468419307173,4.506941758464059,7.922784760738724,15.255645897132023,7.183114312492513,15.812320999478922,17.482768841889424,16.0326835256399
1.004,4.081632645471522,4.807746939673292,7.146813158380213,15.717953342781051,8.057734424651818,15.043832558286296,18.32240419718718,14.855566197978938
1.008,3.2291509309681277,6.4005442699334605,8.152173885102755,17.080135062646956,10.509667823907234,14.424777641090525,19.323757103045736,13.785536534331882
1.012,2.7399381230744413,8.309948111525276,10.307071842182987,18.663032261257566,13.470129465477005,13.841419389315206,19.962774855350236,12.776271490893048
1.016,2.112784199924638,9.339850435961884,12.61325994559894,19.544312074063633,15.669929102724904,13.04505819683437,19.703767594401643,11.57565135131576
1.02,0.9732887392756213,8.79292576095492,14.325727512213808,19.090785030955402,16.395009088736987,11.88346506534182,18.434535807617277,10.073784172376135
1.024,-0.635276985008911,6.911299988041062,15.3124579702349,17.340225549756582,15.91196992776743,10.467309234947843,16.664989945895844,8.562459709033707
1.028,-2.22708327948928,4.7623843281434945,15.973513973176873,15.018282553437249,15.28980455473179,9.166516941243895,15.325721875645026,7.696643082100008
1.032,-3.1461421597018084,3.612857337596095,16.81009606511179,13.16962473084928,15.709962769285465,8.425102443222636,15.248809846549605,8.140443583825672
1.036,-2.978082337539661,4.154364793936488,17.948829114052636,12.599043865053053,17.67659719098223,8.500711401424148,16.63144882496871,10.118793925038466
1.04,-1.8130753756152904,6.075537852388792,18.995027588850903,13.457372163955357,20.632909580873523,9.304315710543737,18.847524945982308,13.161967293914502
1.044,-0.21393241752177072,8.223502239929868,19.26948411059039,15.17370834725047,23.219945529810175,10.434913091924818,20.734498199750124,16.241002641122726
1.048,1.1143755136840747,9.274128295867405,18.283442143522773,16.78580745345014,24.04369538305663,11.401197511129485,21.228240976377798,18.240223919071976
1.052,1.7665797975540323,8.513641650205498,16.14505395347556,17.481868144306105,22.499529594448642,11.890596990525799,19.98240893134853,18.498773472048242
1.056,1.905740889225234,6.2531019047935406,13.595839882823215,17.040997257956775,19.149215137502594,11.923738893146513,17.580874135857417,17.11812102853846
1.06,2.203700549141665,3.6478337026736813,11.664728404685885,15.953776445996247,15.427214993742364,11.808983320251766,15.218198578360289,14.849848356379844
1.064,3.4397715683808583,2.0079009084968793,11.094378273143672,15.127946181095442,12.828458492838266,11.912521785497635,14.002525021105944,12.655919489025724
1.068,5.98580389595009,2.024407818856703,11.885743317141454,15.347945856569694,12.045987316290628,12.390190498467176,14.28942743930656,11.197830728097474
1.072,9.494306913967621,3.38210213258923,13.25736609978485,16.801151405848685,12.571801434766998,13.051991489826102,15.454614683261006,10.528026184614783
1.076,12.992291459486506,4.984024381720115,14.05556942275646,18.93880745800901,13.012230060235167,13.450527001001532,16.24806884443518,10.144210779610795
1.08,15.374768426727215,5.671487019711189,13.425651914449036,20.775184910179767,11.95435595693671,13.153345094156489,15.548734097433528,9.333483874831392
1.084,15.981905914197744,4.957372675875258,11.299727753311537,21.409775207596994,8.854075013495171,12.006730193837656,13.042575344090665,7.586066715376273
1.088,14.94282677671428,3.3448962589933995,8.449561478160128,20.500235914922747,4.44343142136,10.244216942846707,9.436418386147675,4.8570647751334945
1.092,13.097298062137597,2.05159381024992,6.0887818406046055,18.428691172845944,0.41855797756756097,8.37428868115295,6.085604546813176,1.5678435523742564
1.096,11.516408838824914,2.2871919143260975,5.228808956551212,16.058825483162106,-1.442552522758187,6.901719298555218,4.236281762010588,-1.611175874867234
1.1,10.922671497872997,4.543252141147349,6.196037970335594,14.261545687172356,-0.22806468750729225,6.067943524884676,4.35093359793677,-4.053471638818667
1.104,11.312549620694226,8.285512742768008,8.511590593003532,13.453064932227122,3.5998820036873895,5.74239654585989,5.872892974848224,-5.378394411788477
1.108,11.998919132954267,12.22361595948794,11.180637974212935,13.407178117983236,8.416600493536892,5.5261475271384075,7.560188418276287,-5.498373801309779
1.112,12.0490768282352,14.995880776901942,13.22775409126428,13.444934188560916,12.25013040738039,5.004854966825505,8.189050560124763,-4.547249487886781
1.116,10.853131485970485,15.861276901967308,14.164024755787679,12.87879461277684,13.754341356186897,3.9976082037562515,7.218100529844223,-2.7682677523421972
1.12,8.527358288813014,15.04218724159715,14.19003911503278,11.47398172208063,12.83722391447947,2.6765806413372526,5.084042647360171,-0.4456041860445339
1.124,5.900489063311044,13.524293670013883,14.003199866121463,9.627933329208783,10.601706108812476,1.4740316461197955,2.952921647542471,2.116660501418373
1.1280000000000001,4.093024513288421,12.448206993843055,14.33860010580463,8.152878108575838,8.63662417491393,0.8287033574962044,2.07310366300538,4.584574163059196
1.1320000000000001,3.9368553295881386,12.461303898526767,15.517585878927555,7.796060005095695,8.073602951724354,0.9236111017044883,3.1088758886048478,6.601908555880685
1.1360000000000001,5.538676091037951,13.370100575487164,17.223308538830118,8.762213960440397,8.924258401296635,1.555539433138426,5.791786794834838,7.846516881533665
1.1400000000000001,8.236269373438043,14.283480837541576,18.65865262816416,10.553070100612949,10.081343579574671,2.2350997521483587,9.0703827757389,8.117583545546285
1.1440000000000001,10.923612340541274,14.120260349278121,18.946277239702923,12.197729883172219,9.96495344559126,2.449304523601799,11.638995831036587,7.42480864415438
1.1480000000000001,12.552668391964932,12.182893575701605,17.553781591933138,12.748392193928893,7.4420939999405125,1.9429794586606535,12.545584351518208,6.0154588245789595
1.1520000000000001,12.567462736109803,8.508544944884541,14.548240080828743,11.785908156557184,2.5241780428848744,0.8741072082708103,11.584960116759838,4.316119912297801
1.156,11.077932292765164,3.850745559356922,10.571591501547305,9.656623783735187,-3.5333974911760215,-0.2383145053686504,9.317328824510769,2.8124991787804525
1.16,8.75356465466011,-0.6369609119264763,6.607001714694192,7.331384119467849,-8.783386072222415,-0.7478619969553959,6.750955391567945,1.8810343287324907
1.164,6.506704507371987,-3.8531501802490835,3.618663398382659,5.940655970364431,-11.50365112077797,-0.20064763668950625,4.8617932531666135,1.65590120464313
1.168,5.1456058544280125,-5.110567303765231,2.243551472567108,6.242116354488587,-10.974396228998847,1.4267684484092291,4.20193648366285,2.0077555185548634
1.172,5.139808121596517,-4.267438560103674,2.6724226177597794,8.303900844234205,-7.701057544876942,3.707047146390087,4.775501036787048,2.655053922572778
1.176,6.5444618463583195,-1.641269397981108,4.721779961150369,11.539284048399153,-2.995880881380322,5.972714541459559,6.197006018842967,3.3715351548667227
1.18,9.08320129569137,2.216423950250119,8.059279892962397,15.05991718789872,1.8280859552762063,7.662368198515863,8.01318713028589,4.163676171231794
1.184,12.262889454541831,6.702940137639372,12.362482033520703,18.086802419696795,6.136384708726095,8.583284477269025,9.94818645528773,5.293503721641194
1.188,15.456301256357772,11.225058039821455,17.304415761651637,20.18116575981023,10.107428333230533,8.925113077137127,11.916258137564762,7.070577662572876
1.192,17.95762867222228,15.158226577439228,22.390690838380806,21.19660900465255,14.255323038643532,9.018252271405103,13.810108798413895,9.488907478447626
1.196,19.044533547578766,17.78513321012521,26.77615886756488,21.03242634928567,18.65495907085198,8.966348781384763,15.207122742990487,11.917205607236285
1.2,18.134447740651424,18.36357400143028,29.305680467039856,19.45265314479422,22.42590991077133,8.420653211796026,15.277209886926459,13.087569890863799
1.204,14.978156072884678,16.3227890726016,28.81186046147129,16.11112752791975,23.86036098917981,6.663483265122791,13.01276750103898,11.510061249608377
1.208,9.82834361125569,11.539206919455749,24.61177431614116,10.81328015552991,21.222301082447707,3.015067703504512,7.73221546887886,6.200734896646242
1.212,3.508725605368965,4.5757089041412335,16.99429792085925,3.8811556741735265,13.830316587923988,-2.6183255549191284,-0.3481225931473926,-2.5951480272016214
1.216,-2.7137711719629563,-3.283935807573646,7.397983930538615,-3.649465583789495,2.7902928894722505,-9.38601615018697,-9.822456908124348,-13.101960792480034
1.22,-7.425913617931824,-10.275610027863255,-1.8522776598543786,-10.164891356877686,-9.0990815458111,-15.575177423937483,-18.32031106909049,-22.420419434994304
1.224,-9.481476322884392,-14.66263961801656,-8.275061684142948,-13.98126047386115,-18.34014773907939,-19.193377446839712,-23.262180018176416,-27.5440930715167
1.228,-8.382774205561002,-15.330683022715442,-10.14879388687223,-14.007544902494681,-22.18201328325045,-18.813969269141886,-22.85686602036557,-26.5674797655588
1.232,-4.467391559167086,-12.216308042887464,-7.194692077988176,-10.232558566149647,-19.799893372737813,-14.275061773076697,-16.887996645024046,-19.52555500534062
1.236,1.179731939142255,-6.374477221968801,-0.700913263897294,-3.786659299941306,-12.601845735251644,-6.858421500087555,-6.8930094445059265,-8.429963645871112
1.24,7.108058593108043,0.4086147988836304,7.048536312177619,3.5012167917181407,-3.4883294959333333,1.1995480774487264,4.412229025697941,3.5346179272319636
1.244,12.009442695452991,6.301277609443937,13.734061965606704,9.821432476079835,4.517297879921332,7.62597027942253,14.188685639870211,13.28012729214359
1.248,15.140686198698441,10.107504828311933,17.893411161472113,14.02499784793756,9.550758176010952,10.998739494841072,20.519069978089526,18.937866823079084
1.252,16.49832781401989,11.64850774442437,19.35090539159214,15.915480843468957,11.491787613098627,11.187843114645919,22.97409988539235,20.338954502622215
1.256,16.681754731137758,11.683725769789469,19.01059121870712,16.101014608382357,11.637394618379131,9.171056377413318,22.482760513029106,18.71510942141358
1.26,16.539192555474486,11.445842058844438,18.22627607604943,15.563509836287892,11.76245067035314,6.3945449309320574,20.675897883723756,15.867260183023916
1.264,16.74505971773415,12.00369297896087,18.070214035684856,15.170708700247438,13.125352584284576,4.041875191879445,19.060354330551778,13.301719169230484
1.268,17.52081577938638,13.781475229234628,18.89210200045952,15.371141088272093,15.952052997406923,2.598167933440415,18.44789408827328,11.762370437150274
1.272,18.606494783915988,16.442694326350427,20.34035890143249,16.15622564986751,19.573755571886345,1.8753611080380954,18.84881824860922,11.286167640579382
1.276,19.465123610471206,19.148329871856394,21.73692714822452,17.21686510580362,22.999324769099484,1.3879024454349798,19.771861449921243,11.598831791853737
1.28,19.6385517558114,21.054880004122555,22.5814395418032,18.183729226170804,25.520376869747768,0.8084359686230163,20.690591216260376,12.500222087462323
1.284,19.011895765899318,21.73386330372935,22.81246272025107,18.771661612296956,26.956316275434673,0.1855698072088643,21.34839648684264,13.981843612264313
1.288,17.847743887148038,21.29607382855769,22.69967436467348,18.787412244152726,27.466066348338778,-0.17732339707484823,21.763887426244807,16.050420335574593
1.292,16.59905148128999,20.2021332641229,22.50410871976443,18.08143206522647,27.16177293439353,-0.03803365655830726,22.01934744508227,18.46323988297659
1.296,15.614238657491326,18.910821961140417,22.161604215630685,16.535490722376892,25.865216851873317,0.5276072328130863,22.03924125555554,20.642742777679544
1.3,14.957363212396519,17.63294801855816,21.283921187444605,14.172220218121353,23.23765714393582,1.138114903100832,21.573526431339427,21.878172067724854
1.304,14.418905060389578,16.309208746556894,19.445815844305645,11.284862462738953,19.181045983670764,1.3609701174753783,20.375629870579818,21.709592459164966
1.308,13.704525977355845,14.80259106494821,16.565443090530344,8.46855458152448,14.204244614200608,1.034482439406287,18.439146138779176,20.231621293683308
1.312,12.680890623667299,13.152622475839726,13.11797542474027,6.478140521738874,9.44981896165686,0.4266627379854002,16.110379508379165,18.090885700073947
1.316,11.502318373418163,11.678786125060018,9.989249530101038,5.926579953580784,6.270614034177891,0.09955610307035467,13.956975956510872,16.14658665237183
1.32,10.557621261442456,10.871437369033172,8.072745194216171,7.001702774104733,5.57569736496073,0.5786313951956954,12.488761013638554,14.982519232584204
1.324,10.233823608039176,11.09757057996643,7.78655435686367,9.32788989582658,7.300345022325221,2.0152299085868144,11.875198390051265,14.568919117820723
1.328,10.632021941992173,12.296665680266141,8.7918177303266,12.056816203880532,10.314194098104712,4.044430181252578,11.820892190744715,14.270821028047607
1.332,11.417039680708378,13.872626111476439,10.095871693998749,14.177366208181592,12.860952388421227,5.930974548670042,11.69420615742446,13.201302130389163
1.336,11.912581305359891,14.8769394309981,10.491737437852727,14.901358360602103,13.321219002236312,6.915766825460479,10.836409288904868,10.727825323844899
1.34,11.431022028030684,14.429461078368417,9.147819942421437,13.96549915183104,10.925177732775674,6.578781041762,8.892819507211478,6.828603842542064
1.344,9.648398282627262,12.160027996419682,6.005522268229227,11.7017980018543,6.055919219057143,5.016856926610109,5.981502874176269,2.128357570086996
1.348,6.820824772244463,8.440883026776996,1.783516922245955,8.860215802151934,0.0196541724625392,2.764092024910507,2.632972846579094,-2.3754214936085027
1.352,3.716525398871599,4.284788968814869,-2.381509664963862,6.2810741188111905,-5.562061885794603,0.5247483150444481,-0.4421191260660762,-5.725663736844754
1.356,1.2859369901372473,0.9452746345083183,-5.450542673746375,4.568344071191773,-9.409560141210328,-1.1292702669397885,-2.6284800370141204,-7.334407675297654
1.36,0.24826453962913808,-0.5838899555548123,-6.8469981796559845,3.917903038298025,-10.977691984736843,-1.9415068484055276,-3.576838343807715,-7.105661434570321
1.364,0.7737305550583975,0.029036915803626773,-6.562044511252884,4.118987450479621,-10.47078865651,-1.993498414667916,-3.245576406282905,-5.346282484648466
1.368,2.417615217953196,2.3255256683762138,-4.9992158095639985,4.696224844340405,-8.550660403272968,-1.603007042854985,-1.8427991189133146,-2.5811601287696737
1.372,4.3320564458022455,5.249284672965812,-2.694400098061779,5.1178664030777155,-5.943969831612327,-1.1670357456168279,0.27322041692004095,0.605357896605784
1.3760000000000001,5.644792436682554,7.5690342628811,-0.10226017466805559,4.989483975699037,-3.161744803563492,-1.0113425674223082,2.6794114531773445,3.6582572767922175
1.3800000000000001,5.864659608675858,8.392708874630511,2.51937918766855,4.219597749457902,-0.4014144164036817,-1.2522018156151833,4.980386397987264,6.09714133790037
1.3840000000000001,5.083783552967942,7.530540756789462,5.058903090629785,3.0706383183140376,2.3579145221589948,-1.7304160212664041,6.87061207252002,7.562142875450068
1.3880000000000001,3.878675498106414,5.540169221241569,7.406216033556763,2.0626485620046155,5.161489582501762,-2.052994892623063,8.16561529271143,7.875008145010426
1.3920000000000001,2.983364308672882,3.44270589222271,9.344420567639862,1.7566132548181008,7.908754895793692,-1.746081204075665,8.804593470816904,7.088536255651382
1.3960000000000001,2.8861147695161136,2.219901002383428,10.537498844515376,2.475693663672166,10.279159516391847,-0.48885474460065925,8.809256570731396,5.469619381194247
1.4000000000000001,3.5764904945578317,2.338358805454069,10.668825101177735,4.106752477072605,11.798714566920896,1.674127433714976,8.23772723422638,3.374169157689275
1.4040000000000001,4.546970726835731,3.503883031299929,9.605399298297698,6.060899929723566,11.991547858654247,4.248365814017488,7.1336025082127446,1.08110997977631
1.408,5.04467050605472,4.780550003210998,7.493935342963829,7.444599362709129,10.553474697855187,6.42358909801817,5.505662547440881,-1.3189398768807052
1.412,4.459142414594585,5.04284630183567,4.742678909792133,7.403253269611049,7.493827000936505,7.406979360308786,3.351873612051816,-3.9084755529758772
1.416,2.6381168565861124,3.535827671617918,1.8599317211351631,5.485036830142669,3.171509564368674,6.801504855255781,0.6951101585010389,-6.800097281781515
1.42,0.008158528344532012,0.29386668474642574,-0.7240469080074726,1.8877832755782125,-1.7728787657068603,4.8447616788736765,-2.374106397975698,-9.959458755791788
1.424,-2.5981172952357587,-3.8338795383817494,-2.818809863657502,-2.5734614690236164,-6.597595142894202,2.3441486628443173,-5.699723979248733,-13.102223342319817
1.428,-4.330443304224623,-7.581573350098753,-4.546209478315593,-6.787316961959501,-10.695215681895613,0.3036202717260834,-9.102854885670666,-15.743124602818854
1.432,-4.724512100380647,-9.880648631266839,-6.265002555455721,-9.803322325690912,-13.777027726263912,-0.5729124736310207,-12.427168036291473,-17.383907668111704
1.436,-3.9180637693549674,-10.365823900027454,-8.374955717012506,-11.203377983720664,-15.91350339982252,-0.22262198305244052,-15.543155607936718,-17.72454191922525
1.44,-2.528153878393999,-9.470305682736306,-11.019705927608996,-11.170108691428922,-17.381992232963036,0.8068006476307312,-18.270581906908905,-16.78590686277678
1.444,-1.2955797278220613,-8.095980478060351,-13.887990396924385,-10.28179017541714,-18.42796862311413,1.7214324657089115,-20.312175624368514,-14.88064614842131
1.448,-0.6837348964104937,-7.055575871709612,-16.236329449748,-9.162030475810534,-19.077403117475345,1.9616911680800393,-21.277960392869858,-12.466155413033949
1.452,-0.6580883967235587,-6.627199800720588,-17.15920182347633,-8.19093620968474,-19.11833566107069,1.5087705039710562,-20.830416747729267,-9.981142379288375
1.456,-0.7891061351715967,-6.497859148078842,-16.0323571780681,-7.444123127865689,-18.286129598129186,0.8257261456477236,-18.90576672922736,-7.745558143827505
1.46,-0.5728213786053847,-6.0800690716779,-12.861612033241592,-6.822994943363172,-16.524535496297972,0.5016311093425303,-15.851564858700144,-5.9570202027253965
1.464,0.1933377907755438,-5.013429557198186,-8.397893986505299,-6.284133913442707,-14.171980392300183,0.8135070770532038,-12.394233875851882,-4.737203518079272
1.468,1.2114301648056045,-3.5049953567492254,-3.9182703065211344,-5.978725905911009,-11.928815972734515,1.5025084175679098,-9.396235018897055,-4.153212975654878
1.472,1.8069968371231053,-2.26484998493812,-0.7283344712634121,-6.181896754099455,-10.57569104113707,1.9308762480547579,-7.4908487889285,-4.173724808893763
1.476,1.3068993953584573,-2.0694316336772443,0.37639311254687957,-7.067303122940475,-10.576356030881808,1.5158618764568583,-6.79373019125101,-4.599668126475763
1.48,-0.507982813705671,-3.1978684516239233,-0.5135723532593115,-8.447549878049177,-11.76795399177907,0.18072025896793353,-6.833191218474893,-5.0603302090898445
1.484,-3.1646427904524685,-5.138069031097793,-2.4507163585057725,-9.707172595413468,-13.348900074652928,-1.4949777465756249,-6.788093110440011,-5.122008410591739
1.488,-5.6438876061231875,-6.7816647764892615,-4.077711411776312,-10.029135033793407,-14.213577419040242,-2.554484457499316,-5.938489113550066,-4.494327599502077
1.492,-6.8485268645826975,-7.020013571023139,-4.273577543094075,-8.808283603510176,-13.481806488630285,-2.2201327131755226,-4.079424551506701,-3.224422970204725
1.496,-6.153655089425293,-5.39840838217709,-2.690369650943686,-6.026545545432468,-10.9559550287862,-0.3828298332213575,-1.662633872589526,-1.7344313855163505
1.5,-3.713038324796255,-2.4058467999749213,0.13381393286518328,-2.3314611136354753,-7.245980370391765,2.303065984236726,0.43899875191670734,-0.6533500124610794
1.504,-0.38344980406130524,0.7606483156393953,3.079343645307737,1.224562936217191,-3.5115866378175045,4.773313950749125,1.4049590161204346,-0.49706666743553907
1.508,2.687343291124523,2.8278936339735985,4.99378312634952,3.6597102222839872,-0.9494232492337868,6.152754601009735,0.9162014392297912,-1.3678492972314231
1.512,4.595648302857351,3.1197372411082447,5.214148889557723,4.512066658137249,-0.2740094938780696,6.252987070317417,-0.6600993050100783,-2.840289417419324
1.516,5.0490946875408405,1.8785990648588324,3.79815867938691,4.013829801023683,-1.4507497173760235,5.648582849867607,-2.459900803140628,-4.120797721872952
1.52,4.4256655592796825,0.09242954725545527,1.4374526800094034,2.939653793636781,-3.7629898478097226,5.301400915322794,-3.550988561432222,-4.423851683921777
1.524,3.496948514894857,-1.071489364852086,-0.9131028679766708,2.1951319834276877,-6.172782583096289,5.947138631848061,-3.3936425190088144,-3.3614074468694106
1.528,2.977733163343121,-0.8964745038709232,-2.492358575043186,2.358565396251008,-7.79429909698854,7.608681633595733,-2.092787026912914,-1.1505695304704466
1.532,3.156512711230614,0.5548737860237423,-3.034898258059008,3.4245358140358744,-8.23499662183399,9.55020211579536,-0.31126469942237966,1.476359912559011
1.536,3.7844996350864486,2.564993793059963,-2.806857958769052,4.866194705479352,-7.667029110464154,10.713475581993347,1.0946671368805916,3.6267579267103014
1.54,4.289436328908638,4.241881914393602,-2.351279000458888,5.983594923115742,-6.614513962170024,10.398474112098175,1.540604710042375,4.672823926570587
1.544,4.141512917234814,5.0268949995280465,-2.1454284939378443,6.3041710921248475,-5.616284926093494,8.75928369648701,1.007724844836058,4.533119863468478
1.548,3.1615975453274237,4.939445036947924,-2.3618949741260984,5.818924458252403,-4.949049322548488,6.807819962715074,0.022619034102766167,3.6748459189631597
1.552,1.6296564549801618,4.466286065784217,-2.823676512094919,4.949515526084708,-4.532312671041316,5.901667833632656,-0.6401520154244253,2.8508704128565237
1.556,0.14676488090099848,4.206545456622622,-3.155131301143752,4.2810785591487655,-4.040882558841718,6.99002056489115,-0.37244600024342583,2.7183948931303403
1.56,-0.6389906318063385,4.533445427628331,-2.982971463225451,4.250178731855874,-3.1272720813638375,10.055701260684803,0.9728712815576503,3.5207988260123186
1.564,-0.3363225320109302,5.432210880221655,-2.127373178192941,4.925409303617196,-1.6475903343921785,14.05488061250691,3.026323678158533,4.990478537543636
1.568,1.0013159731857098,6.581232008307516,-0.6910518171451265,5.987308092746774,0.2362583792481474,17.403183543894055,5.106082763317128,6.512822219181679
1.572,2.8842658345855785,7.580035787307309,0.9873558874892927,6.896877350319183,2.1222407351720394,18.749569690936987,6.566531878510412,7.448172182367815
1.576,4.579505893797197,8.160856408974759,2.4658558760291274,7.144899954398612,3.5672214172170857,17.626802081783758,7.109268889943223,7.4528924082067665
1.58,5.442807110691101,8.299402723142347,3.408462666919271,6.487369544585514,4.334283843815729,14.658636563375493,6.929107913974649,6.631502577901861
1.584,5.213334268028132,8.166646309473254,3.7175699778261935,5.02321406845519,4.529077113159758,11.201429814201724,6.587091906795934,5.459899406885215
1.588,4.142984246334796,7.987528447081498,3.5253398312844704,3.096295173801397,4.543710167874579,8.632979132963523,6.674316986699674,4.52952928750766
1.592,2.8944705324611304,7.902813617723385,3.0611531132954126,1.091783109368778,4.819190976569912,7.678871717874431,7.433048750052786,4.234321481023523
1.596,2.222269515278768,7.888151037837323,2.452987681418761,-0.7616157880075579,5.547559919334188,8.118450219631246,8.530001527724071,4.567028685022212
1.6,2.602671452705279,7.783817684168937,1.6318762493549483,-2.4477960548584017,6.503419659120237,9.021651864408424,9.152798104553067,5.129928669510177
1.604,3.964945885321815,7.3838316981978664,0.3677240570422837,-4.076271407660601,7.106282310375529,9.342859062898057,8.399083580911848,5.365449144348765
1.608,5.6608726568979035,6.53338201863362,-1.5777153137476243,-5.725911416122628,6.697862725492015,8.51481284711124,5.773607284814521,4.8782876828733395
1.612,6.744680391742515,5.2265427450883895,-4.232962344303581,-7.298211118250779,4.921055919141573,6.731128312863454,1.5559414461123864,3.6859587164803584
1.616,6.441880887385363,3.6602689328213707,-7.281344824542237,-8.490170237790323,1.9874360139047287,4.775915496854418,-3.1819881238973293,2.268682131897088
1.62,4.606694145614352,2.239038277103603,-10.06085580240425,-8.887858754766633,-1.3209299582524823,3.5473674644499975,-6.944149311878042,1.3673734776230413
1.624,1.8949787774012226,1.4759477599725899,-11.779842457194679,-8.165191057809807,-3.9610724402702036,3.5535176871508933,-8.442208458781188,1.634696051341114
1.6280000000000001,-0.4694915679609395,1.7925645028179256,-11.872026536786748,-6.2879886984512865,-5.110809504556111,4.665916043163018,-7.197561244601968,3.3153883264940345
1.6320000000000001,-1.253579753819976,3.2905741327957045,-10.308484962517586,-3.6023259169205244,-4.575163906459874,6.251674463658868,-3.80443117964247,6.112436103124429
1.6360000000000001,0.1573151158789936,5.606401082421785,-7.706757303059199,-0.7553172375965664,-2.897235909718649,7.577816818019597,0.2977676587250917,9.317105714540862
1.6400000000000001,3.4338160246925122,7.993179970213893,-5.095253394538041,1.557902621507885,-1.075237359441011,8.25472864200767,3.4762257808624852,12.128656793896706
1.6440000000000001,7.437066931793305,9.616975390580706,-3.4621993774991155,2.8805446224565037,-0.03892571963506297,8.437980533793628,4.655560632274912,14.006522037806564
1.6480000000000001,10.75028954962406,9.936206495035357,-3.3138487223047712,3.160938217546839,-0.17554224244059746,8.678612616149676,3.781141944804281,14.859691020967047
1.6520000000000001,12.337956123793898,8.979818295374992,-4.4489589235811655,2.724561098133572,-1.151830937278166,9.53306056860299,1.7702995957314678,14.987322439204032
1.6560000000000001,11.98862239627704,7.36820708369906,-6.067017016263357,2.075910599571614,-2.1224534748469543,11.176113156642721,-0.004061739871118686,14.837722816507476
1.6600000000000001,10.315782693700132,6.030796879517298,-7.15657165950639,1.6313347433038148,-2.205247788634887,13.26123433500923,-0.424292112552036,14.735916508003422
1.6640000000000001,8.328666473380824,5.736467571654913,-6.983709673974945,1.5125973756960325,-0.9624333642449483,15.098457119782902,0.8330717817384161,14.742439923019743
1.668,6.849897839009116,6.689827204694821,-5.411014644304,1.5255191371950891,1.388775163191164,16.049959291000363,3.215688044377907,14.718210931425366
1.672,6.115685444133058,8.412200057277824,-2.9169056707209355,1.3090273248886812,4.126859843833872,15.893611969572381,5.674648684370661,14.527545784400038
1.676,5.763816240056458,9.970372989700955,-0.3560601339543117,0.5528783096914027,6.415068897783317,14.926083411354437,7.249698725053317,14.226948769887816
1.68,5.210535756974528,10.45769345539426,1.4498399484691458,-0.8042861523159465,7.724534451505474,13.769702965806971,7.561880153528836,14.107013479548968
1.684,4.159545579884844,9.477014999314832,2.087251774187864,-2.4909948911139694,8.059434495217786,13.008147295479514,6.961249917368621,14.544060873965472
1.688,2.891569645455272,7.360197677787812,1.6952990573444218,-3.984509280237611,7.871115675246735,12.862317154923602,6.267397665048831,15.753417294912845
1.692,2.1383049880023584,5.004959821496206,0.820869454054824,-4.728876090646644,7.727092444626159,13.085109182477991,6.269978024008988,17.587874697319112
1.696,2.6034802219043915,3.405617457823415,0.06331636579252864,-4.395348750703356,7.9441368583722785,13.120045754696697,7.266624722164334,19.525500726183385
1.7,4.462408059813034,3.1583806111614696,-0.24615859350854485,-3.0338743323205906,8.417634925458874,12.44257823428938,8.905329449702375,20.87906019662668
1.704,7.175604322266358,4.204817332949107,-0.1611619848565633,-1.0503505544018727,8.727541692234745,10.87790029222447,10.405857970413834,21.103106330658306
1.708,9.730637860655774,5.907018329081309,-0.01712906120051949,0.9556646986879391,8.426077613430763,8.711201364241628,10.995408220294486,20.029745538679173
1.712,11.188153850406133,7.39899632635615,-0.18215595237430993,2.422765079640809,7.328236429253045,6.546347990917914,10.311914115053668,17.90676030960111
1.716,11.180860948260905,7.991688972982859,-0.8487998195019401,3.0118457381117416,5.618508037970255,4.984346920735016,8.553956481416133,15.232077765291638
1.72,10.068493262794247,7.431955926627408,-1.9462262142405664,2.693518486908161,3.7395138226999847,4.323993325006324,6.3290513948398415,12.47978167990296
1.724,8.67853105799744,5.9394484330087876,-3.1758543619734425,1.735893130670322,2.1680835358023094,4.457783890373712,4.3350876891259515,9.894125226712717
1.728,7.796725049831745,4.042985556829569,-4.137413265431417,0.60429121523498,1.2276510460388095,5.001328641327754,3.0615696463692643,7.473807302313629
1.732,7.711283500601628,2.3162394662856345,-4.484427190747739,-0.2042522176849908,1.0268387072030258,5.546581005001549,2.64765499621989,5.120737349602651
1.736,8.072102302111016,1.13448626162679,-4.063184422549108,-0.36211229041406057,1.5177638098622088,5.877760175536016,2.925112323342222,2.8419769213426282
1.74,8.164133983255617,0.5763884504932117,-2.9446784780888793,0.15998222565184372,2.62005269670679,6.0596171140006705,3.599927868403701,0.8661949857293612
1.744,7.402892230819022,0.4725682068126973,-1.3692319958692827,1.075831577218855,4.2933521377227795,6.352145299099907,4.4434436923583265,-0.42446313686374504
1.748,5.716358615068169,0.5249813936062133,0.334557770090409,1.8782217991410322,6.494875162233197,7.010311019304895,5.368290506872413,-0.7065184729609524
1.752,3.5873050797913297,0.44015421465189286,1.8260227208631294,2.0219375425545563,9.057376037360257,8.09488303172796,6.3686472224580895,0.05413236763935625
1.756,1.727694936351357,0.02549418080845678,2.7825522189938923,1.1143207419860763,11.58191188936821,9.384618095742526,7.383723253741327,1.5094171939096557
1.76,0.6393190658295729,-0.7465051729739032,2.9593296409440346,-0.9202493289366942,13.472589620839914,10.445079289306086,8.216871086127837,3.0484627923621472
1.764,0.35480444562907776,-1.7078183818583637,2.291119302964673,-3.763115094586208,14.133632702366071,10.815485747127662,8.58885389967777,4.070806228617421
1.768,0.49239915155097114,-2.538448952775701,0.9597727457125794,-6.774783765401003,13.230043042902341,10.206866867268173,8.294052018844981,4.269016787193182
1.772,0.573968098446386,-2.887050657095005,-0.6190819478787255,-9.20544394558315,10.86757312912617,8.614210939072716,7.365363401933372,3.7541099542161462
1.776,0.35552718985039533,-2.556716281389552,-1.9484656919583871,-10.475483011145013,7.576769372325511,6.30265952172649,6.127429238146554,2.962053382488402
1.78,-0.053394468223272096,-1.6776810950303385,-2.674565937591437,-10.405689857664978,4.09993913263596,3.696089468901309,5.084425434876325,2.3774779447676275
1.784,-0.33404471187667806,-0.7439607954685823,-2.7585399067027265,-9.287613930564778,1.0893368490942517,1.2376667948936615,4.688674792121333,2.2326710060040758
1.788,-0.24870459165564363,-0.4500798807178925,-2.5018000008250136,-7.7530097220964285,-1.1231893070310368,-0.7210558163922693,5.1102477346447275,2.362471177974033
1.792,0.15323957055967785,-1.3622850564964135,-2.3771808002723147,-6.491554288809963,-2.5685536677160234,-1.9758962179437545,6.139229915715877,2.302380700303647
1.796,0.55210945570628,-3.5874208091313298,-2.7670897754579324,-5.9655380669845295,-3.5070763887874357,-2.4852050976502458,7.2631404264867285,1.5872030092873082
1.8,0.6191563934025228,-6.600265549640425,-3.70432782285565,-6.21930091894347,-4.193923180359331,-2.33797757481761,7.9097964060727,0.08766251683497983
1.804,0.3272296538755666,-9.362691392147097,-4.7666064156566375,-6.871218781647901,-4.691687149170935,-1.7060567384209655,7.734949385371903,-1.8161452629771462
1.808,0.05467334259882861,-10.73354716408785,-5.232856494013274,-7.3045738223604495,-4.849203231124166,-0.7924265880122915,6.791006598288328,-3.3305759600169833
1.812,0.3870499763987141,-9.97952082265375,-4.428880116871085,-6.955089198617297,-4.4375866018217796,0.22147888539098093,5.501072287169523,-3.5794028351042764
1.816,1.6928395535151415,-7.162310386808151,-2.1347608126155144,-5.598578146220659,-3.372516594528255,1.1912501929534902,4.421512776334384,-2.024722880755852
1.82,3.7683746278469195,-3.1711193343315625,1.2075972743573269,-3.482407096058573,-1.8554052423781027,2.0109693942283124,3.949397634473384,1.235623538262843
1.824,5.825063010328933,0.6560667267574649,4.64255428489461,-1.2300864254716224,-0.3255804828508406,2.608331678239579,4.14658177477831,5.4524730446839405
1.828,6.863823228309046,3.136745744968621,7.131490938883701,0.423888916815911,0.7473000709870794,2.925299378907802,4.754336283583341,9.514145550104521
1.832,6.233744435760103,3.771777061647662,8.050371930028016,0.9418274674259997,1.11348197602874,2.8903063779890656,5.380705025736378,12.403319860915055
1.836,4.023205358122296,2.9107494224480033,7.465987955083886,0.17060869718780625,0.8720664221347043,2.3968657222698457,5.730752072522535,13.617928448691108
1.84,1.0535410514035584,1.493522588815642,6.070478909103041,-1.6376765335266295,0.4053897072821304,1.3339222444421168,5.7495251212905965,13.35728052862475
1.844,-1.5397965552408013,0.5219814308716306,4.815379708719872,-3.9601545256151702,0.1526130345947383,-0.33106157141116244,5.613359335019858,12.385701183080133
1.848,-2.9146502988844185,0.535957816148426,4.419888621811388,-6.228115545546444,0.33949176884179333,-2.4618801100057572,5.576197634252553,11.64362337229759
1.852,-2.952625718357023,1.3699967248107887,5.021667932042089,-8.028171203074324,0.8194859116012145,-4.711010538184074,5.772065327453549,11.789255181501037
1.856,-2.286645461641685,2.2850615791209994,6.115542894486029,-9.220588258522318,1.108917767986043,-6.591029148585408,6.076764611986703,12.873675281360658
1.86,-1.890814630235868,2.4033820712831715,6.838532539915495,-9.914691030269294,0.6270702083884483,-7.637371579367738,6.1282714598121535,14.299194339126782
1.864,-2.469151241353867,1.2085480530130628,6.452261577037707,-10.32060324362884,-0.9768329812001797,-7.602005155425613,5.500712401542058,15.07607751688159
1.868,-4.024050287429195,-1.1663380226125408,4.754214664848295,-10.571039160411939,-3.5854480145156895,-6.581489385892285,3.930476214169044,14.273859714877535
1.872,-5.849951674159321,-3.9997899753236323,2.207427052070391,-10.607926313397293,-6.593272761097683,-5.001520621858833,1.4800939361436791,11.463114454907089
1.8760000000000001,-6.958426688423881,-6.348361840217409,-0.2949731536602753,-10.20466088821557,-9.133770464859742,-3.4583191118646797,-1.4478647179590172,6.964232904902356
1.8800000000000001,-6.661853216239553,-7.495618166205631,-1.856951916378299,-9.090399420002852,-10.43211734144602,-2.4600972159518557,-4.232249751779591,1.7858311973510457
1.8840000000000001,-4.957109874681702,-7.247524260484101,-1.970870054487163,-7.109287771473395,-10.119026275190901,-2.201216080399668,-6.225289248953107,-2.740856702082641
1.8880000000000001,-2.5157548853233376,-5.95578696143744,-0.706752182076694,-4.358757020976954,-8.376633416693975,-2.5017448059779905,-6.9600518368315925,-5.4868295444487325
1.8920000000000001,-0.2982221169882573,-4.286925520145495,1.3767330694866242,-1.2292908680744747,-5.852694016411747,-2.9488806647884815,-6.301259185699137,-6.002994793537485
1.8960000000000001,0.9403835553418856,-2.899721926407138,3.490791792668289,1.670579565167105,-3.402853649923303,-3.1808516727757894,-4.511435652005102,-4.73179637620235
1.9000000000000001,0.9746944377592359,-2.1846466460969953,4.936407992999001,3.7039866005304987,-1.7598272658746863,-3.1359367026735216,-2.1876261756739734,-2.8318421102108093
1.9040000000000001,0.1304132777814606,-2.1501738907531296,5.36515025025783,4.462978328423845,-1.2491509308874225,-3.0996709358929673,-0.05339824755212552,-1.6578487433180042
1.9080000000000001,-0.9890960266415463,-2.48876652870277,4.868664047236541,3.961929877316735,-1.6770165369218217,-3.5179594459977532,1.323632792469306,-2.117227250106225
1.9120000000000001,-1.882756233335682,-2.7671106225707875,3.88295029047761,2.6553846352633017,-2.447327776159222,-4.687940696586905,1.770924266102527,-4.2180092726548795
1.9160000000000001,-2.4257568675055077,-2.652994492624491,2.940108533681631,1.2346913354254374,-2.8691297484611447,-6.518953440773307,1.5781735981069178,-7.030938868516552
1.92,-2.890545267078089,-2.079537713873124,2.403069212087087,0.2930082790433588,-2.5201759025580976,-8.51580599044702,1.3348959860196503,-9.124433538044125
1.924,-3.7322463410483575,-1.2764112752576917,2.3007555655889282,0.02823391732098046,-1.4999642495346217,-10.012345765870887,1.5937405648847829,-9.279780063556553
1.928,-5.283880932001281,-0.6641453257540397,2.323931123496373,0.14466017914422657,-0.43527985579416306,-10.515234483064123,2.5242094835881588,-7.114412598403815
1.932,-7.533030403076279,-0.6511361354430236,1.9899977663906663,0.02864556397389606,-0.20125823161018985,-9.957804115313781,3.755635028914528,-3.281577232359926
1.936,-10.094694358860677,-1.421116402430409,0.8912133581240353,-0.8833357531930286,-1.4634627410120324,-8.717631698396731,4.537460256893384,0.8938222990619449
1.94,-12.34699220357803,-2.782666417525232,-1.0376637228150072,-2.714693593661914,-4.2341910249763,-7.366218647815572,4.203657737790925,4.159917183863733
1.944,-13.648959297930622,-4.174478652037831,-3.370649861027469,-4.969873829718477,-7.689046726537652,-6.315885862309505,2.6837588355419655,6.036915901774636
1.948,-13.568113946429976,-4.890048084134751,-5.292285778391117,-6.719491623221687,-10.407635232653963,-5.613383963556323,0.7191230484405828,7.05258649786536
1.952,-12.045074103921326,-4.453279327195451,-5.952190957633263,-7.093073007206884,-10.993954867106417,-5.0265776675112015,-0.42904912521080973,8.325909630793234
1.956,-9.484786049506708,-2.9938391751320204,-4.97238325031044,-5.849703114183924,-8.829966653970452,-4.380350751207725,0.27623521502517434,10.708581705133504
1.96,-6.712892633030588,-1.3794039243190337,-2.812538368458636,-3.6725358534698405,-4.567813341525351,-3.8902528941931465,2.849111707432682,13.980663028146772
1.964,-4.77010282790738,-0.9601506829653186,-0.7538849761441924,-1.9698510307109593,-0.05222614787681579,-4.23641919646777,5.928323385306057,16.613561322981766
1.968,-4.574508816797781,-2.981470825924375,-0.43826296995034253,-2.2293295646573617,2.3688921780471,-6.257424833256003,7.176225548989743,16.345707017768703
1.972,-6.537444285534422,-7.903575181391666,-3.1036778404551977,-5.223149061810744,0.8825540485182284,-10.398446694761882,4.349249695853392,11.34163975512162
1.976,-10.310504609985138,-14.98802179916242,-8.891301437660651,-10.500632696581077,-4.887064638601457,-16.25027077005734,-3.4558056965911472,1.346085796213072
1.98,-14.790795484363976,-22.387774031588897,-16.54813789445854,-16.43527350128518,-13.542496612835517,-22.468575753468926,-15.020180265669108,-11.791569511180503
1.984,-18.438921129304294,-27.77406017528017,-23.731620687220868,-20.840040192362444,-22.349503906589156,-27.19744732546346,-27.176463207446798,-24.582767877028527
1.988,-19.83559068341446,-29.249809577550238,-27.847682528985416,-21.87173915807024,-28.277531398429023,-28.822954167563136,-35.95600610258425,-33.18478120043211
1.992,-18.264003010020208,-26.13550189273802,-27.080843266519608,-18.792461434780897,-29.1936247628218,-26.68015328215941,-38.217081213341096,-34.923136947337426
1.996,-14.067252288282525,-19.26337291896234,-21.188264196727623,-12.255434045286949,-24.697160302940176,-21.353740257880062,-32.99961806919149,-29.330166203569156
2.0,-8.563149791587902,-10.612637503905884,-11.64795840710192,-3.9826686916477545,-16.217915133805526,-14.396457059436315,-21.927595134661193,-18.230265906467714
2.004,-3.5316963757871616,-2.4736160161986778,-1.0955310043488717,3.962752236815638,-6.384002778330095,-7.623139072880597,-8.480368529017639,-4.899715567651505
2.008,-0.5016992418801856,3.4371571766763367,7.680547383436044,9.932522001830634,2.01164438159767,-2.358443628240572,3.474747298297898,7.256280038711639
2.012,-0.14413026913572535,6.518481000649667,12.757130285099645,13.157999381093456,6.991924150343317,0.9837807852982214,11.190454627171276,15.882119079019885
2.016,-2.0639265600549055,7.254211373985347,13.64612782890548,13.761055086780438,7.919718935040963,2.8012744333909887,13.883543126193764,20.224192164516275
2.02,-5.053232765327821,6.709580645724344,11.24289927368271,12.435519104640074,5.447659900704635,3.825005578778959,12.624006998668516,20.94183330751641
2.024,-7.652262873763626,5.889553358880038,7.256600262902731,10.050343027290483,1.0364077093857291,4.5825014296178335,9.472996891966222,19.421739456077887
2.028,-8.766332814137266,5.290650273847505,3.4150476925775877,7.358344168614137,-3.6827194229850884,5.108062125872104,6.389354995694346,17.02649877641146
2.032,-8.056088213263202,4.838509666128972,0.8171356709655688,4.8891110860255695,-7.418909681888099,5.030329049897437,4.461160952082189,14.623471235998647
2.036,-5.973479646897016,4.152378016397842,-0.350293501926382,2.950997245147592,-9.47560561579828,3.9291154323283113,3.7391052822822584,12.510328101089112
2.04,-3.4518912096050385,2.9327290304456635,-0.638995351999827,1.6633812799525582,-9.73714255457392,1.71898608979856,3.6170818811236467,10.624230571799199
2.044,-1.4247846587126305,1.2272728673529842,-0.8557989437571987,0.9665177292502265,-8.496015623049525,-1.1932289616684788,3.4261923497561813,8.811357001948169
2.048,-0.41211949871060627,-0.5672606034606573,-1.546273523170378,0.6280222661287667,-6.258116013139852,-4.0582621678396045,2.8631468953219863,6.991430264351846
2.052,-0.3321392908724271,-1.9215176758658643,-2.682519155803709,0.3220716464237736,-3.59468285695836,-6.131954343997689,2.06164165742757,5.171177285737275
2.056,-0.6079084221907409,-2.4654999663646358,-3.7157029757572344,-0.2194143962598576,-1.059911427173624,-7.020893186738523,1.350761596368982,3.3733138045835926
2.06,-0.48084996201120145,-2.169326482381815,-3.915150400880089,-1.0288506206741102,0.8651380350855726,-6.827536451403695,0.9404250979572537,1.5789059729675319
2.064,0.6233072326653933,-1.3254273303134507,-2.8084968272057216,-1.8239809511334055,1.8221956185224402,-6.0433320671794295,0.756760964789162,-0.27147138336190135
2.068,2.821757374400079,-0.37657286873232154,-0.5088430040465393,-2.1191917837286214,1.6278305884161326,-5.2736763078053315,0.5120364597449103,-2.224134254298874
2.072,5.717725312553147,0.31388182076442694,2.2644107383599867,-1.4877543407292282,0.32749570766861735,-4.949537977582418,-0.05584547946633056,-4.254662953856978
2.076,8.555106772089587,0.6081459279941726,4.462647191969608,0.14190101475377365,-1.7899999134442808,-5.183852260974604,-0.9679502418039865,-6.247746801901063
2.08,10.520049960976877,0.6079965859373948,5.185382046688953,2.36149166295186,-4.221116824302558,-5.797433695374549,-1.9451208154320194,-8.014644774289346
2.084,11.063537043126606,0.5606051699096719,4.129702570520653,4.424676097574412,-6.335884447328089,-6.474069782851497,-2.54388935800349,-9.335510325055097
2.088,10.096519104995977,0.7106919922258288,1.7644412277268346,5.589437438419797,-7.526493932899793,-6.942942464372942,-2.409970914036851,-10.002884400376649
2.092,7.972850529137906,1.1615500817565905,-0.8784965432987882,5.468306222875405,-7.404786418914188,-7.104400545271227,-1.4989005576028598,-9.882558735910198
2.096,5.260487116587116,1.786286391669976,-2.736683804756178,4.163662332797507,-6.001354742563046,-7.073744432388888,-0.1568852277849455,-8.990930276878892
2.1,2.443640062232353,2.2407547076387435,-3.2771972831530385,2.1391367212776986,-3.8575055733446884,-7.121529382256857,1.00234245087819,-7.554138547303609
2.104,-0.26763322393012556,2.0882459666835436,-2.7757063954670516,-0.07637557519209992,-1.9234298165996293,-7.5406155627709985,1.3675198657026315,-6.007445741796062
2.108,-2.92906138424914,0.9883878689575345,-2.1599053748407817,-2.1626704180828273,-1.243588707098172,-8.494362761858273,0.6185250454658928,-4.8849210069969144
2.112,-5.659843835729228,-1.114679889878636,-2.470545739040531,-4.075133241805068,-2.522490178210889,-9.900603407549605,-1.098500464442329,-4.617007271838744
2.116,-8.40324370209196,-3.908568858757241,-4.259818742507287,-5.9077213423240895,-5.774051306280755,-11.425699992669092,-3.2189094496747455,-5.329283937998633
2.12,-10.80518421418593,-6.778872476742767,-7.236831167111852,-7.66024484981831,-10.225242630919745,-12.598143513980766,-5.009967323441783,-6.756798912490096
2.124,-12.314135211832127,-9.022905837588748,-10.365668547529163,-9.101675651400996,-14.561737612204052,-13.010935211206391,-5.9024110402416685,-8.354722235928856
2.128,-12.478213629769302,-10.13566713256036,-12.380141109672017,-9.851950865333695,-17.43856228992134,-12.537419242863367,-5.762151875585714,-9.568786897990737
2.132,-11.259129635854254,-10.033328653053928,-12.427494579119262,-9.630602540829837,-18.03490123301453,-11.439661996752154,-4.967085170585494,-10.128880368382557
2.136,-9.168112979477344,-9.109083554171628,-10.51624457694237,-8.51709656972548,-16.39987017118562,-10.302520426636192,-4.246044003123112,-10.195630699977286
2.14,-7.094388739728014,-8.061852111173582,-7.500797270034941,-6.999938981026956,-13.403830230479867,-9.778057778734409,-4.334320756277211,-10.26307027098221
2.144,-5.883354083302114,-7.565877790672187,-4.614298070057645,-5.745869030821032,-10.315401989433193,-10.254738757929601,-5.609516638367234,-10.867357536558949
2.148,-5.895717791513716,-7.947339391348243,-2.8329824558135908,-5.219574266022436,-8.218818256984306,-11.623040953192145,-7.886969943715167,-12.252935510861974
2.152,-6.806728868007851,-9.032370724874397,-2.418334703650141,-5.387595640606543,-7.562312238543644,-13.28356081787054,-10.48034925238089,-14.20901998029781
2.156,-7.791163619356544,-10.254237316878879,-2.897443122560574,-5.72333423074906,-8.053540518752033,-14.423528718139373,-12.519865759402288,-16.161786987604174
2.16,-7.989166484847484,-10.945746583240284,-3.431761639393628,-5.522001012830189,-8.914885553277147,-14.418944343583217,-13.352238505472638,-17.46097718410836
2.164,-7.0029060782428525,-10.676079099955173,-3.3519143587448177,-4.363015297140714,-9.35637367748248,-13.166153154362872,-12.840575469213315,-17.720401580401656
2.168,-5.136637641763633,-9.460017865896631,-2.5436078811925653,-2.4376217703176852,-8.998552958514798,-11.145055921430615,-11.41504082702232,-16.9968499973652
2.172,-3.227381977271005,-7.738589578384446,-1.4744985699791306,-0.5210243258700573,-8.03484112566261,-9.167451736416526,-9.849752909782884,-15.72064431402792
2.176,-2.1872291810069564,-6.182728211369318,-0.921002621252236,0.38680086566015515,-7.103875278222187,-7.961606678464017,-8.920489693085534,-14.44309341170748
2.18,-2.5057170411918364,-5.416998792583335,-1.548591509655214,-0.42547756870502407,-6.9530833219271155,-7.807206345471467,-9.095848732846232,-13.551719849776383
2.184,-3.986441986845441,-5.781951061376449,-3.578016028755701,-2.9869715321974075,-8.07639477664872,-8.420519891324519,-10.39281893537349,-13.11431315911844
2.188,-5.867245460345313,-7.234635332283126,-6.706544885591027,-6.596848638372576,-10.499599462880138,-9.148854511602199,-12.440813056562295,-12.905182953647692
2.192,-7.23631959919379,-9.393038228118026,-10.264181672477363,-10.136918207100859,-13.781945339721657,-9.361026166585164,-14.68075169665623,-12.57977582960761
2.196,-7.51348978733823,-11.692882691217608,-13.508509732651309,-12.586528423540928,-17.20885111448146,-8.814851286139517,-16.60231594965014,-11.882077091452224
2.2,-6.717434022400488,-13.576523660184382,-15.874950054335054,-13.452453141046908,-20.04988929470206,-7.771899677034805,-17.904140755340556,-10.77655564278623
2.204,-5.379094013235303,-14.650554178779085,-17.078628079557912,-12.901409290293374,-21.76940909576492,-6.807007417909306,-18.534066682078194,-9.46964308239367
2.208,-4.196201604300455,-14.790942232736416,-17.092486295547893,-11.567624224796935,-22.130653694042785,-6.4300549116969705,-18.64693557563357,-8.337515558827972
2.212,-3.6387993332423276,-14.162868397389232,-16.061724483671618,-10.170668804748889,-21.18945478012229,-6.740451401512596,-18.514410239470628,-7.811792988362681
2.216,-3.737284050377302,-13.150367345448362,-14.240164199973703,-9.174641625827022,-19.222443805009803,-7.338252328373068,-18.42142887149441,-8.254108047459042
2.22,-4.138377286688149,-12.198290398544646,-11.942810823794883,-8.63911175641317,-16.623030700302692,-7.537869266706535,-18.555518307078714,-9.835292737412404
2.224,-4.367405059186421,-11.615439706661729,-9.499309995277045,-8.314545770305937,-13.81092240212829,-6.777804856556896,-18.91370468029698,-12.450580909065154
2.228,-4.12553966706711,-11.424569045006615,-7.200484913959552,-7.893765946176936,-11.170487656413853,-4.9873556059004445,-19.27323017657188,-15.694889253671251
2.232,-3.4344841003707005,-11.333828808400702,-5.230576981220844,-7.249342222140577,-9.005918030351227,-2.6945893543825976,-19.245420356088818,-18.937975824241732
2.236,-2.5899166618727385,-10.889248482984016,-3.6479406637755267,-6.546613946953263,-7.518229940866755,-0.8211437779785287,-18.428943970251446,-21.50659034232276
2.24,-1.963575148736144,-9.732108272409949,-2.4149983538432407,-6.1643914253806855,-6.78013129158196,-0.23960149909150297,-16.613473608481538,-22.911119085282664
2.244,-1.7690502094582996,-7.811996811433119,-1.4503826588807063,-6.466986111547631,-6.700873286465098,-1.311820673623685,-13.909361834334955,-23.009846868267655
2.248,-1.9368292270900334,-5.446031065359049,-0.6767133261498604,-7.566753305475938,-7.0104225062904435,-3.65850318328926,-10.717158155032527,-22.0132595778505
2.2520000000000002,-2.1497803983483905,-3.1720593497753575,-0.029249448774748554,-9.201444871465421,-7.305731961590454,-6.286141519765188,-7.5353329243942575,-20.329218412117907
2.2560000000000002,-2.0075199553019534,-1.4675838952187745,0.5571781551495509,-10.80126852609548,-7.171777872170472,-8.016898914194618,-4.698636582504829,-18.31993292265314
2.2600000000000002,-1.2196285368616628,-0.5035770652721743,1.165710893000715,-11.717849184219732,-6.351050082928368,-8.01040565507132,-2.2007884742133395,-16.124888169537357
2.2640000000000002,0.2650505308645731,-0.08416678247026588,1.8734097886871452,-11.517027591161355,-4.896364997120821,-6.129702992982498,0.2679958885093545,-13.67191454624168
2.2680000000000002,2.2335430071431652,0.17893527584302438,2.669840763423343,-10.196757922891456,-3.2156997977859203,-2.975878774385345,3.06630204982,-10.863492920350676
2.2720000000000002,4.296597009353735,0.5690524778822958,3.3873968573740934,-8.216328100100528,-1.9524738747652055,0.41159089403335414,6.277213125065201,-7.810534916238242
2.2760000000000002,6.01683713477135,1.021895705057357,3.690656927180408,-6.328236345652654,-1.7297380524908288,3.0192789641986506,9.512724547569722,-4.9341066603159
2.2800000000000002,7.032981901763571,1.121177441570933,3.1936686905774527,-5.270229205403991,-2.8479366418188863,4.274210498077448,12.002632080227723,-2.838305298565601
2.2840000000000003,7.1468659642912735,0.35756362614447323,1.6745598897276972,-5.458383241040617,-5.094562913639161,4.207013179303676,12.953594160085178,-2.0154679140234517
2.2880000000000003,6.35130240363816,-1.5004253765602147,-0.7344801518539112,-6.831439664716077,-7.783164481725087,3.3146115570876518,11.988033383554432,-2.557917910212903
2.2920000000000003,4.8061826145003534,-4.150043544258276,-3.4977939737510884,-8.914044091679294,-10.022839025277005,2.2250856143285986,9.406138093481013,-4.08480021839874
2.2960000000000003,2.7793219686262436,-6.793280555386545,-5.8420542949516925,-11.069040238165123,-11.095677400888876,1.3520965938344078,6.097953858257126,-5.9423984375704935
2.3000000000000003,0.5850908850236776,-8.46987528814206,-7.0549747874449675,-12.78392442808685,-10.733336764484715,0.7332561752139103,3.135038210883503,-7.567693168671065
2.3040000000000003,-1.462029809004446,-8.50555324823922,-6.762937905138743,-13.841085363422367,-9.153762630622227,0.11593666127870406,1.2719432078271184,-8.792722802993762
2.308,-3.082915930073179,-6.831225429543475,-5.054204203064397,-14.292222065111766,-6.8520979293416815,-0.7821301791887707,0.6322928595427113,-9.877930072487306
2.312,-4.050884924950818,-3.9834327797197906,-2.3702884586912107,-14.268241591807666,-4.277648799648302,-1.9983235272569868,0.7540682390028763,-11.257713027952004
2.316,-4.227873288260907,-0.8144007071312311,0.7249633125885144,-13.797906659089978,-1.6228871472419184,-3.2325705804738725,0.9340125804508843,-13.168491327548224
2.32,-3.6038133250557105,1.9257318672695247,3.767438659203819,-12.758355350953199,1.1548081040059346,-3.981524743054141,0.6686595310762375,-15.403158469608305
2.324,-2.3222072096638495,3.8958409066196995,6.487539604294868,-11.00703341613149,4.10504598244568,-3.823679777078657,-0.06991640215701533,-17.36366148384758
2.328,-0.6680630889090615,5.19502179265821,8.742446359934078,-8.610174153011508,7.019237337263324,-2.682865522405997,-0.8893030948652642,-18.38322492170742
2.332,1.0113849731296418,6.152046730331659,10.40119968600616,-5.985547276700587,9.344864883007233,-0.9078558219225199,-1.2890727492127314,-18.10958021496113
2.336,2.413809218326386,7.018249357935694,11.271795830559165,-3.839763804033031,10.37289337954892,0.8786239860756333,-1.0327779253159584,-16.69582842037753
2.34,3.375460684831208,7.772656288773999,11.158779431874855,-2.876361396580981,9.619661428315869,2.083887187117476,-0.3335615006843571,-14.679355497498044
2.344,3.9043292976511097,8.154243266773369,10.020631351330444,-3.423331241373092,7.170441043148326,2.4240893081543895,0.26537773624966654,-12.63074336431389
2.348,4.113698959732642,7.864786673311928,8.087210909743318,-5.208454701643266,3.7477210905475125,2.021189762711469,0.22400082606918792,-10.807554987229457
2.352,4.0942102837621945,6.791088429852028,5.840700741855302,-7.434878420149343,0.42410160467129954,1.274806651347035,-0.6575498786073548,-9.054057373589448
2.356,3.783767249188151,5.072087014564894,3.808122420228968,-9.167168524598635,-1.9029703850883917,0.5780257928874379,-2.1190893739137246,-7.012619762898628
2.36,2.9483743899790147,2.984594553191931,2.304614685304353,-9.809675727071543,-2.956790431652521,0.07936188441828218,-3.5901076763582163,-4.492646200996369
2.364,1.3093094304271293,0.7400779073072501,1.2841680217035596,-9.408564178511792,-3.1855555584279664,-0.3709739976571962,-4.515227913604078,-1.7495337516991338
2.368,-1.2471569851391284,-1.6518393298157306,0.39514398942724416,-8.59987734929883,-3.4478190274378693,-1.0588236958857085,-4.657315418876346,0.5352686521878942
2.372,-4.47757619702682,-4.31822725740536,-0.7518678714234541,-8.206511250801634,-4.435540225962143,-2.1222188693415625,-4.188618920898682,1.5752845471592827
2.376,-7.750409171725593,-7.300744959773548,-2.2855637144542484,-8.722883084154077,-6.182365063622695,-3.3582329832127478,-3.5439720889457114,0.9073132602596676
2.38,-10.217888962253163,-10.317328813606684,-3.912135173704108,-9.969007339076544,-7.937061607221011,-4.24797124634265,-3.1356691492619726,-1.3317890064701228
2.384,-11.121694194169024,-12.681390196233075,-4.991701471751831,-11.116960081627244,-8.492558003703774,-4.208458529105561,-3.106208264645797,-4.454661750888272
2.388,-10.106544502609545,-13.498368157599916,-4.838608366964353,-11.097033655850852,-6.815788818768786,-2.937372392395051,-3.267284103005831,-7.55825476727731
2.392,-7.366230750179838,-12.065615107674915,-3.0679890819456017,-9.153554571929027,-2.632132751304078,-0.6391645199578824,-3.2448709375623306,-9.942305586512482
2.396,-3.5620779118995163,-8.2876961174161,0.1730414228124646,-5.2771416086516565,3.336643109827385,1.9999464234590931,-2.746916358612766,-11.371314628748868
2.4,0.442652145386341,-2.8615352079410865,4.226562371806697,-0.2797350912043277,9.611463701561444,4.102313615858275,-1.775388366991491,-12.050431355271659
2.404,3.9071182815396672,2.9070158241060136,8.185209011915708,4.521052487244924,14.55128137990993,5.004511462890235,-0.6588297517844985,-12.375341957941263
2.408,6.430329499814119,7.589150029903125,11.240636329461983,7.832908442114543,17.010909761107435,4.555283800174083,0.09960011570942306,-12.638925511463093
2.412,7.984913679264784,10.198677452680876,12.962016382154218,8.875357980470234,16.750857271845476,3.1500051139672145,0.07589716264821017,-12.88271983340487
2.416,8.793767597097046,10.563465255026813,13.374504961757795,7.6031027784746446,14.431639269350224,1.488981684771605,-0.865150361937848,-12.947401806011197
2.42,9.155967384354888,9.33207663766867,12.847633624747532,4.61849655284446,11.250081141832753,0.21306916637133222,-2.4981685137676375,-12.643382463053971
2.424,9.321861695326168,7.614853601859476,11.867185789935338,0.8560757701330033,8.399851740437855,-0.38761100108629565,-4.326390734936518,-11.90853895514726
2.428,9.446803695298584,6.4323294401623965,10.797929388840744,-2.7966778300782527,6.596104895972373,-0.44382222930051496,-5.7910194342349035,-10.840894715511645
2.432,9.621117966551616,6.261941939745322,9.76297560370524,-5.7558843211190105,5.864039240565514,-0.33485425492459475,-6.480564598170134,-9.617225876268755
2.436,9.89475120610769,6.878417729710703,8.644787755081044,-7.8136700504448084,5.631460716511073,-0.41141293506953036,-6.2575533127292235,-8.375257106048297
2.44,10.260727119357847,7.550077322172108,7.2010037114090295,-9.046569037867068,5.05742520569914,-0.7813154347794766,-5.256010999819556,-7.161508127978928
2.444,10.618913227926276,7.468430922385063,5.230648251621348,-9.646653820176107,3.4445829346962316,-1.2856587767463448,-3.773457462441287,-5.982772833627996
2.448,10.768457403857097,6.1721431278150245,2.7109942980557116,-9.772890009597484,0.5722325925821772,-1.652743476709881,-2.1299951625801334,-4.88789822411807
2.452,10.479445921595083,3.7620130370152527,-0.13555984664062137,-9.473079055132347,-3.1683921434138425,-1.7042126102160473,-0.5592215547503065,-3.9987451076608878
2.456,9.610328544825094,0.8027141473752,-2.9046192939703435,-8.709726947430646,-6.900329874542838,-1.4894307757045246,0.8086889320508936,-3.4503298387511396
2.46,8.216823494477438,-1.9966766113656444,-5.151368780774383,-7.442530784654386,-9.591128814945474,-1.2527949102003797,1.893773893980231,-3.2750868953636454
2.464,6.5780960420429135,-4.131699355847736,-6.551322253215305,-5.718403410458237,-10.46187918301263,-1.2717056948933805,2.5962389839576145,-3.335707885987617
2.468,5.0972319515206035,-5.4905512320000565,-7.014790045011251,-3.721182096976538,-9.305116677037844,-1.6814404898268664,2.76493431554087,-3.374048003861624
2.472,4.135819364496941,-6.2779195646004515,-6.67386218183784,-1.742789074575308,-6.565611868435052,-2.3999645511086327,2.2501425855872057,-3.171053394074886
2.476,3.85581684538436,-6.759942387558041,-5.773394784935574,-0.10171523298928631,-3.14606733364438,-3.205323527147951,1.011771084103893,-2.703197608934641
2.48,4.169989708765056,-6.990071925118867,-4.515861156263688,0.9763150385446524,-0.008097955262487577,-3.8890764913429745,-0.7729158901952504,-2.169651734043621
2.484,4.83322954977872,-6.69975875874894,-2.9523746054139197,1.4598324422006672,2.240781094521642,-4.3702721943433795,-2.6774063418909346,-1.8441744675038303
2.488,5.600617519248916,-5.450693903286138,-1.0113579849015575,1.5222652299769646,3.559914908835492,-4.694894281948961,-4.134290931388822,-1.8298662802181953
2.492,6.36418018164557,-2.9595480964416234,1.3638012595751041,1.453079458142701,4.383161070956024,-4.922039362430094,-4.647388893873234,-1.8935044780466472
2.496,7.171966438945126,0.5875543087371637,4.034324065807338,1.4930374807390407,5.26731774452975,-4.992389559842431,-4.018892510561448,-1.5139787467595855
2.5,8.138012708576682,4.442947746049077,6.589675698508443,1.692155733906027,6.498149354629961,-4.685567026727995,-2.4603840284949783,-0.15461213917469063
2.504,9.298436127494048,7.515827006849932,8.444983903213503,1.864925598064684,7.874956118589518,-3.738728272578533,-0.5218342690237143,2.3643103828764334
2.508,10.505296480482173,8.812043890279044,9.075717653282608,1.682439959911028,8.800309849512896,-2.0678973034716828,1.1354135170407476,5.635348702435278
2.512,11.453985786396615,7.899401678745512,8.297896486755185,0.8883055364295416,8.649338535154811,0.06793473222569282,2.037186373240275,8.748005367523508
2.516,11.821936221658808,5.150773899632718,6.413690130733732,-0.4823775408969616,7.20180286157116,2.085735493389862,2.106662634825759,10.687683756106125
2.52,11.444843048407039,1.6313576196404718,4.139458790134103,-2.0010332114652827,4.876121961176283,3.326751014693821,1.6901242564561123,10.855885025742912
2.524,10.431645524760787,-1.3303555991670453,2.3307187866564494,-2.9436578488263283,2.604382925379124,3.4168442097383256,1.3772393520337824,9.413059994832405
2.528,9.133994918450291,-2.6995208347538613,1.618277433676207,-2.5838917981342946,1.3833387337835683,2.52718495994616,1.6957781346196472,7.236808029265107
2.532,7.999574759160673,-2.1429200674036366,2.1581639173665526,-0.5403703157317444,1.7442011954252954,1.3737548702736087,2.8473473759409087,5.4902637743458484
2.536,7.370096276125937,-0.12332305704550178,3.579968874763459,2.9834335273924566,3.429396735362359,0.9060051709278021,4.6013673875760865,5.026439234200587
2.54,7.328513491171823,2.3521143822476507,5.157532075727657,7.2081339389956955,5.472032687670721,1.835427557777356,6.397583286802134,5.947539828504539
2.544,7.670694191363986,4.1958498064958345,6.111348484573728,11.05082072278238,6.65214505022158,4.245664053359249,7.6005487185356,7.565784552850161
2.548,7.991169992050775,4.674682056894717,5.878061818371755,13.531848367911744,6.088205712423207,7.496669113896295,7.7620164484990255,8.786560092894927
2.552,7.868706659842472,3.6652239409872758,4.293575146478447,14.16282133066554,3.6887847693292226,10.507663100880206,6.798468782751787,8.712555573214974
2.556,7.043301310925518,1.626968367940088,1.61612278647973,13.11859515713821,0.21330259835437637,12.262066023084548,4.997723188766312,7.143148674673707
2.56,5.515432749704098,-0.6535105628513942,-1.569675660277662,11.123489442757002,-3.0810042884955777,12.279632749457178,2.8692815605292044,4.692112503058311
2.564,3.5509365401001936,-2.386812759648353,-4.502069475357551,9.125109851569098,-5.006217418301302,10.813551216992852,0.9382754077276712,2.4699506430441893
2.568,1.5817314506798117,-3.054368427000515,-6.4357422370845905,7.899773247018469,-4.951863573841143,8.672969051383205,-0.4392200044316983,1.509612977092818
2.572,0.06357167305887446,-2.523723161530224,-6.819182066022776,7.78976712583089,-3.0802523065181395,6.788568955737271,-1.1514933964389868,2.241808604263566
2.576,-0.6695031599975174,-1.0172385439330904,-5.456899797146704,8.657248859384236,-0.15392542312322277,5.755461342959668,-1.3005688872837546,4.297386618368838
2.58,-0.5079719006162988,1.007737418524422,-2.603166026780869,10.041518208227892,2.877103792372571,5.5933189866321245,-1.1020690972941716,6.718336293180218
2.584,0.4018569928198221,3.009094827254759,1.0696028179409764,11.409829234420924,5.298272484813097,5.824421774034712,-0.7677222024329255,8.434798521317536
2.588,1.6845996409759203,4.47618576834226,4.634909371552941,12.347580798408503,6.849450652447068,5.794912651228578,-0.4431715214280363,8.751224390936272
2.592,2.846313631799675,5.027059492813695,7.210751427678153,12.636769933395925,7.682317467574677,5.0624993562637775,-0.2012594106254033,7.601406848716386
2.596,3.419619763538612,4.471673668309443,8.24549382557598,12.217133468346393,8.116988678821492,3.62587276223475,-0.08437570572566244,5.4814380029122685
2.6,3.09847656891667,2.8438759889678416,7.67246171085167,11.111731940760528,8.37144589335191,1.902076644599406,-0.1579980324398953,3.143712937402719
2.604,1.8472065808008657,0.4170981626054927,5.8777595883997265,9.418046959369313,8.434167338473427,0.5074844276207369,-0.5090862966057186,1.255743655185948
2.608,-0.06940542346088607,-2.3287915827069687,3.486921138059811,7.364802172357469,8.126297349848127,-0.031334943990990016,-1.1912445970276648,0.19416230056977568
2.612,-2.1397760270471853,-4.792832614087287,1.1077117963681713,5.391570837498073,7.299201865881557,0.5168348603981006,-2.129808277345016,0.030362914803180985
2.616,-3.7475129683246675,-6.395766529603534,-0.8633724116582586,4.129072115826554,6.017883155718824,2.0303922839247903,-3.061648192566804,0.6493406284830785
2.62,-4.365421453936857,-6.739030305701695,-2.278116831557591,4.2169038742818845,4.609393517535856,4.119428737010103,-3.5686987445730294,1.875212164743557
2.624,-3.737220680829422,-5.725808038237702,-3.137596428796962,6.002254772095201,3.54151932916926,6.283054171835218,-3.2189087552786892,3.521370893530455
2.628,-1.9882691266946995,-3.606295749834298,-3.4714477808029116,9.260417249029668,3.1909273184626956,8.054771234671923,-1.77970004499321,5.371622456651828
2.632,0.404563545268281,-0.9038936153430526,-3.2673144347390406,13.1386274463955,3.6461039728528046,9.120451397457504,0.6265721834175553,7.162344261466446
2.636,2.7643440032008746,1.7426153259473152,-2.518901457718039,16.38981816208645,4.647352020828459,9.381885353418301,3.497365866227425,8.630223810073515
2.64,4.437567630621356,3.7694809998374526,-1.3327524910492539,17.8409928144574,5.701193241188266,8.968739948999191,6.101270938353709,9.622088605512054
2.644,5.02090482406962,4.856122621263241,0.018867911846371044,16.899438914544984,6.318216270489284,8.196589002491818,7.7705798397814005,10.195250224677785
2.648,4.479782820405745,4.992783580667892,1.1541941593371656,13.829496320231641,6.2503324888765315,7.453089140688688,8.18501362444852,10.610160525036369
2.652,3.1213697835290968,4.4394092111693455,1.7566404943125367,9.657409432190235,5.618005935485499,7.032166099415247,7.507099779466244,11.17424618246272
2.656,1.4513127795458574,3.6104715803289693,1.766416880647233,5.740763058342637,4.878700199048207,6.9882220568609705,6.301505384556603,12.039015338056855
2.66,-0.013239625907035979,2.940744628928146,1.4734012035722053,3.220802214485035,4.662648029351198,7.09829577034907,5.284505513719555,13.086944785457879
2.664,-0.8834148779730637,2.7845708723176785,1.4349312727364811,2.631599034462556,5.547734663783144,6.974626234515627,5.035967747610955,13.997983515044487
2.668,-0.9511392429966281,3.358303810925999,2.22699888960125,3.82190000404317,7.84992148456109,6.289214370290308,5.796015329230342,14.47608135888795
2.672,-0.16209801257192158,4.725878688303569,4.160323846246079,6.193349076121339,11.49549302206291,5.005034628716958,7.429603690947898,14.477874656879642
2.676,1.4075452971127773,6.772768922874319,7.057087568193797,9.043026129799328,15.975515008387562,3.4389040398601107,9.504516894793596,14.246548203069725
2.68,3.519429366922557,9.152165389000343,10.208839080890485,11.789467495772001,20.392798781907356,2.083612504982062,11.405714677522248,14.07596840119668
2.684,5.70748787125307,11.25437784809382,12.541690995182634,13.98392349858544,23.60517023720155,1.264321667865004,12.408767829605782,13.915615597050234
2.688,7.249898550490146,12.263010659089693,12.92444031964672,15.169930304086321,24.46320859349015,0.8289031991547413,11.722880317723149,13.099888148229514
2.692,7.28975068265315,11.35929133875285,10.552965659832129,14.7982867141112,22.13422007582008,0.10487615346748336,8.608859192061463,10.458907366467912
2.696,5.124688703008695,8.036479542251785,5.268682280179459,12.342996713847981,16.425258480962654,-1.7962937342983416,2.6334625184970126,4.8716181855671525
2.7,0.5914702584816959,2.4218062801530706,-2.27631700798271,7.634290969800215,8.002770802758269,-5.431738377038273,-5.973024036499995,-3.958111854291558
2.704,-5.650701286931739,-4.570133338322937,-10.682275737557333,1.215342190688169,-1.6201771150114395,-10.537515542061351,-16.031715861866825,-14.937797330419436
2.708,-12.151164566947477,-11.395960890610416,-18.125627754162032,-5.56524270066253,-10.3987387649771,-15.90720120525533,-25.448318480731075,-25.622495611565995
2.712,-17.068300260808243,-16.32508121145495,-22.851493811768982,-10.865388823356158,-16.30216281155193,-19.76172121303639,-31.687919801411432,-32.96173269421672
2.716,-18.842814579898214,-18.030186875983578,-23.722032526112066,-13.020481266916395,-17.936863640602965,-20.498790710525217,-32.62149690028973,-34.486335235996556
2.72,-16.849290040720675,-16.071338259691817,-20.598428794776645,-11.259592458054684,-14.999076418196738,-17.44524252419083,-27.40486322091663,-29.3752561458687
2.724,-11.702490327404778,-11.041638149184296,-14.399725450904185,-6.093955379995858,-8.367944225298135,-11.222471139878966,-16.967839647807672,-18.874243827262998
2.728,-5.063083449754024,-4.324180493299973,-6.810375266577105,0.8376739120216885,0.19747990312619912,-3.532216390929613,-3.8219341652436976,-5.830517477634766
2.732,1.005898408390045,2.423437460610432,0.2931566936126697,7.4263331246241115,8.643140339222718,3.546171846219465,8.811787807955097,6.4397825818549155
2.736,4.834976948591344,7.81490941738063,5.450001719507356,11.924207506034271,15.248701131700457,8.385575995993419,18.179558192025105,15.404896564034447
2.74,5.7333756425348525,11.085141012518823,8.023162646894821,13.553754620362888,19.073908159657762,10.36999104579656,22.952732416303242,20.112480862868857
2.744,4.122320343348909,12.147917661778386,8.25928906137781,12.63561741908002,20.088870183203444,9.936087247696948,23.538410516043747,21.20029433843842
2.748,1.182959023203766,11.414535058627859,7.007611025568043,10.223562439861945,18.990139039064335,8.13553847076223,21.622434014622023,20.2241340409729
2.7520000000000002,-1.7468427316724369,9.54910821067704,5.294631209480601,7.52222615895206,16.839438772598335,6.028569639025683,19.236480710368305,18.727393937193497
2.7560000000000002,-3.730694133124082,7.279901174446891,3.9354067331956477,5.392091745637731,14.671214697869463,4.229848773492783,17.810341962999082,17.538609580405364
2.7600000000000002,-4.49872793646409,5.306114196792436,3.347345617917611,4.16192496246021,13.204816389445806,2.8164564383487307,17.66223513263188,16.604830165144918
2.7640000000000002,-4.357158849564174,4.242476346627751,3.583736396254639,3.7554126061970328,12.717778913928921,1.5597721350721825,18.119461265655755,15.333849118309228
2.7680000000000002,-3.868709642817595,4.5112265996140275,4.475170367711402,3.9523558119124447,13.06852632897695,0.2653149894233122,18.10832912949257,13.16611289355519
2.7720000000000002,-3.5009440124907805,6.1760075010853885,5.775310542438586,4.58822898650924,13.828509325680578,-1.01863296529908,16.842314827460655,10.003689826720432
2.7760000000000002,-3.4277195807949496,8.80978898110704,7.22051804948042,5.574653612664534,14.468706022518552,-2.041076839850076,14.232532687693427,6.292877045492183
2.7800000000000002,-3.535575957862166,11.538285597224256,8.532257843999396,6.797198161309387,14.564095203208012,-2.5601294822401712,10.858995348148216,2.790614310316471
2.7840000000000003,-3.5679979937361654,13.323029593529315,9.425158461041063,8.024495929584976,13.955520857731031,-2.5533490396450667,7.592996698477446,0.19555536768514514
2.7880000000000003,-3.3039628417726288,13.397517302294927,9.664719319355942,8.93439390008022,12.806531081672526,-2.272985215086015,5.134255757611172,-1.117286846225312
2.7920000000000003,-2.6589084913885315,11.662906993294028,9.194681412569732,9.280019661932478,11.533785708851738,-2.0935024359573786,3.7383753459986497,-1.1424208712830932
2.7960000000000003,-1.7014243405813545,8.790761681528402,8.214354279942755,9.060521574184712,10.60695242068638,-2.2774355100958483,3.223311075716638,-0.11809229419190359
2.8000000000000003,-0.6072693613981913,5.939655766041034,7.14217629614801,8.570502413548947,10.30682910108068,-2.8112643991287216,3.1995184100225247,1.6481082313909359
2.8040000000000003,0.4060565306727437,4.198675390462155,6.44227134186718,8.260629328721905,10.553646359986852,-3.427058144459248,3.3384958917691034,3.8639982882308415
2.8080000000000003,1.1273795233300432,4.026311641982353,6.371821497856638,8.46355907903062,10.89760565016932,-3.7981531559559656,3.5022239506620743,6.225343985202262
2.8120000000000003,1.4060529233381391,5.01600436044191,6.823508481944982,9.167760130759916,10.714565364647422,-3.759654762978822,3.7072747201941616,8.351999134866944
2.816,1.1920952352641006,6.113793220227741,7.3446710874088135,9.966092395201144,9.510652126643603,-3.425979552262482,3.9814560129143524,9.782363441036296
2.82,0.5633154739488733,6.1824218109577425,7.353622222519309,10.236369911332062,7.1914816159521395,-3.1267536064795016,4.246196824016529,10.078687176375906
2.824,-0.2826327058831593,4.618706188698179,6.45214531724285,9.459731619420808,4.155531501805859,-3.2189458595754292,4.321478068954975,8.999606569906303
2.828,-1.1130705080494339,1.6717837380738532,4.64381606197675,7.488975587917915,1.1535252208869038,-3.9025020327606557,4.03255052450759,6.6408747008897535
2.832,-1.772734884374224,-1.6843797332328072,2.3722204284409933,4.643337848638868,-1.002958053976601,-5.134463199673874,3.357344316937165,3.4526056992036755
2.836,-2.2758339937961916,-4.252784146252424,0.33175151403782155,1.5758060880629565,-1.7552117620951542,-6.679734744017713,2.4905891998441616,0.10596867575082136
2.84,-2.8082154539928315,-5.200808504198268,-0.8337939026656647,-1.0022162008639386,-0.9743578988996471,-8.235250333471305,1.7762338982182642,-2.7365593246605413
2.844,-3.606698769941622,-4.416611492062187,-0.7873103155555319,-2.5890294761027346,1.0605632225459742,-9.533233696880492,1.545600064119214,-4.637735441359491
2.848,-4.778824416565187,-2.480417425557056,0.3949322475763603,-3.0400489096854537,3.8335549334729913,-10.368401040446027,1.9452641839508866,-5.485514098567367
2.852,-6.154329058741502,-0.2987049927765093,2.3112353260241143,-2.536072686364455,6.804057008383474,-10.566337695815673,2.85213712541895,-5.4621709098940725
2.856,-7.29979502966592,1.3455181485680077,4.411828306473714,-1.447648591044198,9.530607452677232,-9.97474691881368,3.9018385961909425,-4.923742605648437
2.86,-7.711739702340079,2.077239217316775,6.176505859912534,-0.18171707324150665,11.675729928289783,-8.527293638312171,4.613954198215151,-4.260534380647949
2.864,-7.099621046772346,1.9296772269589255,7.214318273495719,0.9179048949125822,12.942844682176158,-6.361742451002987,4.556477198649282,-3.802196201133745
2.868,-5.622718778321337,1.110747795539393,7.255625617380905,1.5938390739592636,13.026131172040103,-3.907851902916667,3.4698567412567183,-3.7799861900199088
2.872,-3.91420758078839,-0.25359698677228704,6.130972765347044,1.6712388555992315,11.648418249437846,-1.8317174031772594,1.3286581291649722,-4.333685316534335
2.876,-2.8556317167101026,-2.22221945463829,3.7786299462268387,1.0583368258531818,8.677334657615912,-0.8143258235056825,-1.6693056673449935,-5.5238712547145745
2.88,-3.1921677848609207,-4.922330053697413,0.30620862520790976,-0.22476159077275404,4.254250433365025,-1.239813151647183,-5.162474319838451,-7.326689063641415
2.884,-5.178046582380589,-8.31742355937829,-3.941726710854251,-2.020950599033752,-1.1622330476280474,-2.96540861537257,-8.710691536450787,-9.623646298873357
2.888,-8.450995973202776,-12.053540007629401,-8.401207383334288,-4.0670744613624965,-6.887594340529807,-5.321947851657082,-11.893914627374421,-12.20075180333701
2.892,-12.183705010255817,-15.50019019628977,-12.395323301770505,-6.071159903891242,-12.193950832813679,-7.37299753863743,-14.402185721872675,-14.774756824943257
2.896,-15.445761191309959,-18.001722939229218,-15.332562198298973,-7.818969307144055,-16.512324297065504,-8.336499199686907,-16.111294076887802,-17.049893149197516
2.9,-17.590449645210963,-19.19567087025343,-16.902540423528613,-9.244828571688721,-19.554866092340323,-7.95666847334613,-17.112141958428982,-18.790172840141157
2.904,-18.46757888060609,-19.19962364113176,-17.16455755106641,-10.41705800709294,-21.31687674332231,-6.627587678163651,-17.67082512405871,-19.8810154214156
2.908,-18.383757694191946,-18.55160104215817,-16.492211620152887,-11.451835234927959,-21.98357441745865,-5.200518092226165,-18.121672002430405,-20.347643146266208
2.912,-17.82903780906659,-17.89487431239783,-15.359728574990765,-12.379152691084478,-21.78811222859832,-4.554481557048927,-18.69989945107679,-20.31798022444244
2.916,-17.160560431424297,-17.598775485993613,-14.111733422843947,-13.075277159499802,-20.911990704095633,-5.170103112796075,-19.406334344151396,-19.953084228358406
2.92,-16.426438300880527,-17.544319201065477,-12.834829862386801,-13.318938132252192,-19.47421916715652,-6.91725513544479,-19.98658795397656,-19.382684399316414
2.924,-15.408731751228956,-17.191160660100373,-11.39020826330917,-12.941968749081882,-17.58246623129353,-9.155048536164418,-20.04483365385907,-18.671480350616893
2.928,-13.842024961933452,-15.904738343508889,-9.597043399430035,-11.991227120134413,-15.40103012443506,-11.077658430757388,-19.265809947149727,-17.824564336858376
2.932,-11.650290553005322,-13.360720715337894,-7.435579670724155,-10.779408131555059,-13.180214476510251,-12.100265495526248,-17.63594968779165,-16.834562880171347
2.936,-9.059469787023408,-9.803752511969915,-5.163534387354306,-9.77423890960565,-11.223990087657093,-12.09627603310189,-15.538695515702312,-15.733481213231752
2.94,-6.515212941502255,-6.009517081983781,-3.256403067135602,-9.362202671922887,-9.799437335902123,-11.369776639106103,-13.647826342364699,-14.617280427015672
2.944,-4.4513040387184954,-2.952105134709792,-2.181455335366105,-9.60274605341116,-9.021235886155665,-10.40967856725459,-12.640168694602414,-13.62261844014849
2.948,-3.0709436449237373,-1.3657474181410127,-2.1489201541568037,-10.140952828937644,-8.778245312435503,-9.597328737009542,-12.871710972005795,-12.858937157893397
2.952,-2.26208615266936,-1.4204349057714811,-2.9614555929539605,-10.348056322142982,-8.746708911787511,-9.032085281407637,-14.181514327853698,-12.338529429059246
2.956,-1.699835233850146,-2.6814771196272202,-4.072422487565959,-9.64709965469093,-8.507698932542516,-8.562825099973875,-15.943696644525861,-11.941033455523694
2.96,-1.058971230506208,-4.3579411752694455,-4.823873040720699,-7.842218955086306,-7.7210597649845845,-7.963129048671398,-17.343954969401377,-11.432733624297358
2.964,-0.20683823010548785,-5.689010998234291,-4.745093183749352,-5.260284644449622,-6.285991336492992,-7.124299471281988,-17.743059656247258,-10.550494881952293
2.968,0.7254135839336593,-6.272951280539251,-3.773951600460132,-2.6182013176108407,-4.415300560527613,-6.143104111204288,-16.944307763029315,-9.112699830824194
2.972,1.441304538428973,-6.166207872098209,-2.2628113329518085,-0.658427193516296,-2.5660272737724945,-5.244777164424737,-15.211790998234385,-7.113736240574317
2.976,1.669895181148505,-5.731954732093071,-0.7794311961772937,0.24252354196821369,-1.2410536409805517,-4.609708088348546,-13.039017645147164,-4.74953658357958
2.98,1.3279572947788558,-5.360047270449873,0.19188838698263577,0.2712110856478507,-0.7446594398634095,-4.2337797063345075,-10.82231849345358,-2.369969921458691
2.984,0.5711026149398062,-5.221708230968818,0.49850572956550065,0.06581168814075022,-1.0023035539866854,-3.9182955662976284,-8.629745995430175,-0.3677992671066379
2.988,-0.30020680755297846,-5.205995328764471,0.36367471972616583,0.3379789715123378,-1.5527289955465926,-3.4085137521291227,-6.2271254145477135,0.952522661105192
2.992,-1.0028893126421825,-5.048180076729713,0.23141892385622143,1.4568081322593196,-1.733393250517051,-2.59151591717587,-3.331364044074582,1.4671884671178965
2.996,-1.3977914991349283,-4.541777542942558,0.49960855568072216,3.2404608175580294,-0.9769190720292067,-1.615798137533453,0.07845848596304883,1.270238927832878
3.0,-1.512254888895694,-3.690170301754245,1.3043227511978408,5.083594565504433,0.9282677139249307,-0.8368494328741818,3.600475004935581,0.6481031224826701
