Timestamp,O1,Oz,O2,PO3,PO4,TP7,TP8,Fz
0.0,-9.094947017729282e-13,-2.3305801732931286e-12,2.3874235921539366e-12,4.490630090003833e-12,2.2737367544323206e-13,6.821210263296962e-12,1.0231815394945443e-12,1.6484591469634324e-12
0.004,-47.01916849584231,-37.27647578409898,-42.538830023729474,-23.32431012791966,-10.320174813873052,5.989846133317997,-32.94452549534083,28.094115716896113
0.008,-81.09821769806149,-64.49403539508302,-73.78158242419727,-39.853007149229256,-17.42323804992884,10.372698114391824,-57.52449949677572,49.28719212649895
0.012,-95.07735890361025,-76.07907635833669,-87.53595967106992,-45.85670983138414,-19.590472089185027,12.278941720942385,-68.91522913701323,59.580185147900636
0.016,-90.37789323537746,-73.11544161822275,-85.1373527259388,-42.15546409218831,-17.312013419209393,11.927367601168612,-67.61513045865792,59.303152411431256
0.02,-75.53624522915939,-62.20735838118088,-74.0788106928793,-33.36105440863406,-12.898446798060206,10.370041657463048,-58.70177450990673,52.410321944262876
0.024,-61.382303875659716,-51.73257640083477,-63.65770599051302,-25.324596232151976,-9.200040281078884,8.8197582429666,-48.99786435983498,44.13164453599836
0.028,-55.62206463677953,-47.62604645284023,-60.187604684984535,-22.25076755195289,-8.151007974393053,7.979430611334919,-43.734854974109,38.37944651056222
0.032,-59.69482716852886,-50.928056964924394,-64.35078234044869,-24.98333395683096,-9.894866943325042,7.777096564713247,-44.43907127596259,36.32335001263897
0.036000000000000004,-69.30199961681492,-58.197221393623465,-71.89318535429186,-31.21875730945868,-12.907922548797615,7.637450429923206,-48.96838368439296,36.71535529577028
0.04,-77.88890119800422,-64.25158336774996,-76.95776563321101,-37.32334883787996,-15.007641925637358,7.041008586253724,-53.42248522382374,37.459132654189716
0.044,-80.69116881420436,-65.37149073395767,-75.77377545730525,-40.4914966489755,-14.61138284061633,6.001571584790895,-54.60404044867545,37.22823246567276
0.048,-77.06788446555709,-61.17242116507933,-68.62614990215945,-40.05910047161723,-11.576860767087169,5.114154144858389,-51.66998731277607,36.13673275461622
0.052000000000000005,-70.11464224015478,-54.31560905569361,-59.21255388670369,-37.39447856180158,-7.210932537881661,5.148086635345294,-46.22565135370638,35.241955538319246
0.056,-64.21768592090703,-48.54202129729748,-52.09745177873208,-34.66071376370604,-3.5024839794469926,6.479530999216649,-41.07097318613734,35.45855487308387
0.06,-62.32186379147177,-46.425855145459735,-50.03825552213726,-33.39251978747478,-2.0821043459607154,8.726632823691148,-38.53134264966599,36.75743676785987
0.064,-64.46311568537578,-48.09790170663871,-52.65479250968923,-33.6892421673586,-3.454203778934925,10.876311275027035,-39.288120004260975,38.15999625937951
0.068,-68.25184983442895,-51.5516397882526,-57.10393454859695,-34.437267268071366,-6.896164201046702,11.82764035377204,-42.293198512990955,38.46311084552292
0.07200000000000001,-70.72759969288285,-54.13432955537016,-60.111135938210566,-34.27425855438878,-10.999184912601777,11.04378680113615,-45.644449901588246,37.12729321158389
0.076,-70.26414345160012,-54.18042894169989,-59.974544579094186,-32.58630183324857,-14.469501208913073,8.916142601463207,-47.7614925048851,34.68370220486372
0.08,-67.3966069685033,-51.84720934435467,-57.40088599859649,-29.938908012747646,-16.744214370355394,6.57804668153085,-48.170554176923645,32.37978247562336
0.084,-64.16525245837116,-48.73049577700925,-54.72129332767497,-27.680261459158913,-18.090478447333055,5.276024445379903,-47.46687328196282,31.294444508731942
0.088,-62.63330274737007,-46.69623310961745,-54.2109330489065,-27.08509343922043,-19.228762877075212,5.640871308268629,-46.65887347479406,31.58801796143615
0.092,-63.63541632030763,-46.76064414931446,-56.66148380432651,-28.622636218573234,-20.762703501661917,7.311205012166852,-46.432105525632494,32.43922051286353
0.096,-66.49006543829049,-48.6696312039698,-61.037036098632484,-31.76884468432749,-22.767369299456988,9.15172496224858,-46.802103503390185,32.69763448198643
0.1,-69.69504574346772,-51.304699530358846,-65.30802956276085,-35.416821961977035,-24.767164355345813,9.922919499996965,-47.30521598273157,31.77873611148175
0.10400000000000001,-71.90066609014136,-53.438521888123944,-67.68504353899249,-38.47727157690767,-26.03020381016185,9.013492779774197,-47.43320673581019,30.11194553397246
0.108,-72.52907190710067,-54.34781394355085,-67.50529587771479,-40.31465183063111,-25.98795748685157,6.7843421670408475,-46.98086622880771,28.825907116846054
0.112,-71.76960502271716,-53.98519923872729,-65.32803628393307,-40.815625087933086,-24.518864204593683,4.34378213267297,-46.09644472376766,28.923158840758333
0.116,-70.13385809716812,-52.73356348146217,-62.32698860444614,-40.1510049094386,-21.944370238045963,2.9151163292448814,-45.05592024155703,30.55150691659108
0.12,-68.03311877415798,-51.0520492939049,-59.541277314025905,-38.53275955326302,-18.816142776383742,3.1414545378908088,-43.99394149542158,32.86904628382996
0.124,-65.59748381300297,-49.19945015791106,-57.36062564788017,-36.0976587114979,-15.624651572420788,4.7546253466538815,-42.74577687076936,34.55758444212444
0.128,-62.8261902065251,-47.2055598330098,-55.543772597524764,-33.01423253054952,-12.635328336931934,6.7598405699763475,-40.955314945668704,34.63828091900268
0.132,-59.87394401481835,-45.04947036677399,-53.643862103205834,-29.67738364547526,-9.91873550834444,8.023839576287457,-38.389604922895046,33.07325146464569
0.136,-57.17776792220367,-42.85257944464158,-51.45658249277855,-26.760763365704577,-7.494065348567716,7.927055054426603,-35.2367837225965,30.790984311975308
0.14,-55.32811293293035,-40.9574798590279,-49.2313208300792,-25.05197427752097,-5.480381391359344,6.6785914395572945,-32.18067013264846,29.113848563855754
0.14400000000000002,-54.69130783902034,-39.77637461757263,-47.44122669443516,-25.06318263793395,-4.104788314146674,5.145303502104298,-30.09004644141328,28.927328053853103
0.148,-55.108564688527736,-39.55432131362076,-46.388759667065415,-26.683212572290444,-3.57268146600876,4.290237164188056,-29.508123415909722,30.161366281472567
0.152,-55.92781881124793,-40.23048089130691,-45.97044960228493,-29.11918237686757,-3.8931650080922964,4.582742992475005,-30.263846230567253,31.91329118280578
0.156,-56.36040464219468,-41.470531315408806,-45.75134677921261,-31.196086896219356,-4.781922877753118,5.751566373118521,-31.439065465825706,33.11019072413444
0.16,-55.94535090519281,-42.85220169322588,-45.32599768012216,-31.91164901077525,-5.754965240345825,6.980333867741251,-31.76751761168532,33.24638526404192
0.164,-54.74529122697206,-44.020973812140255,-44.60272663318199,-30.898229828104718,-6.355992583437853,7.422197307700117,-30.22901576220761,32.6596353350148
0.168,-53.22014998411146,-44.78739429002434,-43.878063804491774,-28.59195614071365,-6.416986292841216,6.708627458551746,-26.577471664341374,32.20758148236234
0.17200000000000001,-51.924404929951606,-45.176266722771686,-43.68659546861585,-26.03544620848436,-6.196932414930245,5.167140658730318,-21.55176683790978,32.61231983984351
0.176,-51.24294716458982,-45.4249978664875,-44.52186501909205,-24.40380988233045,-6.287634769721706,3.641159846824962,-16.63121456270676,33.93418811294816
0.18,-51.31942842670517,-45.93643803971298,-46.623881729439574,-24.51392152498852,-7.328647821293941,3.0069296241866823,-13.434080483802632,35.515388213579854
0.184,-52.05939552668437,-47.08347541082878,-49.80742259998249,-26.46564657850672,-9.632726715948138,3.689054210374934,-12.960650461784894,36.35914810160591
0.188,-53.17272046801054,-48.96329872990253,-53.45184777138405,-29.595600805122558,-12.934275917184436,5.419288218053907,-15.086886602778918,35.692363234768436
0.192,-54.23092662723434,-51.241338517978704,-56.66427170519802,-32.76041322758687,-16.399694552271797,7.377101827632259,-18.59384134269169,33.387876436557576
0.196,-54.74097999851628,-53.20380754371672,-58.546330435157756,-34.814968418830745,-18.912131315342037,8.635129569441233,-21.742580916951965,30.018437539335878
0.2,-54.27988117464645,-54.04745738309833,-58.5071574649603,-35.089475799101194,-19.52573673304437,8.624260440048943,-23.122328575866618,26.545613539882538
0.20400000000000001,-52.582152854200956,-53.19633992512661,-56.380487380574664,-33.576018615808266,-17.834305894579757,7.391437021640854,-22.25305013493505,23.83073890103367
0.20800000000000002,-49.62424073990553,-50.53825690623961,-52.39424783042227,-30.8102093553793,-14.10882387399306,5.519233863478689,-19.67200967658664,22.29002356216813
0.212,-45.67835995307752,-46.468252630753,-47.048560572400106,-27.540264648777168,-9.143284996094167,3.807154317774348,-16.50558059741695,21.89532950721457
0.216,-41.26581175165967,-41.70659363613487,-40.960614005661455,-24.353424745979964,-3.898171231485321,2.9104109735478687,-13.794597959542557,22.45785562968024
0.22,-37.0396354462967,-37.02643352395728,-34.800044163804955,-21.509381687976543,0.8199653414441173,3.0725967628010267,-12.006505472894332,23.903007927055683
0.224,-33.56643524572797,-32.9881396123875,-29.214719025254226,-18.999251285712944,4.505049112935126,4.068414814501239,-10.949599256186502,26.24048400382833
0.228,-31.18918835432288,-29.87860867864731,-24.835007454367087,-16.81123719961863,6.864437954547611,5.319773438988932,-10.161551450614525,29.270636922553763
0.232,-30.08948102059037,-27.893368011366306,-22.34523826675695,-15.243541431420795,7.586882508054259,6.086469491517846,-9.524188087809534,32.26422728959756
0.23600000000000002,-30.414181079614593,-27.34185960792138,-22.43571712593007,-14.99279899226542,6.1947945631008,5.6604862040496755,-9.623415299289718,33.885248543224975
0.24,-32.384223030280964,-28.718164426015846,-25.65734146420516,-16.9464971377613,2.114287370744705,3.5128024392058705,-11.610138792135672,32.5656311776487
0.244,-36.24332248626757,-32.50407073533813,-32.16535497255029,-21.712876229953167,-4.996036474080256,-0.558003276017871,-16.57544868069533,27.262450318357537
0.248,-41.993465801491936,-38.74768424712829,-41.440464452491824,-29.110366185236558,-14.820395458928033,-6.285397804452259,-24.756855817754058,18.197514958895795
0.252,-49.0384200203855,-46.654275500955805,-52.125038981319676,-37.89943139415152,-26.129436207477397,-12.860989400228846,-35.02032962214173,7.102589388472779
0.256,-56.01586036305167,-54.49836711118121,-62.13858329328343,-45.9575997256552,-36.89786682910881,-18.99150969063794,-44.962886819322875,-3.228400230039938
0.26,-61.0967417814295,-60.07614813102418,-69.21080164705108,-50.942276379538725,-44.84457063010416,-23.16002419245433,-51.715652826881524,-9.892442993220925
0.264,-62.67871586826766,-61.5407334296475,-71.6272264587144,-51.16184888580074,-48.18038729335058,-24.054428354156244,-53.077661142430316,-10.933693475880318
0.268,-60.13436257350969,-58.21282337784703,-68.87215995765564,-46.27025622201131,-46.25025002557277,-21.057875297145756,-48.41824657210009,-6.055215526276129
0.272,-54.165160408358076,-50.89697902651017,-61.81226825035435,-37.42517401558791,-39.754304629640956,-14.59084845028974,-38.88280371848805,3.3046244471739783
0.276,-46.536741758728,-41.52577237273192,-52.313508884671705,-26.83071821097076,-30.43941455400204,-6.104761535447778,-26.838756497250415,14.545688962132544
0.28,-39.37276075519554,-32.354861183252865,-42.54832111402584,-16.93101624223482,-20.42595131198334,2.3284849620376917,-14.929868213909344,24.895192516125917
0.28400000000000003,-34.32207282027474,-25.086755049636736,-34.26014370906444,-9.57986672500374,-11.457004641747062,8.72670081303204,-5.186140388417016,32.369286603038745
0.28800000000000003,-31.984373157310074,-20.332518369370973,-28.288394292326984,-5.528825032591044,-4.404847920227894,11.887991252142228,1.452710194713518,36.290472653880215
0.292,-31.820344138304392,-17.610099633701907,-24.490131299549034,-4.395275456663171,0.7929096795761552,11.761649632855097,5.106762430180879,37.19351102302221
0.296,-32.56205403050063,-15.826743169901079,-22.037132045009912,-5.053901389098087,4.8085024271982775,9.342615824888071,6.557579441242979,36.28409364184472
0.3,-32.940027584021095,-14.00255933703636,-19.99605621927708,-6.259159493230982,8.394572789292624,6.133020905721651,6.700795222128818,34.816143420252956
0.304,-32.31955821799937,-11.827752756852647,-17.85837569501996,-7.17644947790177,11.942077397321782,3.4672510019991023,6.144634493852436,33.6694249965708
0.308,-30.92464742942036,-9.766469055963398,-15.769784532017525,-7.609636551689846,15.307354976613851,1.9969682721168738,5.0970225427449805,33.21351536435145
0.312,-29.551152114077922,-8.672251526081027,-14.35552510178968,-7.864750744769367,17.939468037428924,1.5541158288165207,3.519751412143023,33.372658460215234
0.316,-28.968420709811312,-9.1597216222209,-14.252646529378808,-8.36001368246616,19.21600347985168,1.4542912003032598,1.3988342905563513,33.78991043625115
0.32,-29.444625557720315,-11.160973329142394,-15.706833255770562,-9.269088817370857,18.774851234494008,1.0335166949653285,-1.1061274879057237,34.02700967748319
0.324,-30.627846242364058,-13.891735138899435,-18.41010332345627,-10.358718601576697,16.702947349018473,0.12722818680731507,-3.6931524951298798,33.754419408165404
0.328,-31.791005172603946,-16.218360331140957,-21.642293381459922,-11.09265077913733,13.499900570551972,-0.7936415079470862,-6.061509571846045,32.87177751615036
0.332,-32.24338423849497,-17.200729721367566,-24.602067420558797,-10.924617068370708,9.847473171207639,-0.9176384534616773,-8.036481673533672,31.496264378298065
0.336,-31.642753894882276,-16.50363298275397,-26.717608359668702,-9.591986365092225,6.335533761257238,0.3755334265952115,-9.581056648744834,29.86613312338568
0.34,-30.12209503111137,-14.537850616648825,-27.865071621989273,-7.297358865192905,3.260243522619703,3.0564011755927822,-10.750572745082536,28.256677251976043
0.34400000000000003,-28.196968543087223,-12.276375102316365,-28.37332355067747,-4.665858110813815,0.5916999035925983,6.346434819175101,-11.634954930372487,26.921205228980398
0.34800000000000003,-26.498710158567405,-10.81939419616424,-28.80779785807215,-2.475204405680188,-1.880665298297231,9.042933147028862,-12.298009227298962,26.05347662939107
0.352,-25.448663410117945,-10.888141770712878,-29.619397752415125,-1.2752195662898202,-4.310485437697253,10.113225722537436,-12.719603935571968,25.74232030183441
0.356,-25.03645518696203,-12.478092138799411,-30.824104461059505,-1.0887693994512802,-6.5890716633468855,9.234055668936662,-12.766664857593241,25.94393691302912
0.36,-24.867589544473503,-14.8766189889094,-31.968270513404605,-1.4126243870567805,-8.31908616080409,6.962778003650101,-12.26305496954501,26.51848308198487
0.364,-24.428790728003037,-17.009424847285914,-32.37342934102844,-1.5199705146824272,-8.978453887871638,4.453620610491271,-11.111503714862693,27.302415817194515
0.368,-23.41187091941424,-17.932792207780608,-31.52286187140885,-0.914295859821209,-8.199487541757662,2.827664025113563,-9.402184496434984,28.149942840196218
0.372,-21.88260989744242,-17.209528368687643,-29.33863844788152,0.34347977978131894,-5.998723592781062,2.546146596802373,-7.417390215201067,28.925233445512504
0.376,-20.222850670441744,-15.008631481029624,-26.18780394868645,1.6381852698048078,-2.811738586957972,3.154726413222079,-5.512018816786849,29.478786966862344
0.38,-18.942928258011307,-11.965236929028379,-22.697608579160942,2.108926624948708,0.6853169149605947,3.5473529695746038,-3.975242562961512,29.685990414034677
0.384,-18.44329601225445,-8.876494377296467,-19.458530020866647,1.1278448946418393,3.890095172876727,2.6345768463631885,-2.928627972336244,29.55374257190101
0.388,-18.828775761140378,-6.374819910707174,-16.780743584886523,-1.3228787704326805,6.525491885783367,0.026019613367225247,-2.307514934907431,29.30082591856535
0.392,-19.841482404503722,-4.712848748802571,-14.619296950804255,-4.593079310436451,8.66827848231378,-3.6820186106401707,-1.9291931520701837,29.290148094419465
0.396,-20.946239093703525,-3.741587033171072,-12.693869327782977,-7.664349847788571,10.54152093392645,-7.185537588691659,-1.619291598478867,29.81485366987954
0.4,-21.6071448184847,-3.127333251403684,-10.800942745326665,-9.703285841644401,12.175902642794881,-9.18824544857398,-1.3838847061870183,30.875708434021817
0.404,-21.59867994687704,-2.6537137636980788,-9.081181429539356,-10.525721164485049,13.196717591858715,-9.135127218362413,-1.498842340429519,32.08639444567348
0.40800000000000003,-21.15533651009025,-2.4152549606435514,-8.058999918057452,-10.688532952263358,12.902089457983948,-7.5522635539450675,-2.424461690895896,32.76896495759593
0.41200000000000003,-20.82827545505802,-2.763886983297539,-8.373370335486925,-11.126305958716557,10.63965769371498,-5.783601957425617,-4.541960110900391,32.2118024369297
0.41600000000000004,-21.10801250758857,-4.029476400954195,-10.326214725243062,-12.518853548483321,6.294661063635431,-5.235478750425045,-7.840081692927697,29.990117143476027
0.42,-22.084648168362378,-6.231880561024013,-13.600986172936473,-14.805814513664018,0.563897101716293,-6.558715835876228,-11.787629933754943,26.219986583226728
0.424,-23.33881748836825,-8.955875176822474,-17.312144398410055,-17.137701013748938,-5.18284238032561,-9.221125397720698,-15.478164465933105,21.601560685365484
0.428,-24.147286620287332,-11.483675039482478,-20.396929855495728,-18.32386455654114,-9.452801774459658,-11.757602688106545,-18.007499630070924,17.176995761986745
0.432,-23.87099831909336,-13.10517681927331,-22.116924590332246,-17.503966462298195,-11.304900571136386,-12.57484441964607,-18.86938605978844,13.897045128261652
0.436,-22.312975994285352,-13.44731153124917,-22.38001453832885,-14.656782757700284,-10.779025664909796,-10.866344763114284,-18.157236927241,12.207989526536494
0.44,-19.896750879435444,-12.695746857746144,-21.774887858126476,-10.690922261511105,-8.857090839426746,-7.145297358661992,-16.51735634363513,11.893344491506468
0.444,-17.525711058086358,-11.564431766681992,-21.258773291874604,-7.027713642361732,-6.941914264872821,-3.0421520475551915,-14.863867018609426,12.250851554323162
0.448,-16.15868025560451,-10.995406969433816,-21.650585416848344,-4.906850238389779,-6.1309370816486535,-0.4725350458934372,-13.987152993088785,12.478790622440783
0.452,-16.31510275698224,-11.714056998976275,-23.177309736859797,-4.796116378440274,-6.686109129238048,-0.6448674813873367,-14.239097049136035,12.03067757855706
0.456,-17.774769458552328,-13.850281170703738,-25.304913720970035,-6.214777429026526,-7.97222658711371,-3.432202558406516,-15.437767886239953,10.769514314975368
0.46,-19.694957182303142,-16.85375182728012,-27.00554692102787,-8.083750223472407,-8.886579201893255,-7.454272793921518,-17.041082724274247,8.91629127328315
0.464,-21.085949418768337,-19.74669302452685,-27.29693351727019,-9.375972291312564,-8.520157151429885,-10.810685184113026,-18.470807318106154,6.853368575691775
0.468,-21.370642939986624,-21.575391178202835,-25.772724179066017,-9.68766232914868,-6.6804400259893555,-12.069600372993591,-19.394114563712492,4.912239344759428
0.47200000000000003,-20.67928163707586,-21.81716000580127,-22.82560192458459,-9.400125770360773,-3.99617938717779,-10.969310201110147,-19.794911497170915,3.2379185423837953
0.47600000000000003,-19.705223903200363,-20.54093492199354,-19.432406340500847,-9.348857305171578,-1.5625951386355155,-8.454959922409216,-19.83527425498778,1.7816326049423878
0.48,-19.262031896000053,-18.304151269200474,-16.68698969418483,-10.244360993341843,-0.35664333699719464,-6.063768203709515,-19.66734688858196,0.43866692350820813
0.484,-19.790473046972693,-15.85645986265581,-15.30023875194297,-12.17026859457269,-0.7378161026142607,-5.0057973080010925,-19.320145126748457,-0.7681997267723091
0.488,-21.08729882599016,-13.807182258388366,-15.30828752089542,-14.450011619128418,-2.293144578536385,-5.481439776081061,-18.724979647124428,-1.5884317154946075
0.492,-22.380088162472475,-12.397759055571214,-16.095515793734876,-15.940512286661715,-4.085151733981775,-6.6125634543459455,-17.83169660143426,-1.6188855065124699
0.496,-22.7067948621725,-11.482403752682217,-16.698442651724008,-15.590633651433336,-5.141922496334928,-7.000520698101354,-16.71648521537736,-0.5296903941684832
0.5,-21.44493341292673,-10.750510502230668,-16.32229865818954,-13.013411088903013,-4.959991004497397,-5.587140182589792,-15.642308537303279,1.7000575739650685
0.504,-18.68525845537056,-10.03082978792736,-14.792867174418689,-8.755174234611786,-3.7634997703173667,-2.301440940250359,-15.005765394000264,4.663555952115075
0.508,-15.24253021988693,-9.480989738813832,-12.717219372340423,-4.127431785000454,-2.417003846002217,1.858062640056687,-15.185407240913264,7.586482640591157
0.512,-12.272834448878257,-9.520069520207699,-11.24591475088232,-0.6614955009374626,-2.040967580891447,5.337102790615518,-16.34979075246133,9.557591812887267
0.516,-10.692365165989031,-10.526149138203891,-11.500954476415927,0.5670951123940995,-3.49246141870708,6.852631925890364,-18.314938201767973,9.861868602994946
0.52,-10.756651454773987,-12.509854912686137,-13.994347409192187,-0.605169498584246,-6.948575211161142,6.060934944514656,-20.55950289288694,8.320466572672103
0.524,-11.998312013434315,-14.96007482596599,-18.293668770744034,-3.3809023118371897,-11.747931682508352,3.730641846743765,-22.391036583557025,5.48201428255561
0.528,-13.528603620927925,-16.981023563269673,-23.11129093460795,-6.375530742695673,-16.568494141450174,1.3234913189123745,-23.185477301073888,2.5237721361625063
0.532,-14.48216120503173,-17.649159788395423,-26.766521288359854,-8.209200541894006,-19.87614292723356,0.22247312584909196,-22.583872775793452,0.8319527411749732
0.536,-14.36744525949598,-16.419163159972754,-27.813321911531375,-8.044938163165398,-20.470163053272245,1.0404256969729886,-20.569812255865827,1.4034926351453123
0.54,-13.209284321046766,-13.405354827722476,-25.620366697879945,-5.87569814532776,-17.925323618368566,3.3649470770876633,-17.44550576767142,4.374116270458444
0.544,-11.432272538769325,-9.373689439173972,-20.61310389225173,-2.435408390934981,-12.735964762454387,6.063712933670558,-13.723455380833911,8.911086057873035
0.548,-9.582004951417048,-5.4310007489084455,-14.079847711643879,1.1846293599294313,-6.109398092698484,7.9381165478782805,-9.983285211444354,13.537986859856346
0.552,-8.034580594163913,-2.5479730936561964,-7.624174072585447,4.0219817569296765,0.49865631547390876,8.350041060469039,-6.725116158654828,16.752685169759616
0.556,-6.848158249320136,-1.1589927364292407,-2.520199366148063,5.602812144000723,5.902241611486488,7.48323367843318,-4.261757022405391,17.642377820752927
0.56,-5.858857735372567,-1.0682023263472047,0.6620708541731801,5.992245852694737,9.511633729846608,6.128792065701418,-2.7067859268565826,16.238482725827453
0.5640000000000001,-4.902945960109491,-1.6807930618258524,2.0522703014416948,5.584469345998173,11.359927355537593,5.1746360493509655,-2.021743821228256,13.448484034289777
0.5680000000000001,-4.00629434972268,-2.4096692736159184,2.1555059989011625,4.779575075006733,11.85241487206872,5.087108036017526,-2.083491561075334,10.593373030353632
0.5720000000000001,-3.390001451062517,-2.9944788946513654,1.4597594843319257,3.761266813911675,11.420082310339694,5.6823080298468085,-2.721294851020275,8.777498664854875
0.5760000000000001,-3.2725487653441405,-3.5476606923465397,0.23596486545375228,2.508934948711385,10.296352701057799,6.306968872490643,-3.702184916454371,8.411664317937493
0.58,-3.6612537355946415,-4.369274273741098,-1.4560415199621275,0.9630898527062755,8.502877649318293,6.277632971888579,-4.74914843368947,9.137933156156805
0.584,-4.273560217446857,-5.662036377907725,-3.5882811481742465,-0.7743890840332597,6.031109479757902,5.337511055613049,-5.602018513775192,10.15687009130238
0.588,-4.6636649795480025,-7.34822434785076,-6.00486919652235,-2.374436982314819,3.044772519617368,3.843989757981035,-6.12099952524386,10.723524599316534
0.592,-4.4799219834303585,-9.098740784219217,-8.411949353932187,-3.4082038012120393,-0.07210777120587863,2.564174286194884,-6.375735013446047,10.500410081200698
0.596,-3.676217674504983,-10.529919359914174,-10.49858644658002,-3.575485402593813,-2.8546816292237054,2.228659074268535,-6.642533999334091,9.591825453198453
0.6,-2.5873226396364544,-11.467788600109088,-12.1492230520862,-2.9230426536397545,-5.013082267450727,3.09585299799528,-7.312311415253589,8.309894256116422
0.604,-1.778427787893861,-12.07134208327227,-13.537797837526682,-1.8717543957964153,-6.599784547197828,4.795327183102472,-8.701202094821838,6.8805530504471335
0.608,-1.7340437536777245,-12.709381381614321,-15.007100484440002,-1.0173210455809567,-7.955372198387636,6.526717796117055,-10.845184686419316,5.30299254335182
0.612,-2.5626433145448004,-13.65370771406549,-16.773983372873772,-0.8138226066615744,-9.442570721649872,7.480349960854937,-13.373302353361396,3.4341292099768452
0.616,-3.8755872016939747,-14.768483864949644,-18.618613558843663,-1.3081824510423985,-11.111704469888991,7.250758589625548,-15.53349065086195,1.2205160765861365
0.62,-4.985159957694236,-15.45572440735748,-19.847708484518193,-2.123314628145863,-12.540999866277161,6.001173798123546,-16.429257464962802,-1.0864148235364155
0.624,-5.302940738537018,-14.926994832528294,-19.582797814412856,-2.6884404023683146,-12.96911614088458,4.328105408033252,-15.375469664567618,-2.905064102686879
0.628,-4.698634188894175,-12.66166918831766,-17.24416410071649,-2.580377403631246,-11.681698071414417,2.9212011069150776,-12.217871394993722,-3.5492515665961264
0.632,-3.5917946456083314,-8.778020902530784,-12.939002985492607,-1.7624438735003878,-8.441143065201686,2.215754303203994,-7.450069615366601,-2.610237356945504
0.636,-2.680937118964664,-4.068627234874725,-7.487758951828141,-0.5538208838390801,-3.693458165873608,2.245342754226158,-2.0513895174170784,-0.26004754493271776
0.64,-2.5096330006589938,0.3122400776960603,-2.1045112044081407,0.6065030363319011,1.5581968046442398,2.7425057930533967,2.8544315799384776,2.759141935971684
0.644,-3.1242926278604273,3.3684508862634175,2.1336585614192245,1.4560335764566616,6.165173522735245,3.399492391645481,6.383953101420843,5.478302596675576
0.648,-4.029183823691426,4.711676897687312,4.733289242947194,2.06907204409913,9.302843128193786,4.090405418465707,8.157818816034933,7.188914559317141
0.652,-4.475935270328421,4.698256818367327,5.917304388375783,2.7804105387299387,10.75240265863033,4.910465612888174,8.358444473171062,7.793581164452917
0.656,-3.9042740065211206,4.190300573901936,6.410907946898874,3.933809886165591,10.876876522951761,6.037820288333933,7.591811591353235,7.806172179165628
0.66,-2.312145996468587,4.040393455761432,6.960547439475022,5.591288852773346,10.312502168768447,7.509652362632096,6.597159684224266,8.013521087942081
0.664,-0.31540764944486455,4.598340909438662,7.883659069452619,7.406423692919816,9.574108774369392,9.098253757081693,5.936801519529354,8.989016637955956
0.668,1.1412135933946956,5.511616138658155,8.88251331424965,8.738220965363553,8.787777337294528,10.373271980088248,5.7850637175516795,10.720246338322113
0.672,1.2981898834809158,5.952642484158446,9.229070838264647,8.978907247573602,7.696613496807345,10.925003274705887,5.90182014918139,12.560039094406307
0.676,0.05714288493771846,5.166909078327478,8.227700075963071,7.927436265033407,5.916041824171884,10.621627211647365,5.799493303870804,13.530923096532092
0.68,-1.9095676344673507,2.9831982939580826,5.627015873672576,5.9472141902721205,3.260732141157405,9.719537848477557,4.986672590082094,12.841675406416584
0.684,-3.4691906396785157,0.0005475580888401055,1.7930939580598988,3.831500285523248,-0.020034690209740802,8.758441774522112,3.201094779022924,10.339417865011114
0.6880000000000001,-3.59612784332694,-2.6578298310910213,-2.4354734734408794,2.435001560137266,-3.23196305842373,8.279669874178353,0.5437115854081185,6.645763111183442
0.6920000000000001,-1.8751404768700013,-3.8776169258064783,-6.078566441511839,2.280506750174709,-5.441562782491133,8.527809047657456,-2.5143392823847535,2.8962406626086477
0.6960000000000001,1.345347762685833,-3.071459726584692,-8.321153092076543,3.3596294449686184,-5.7913353656151685,9.310389537129822,-5.246140492702125,0.21364094451041638
0.7000000000000001,5.150838164379195,-0.4592527153064907,-8.735942069227463,5.1707099494813065,-3.8251735395024298,10.073407425334153,-6.914391333672256,-0.8038324136309711
0.704,8.501100812107268,3.058913119326121,-7.318080437364074,6.985774053792056,0.3296205845218765,10.181254678134678,-7.038876308934732,-0.30333764386739404
0.708,10.66959514028224,6.350177376105762,-4.394851485397453,8.182719370647987,5.97955226004251,9.234656579478951,-5.589798785482458,0.9835759688052121
0.712,11.473454461079996,8.57728730516925,-0.493148756203027,8.48219437660589,12.06799112888325,7.263065314840333,-3.003444513546242,2.1765411855699313
0.716,11.238758919607278,9.552892113746736,3.7989235781445814,8.010912706508918,17.499908628989033,4.721902242548026,0.005521128972304723,2.71157726524973
0.72,10.537523778699153,9.73025521254931,7.910408570942536,7.164631634135844,21.46536743869524,2.296013811261446,2.733099834540212,2.612643203871471
0.724,9.879419667625825,9.866418331261968,11.34517359629558,6.383020623257096,23.651346285175805,0.6398025479048783,4.742712040314245,2.4306378384890195
0.728,9.51762936042445,10.564101413552066,13.737876702256585,5.958810014290464,24.26173987790844,0.169489803666238,5.9730991945183405,2.8992970306895813
0.732,9.445171020223711,11.94273130774394,14.915757353654044,5.9636603237005374,23.835923357510865,0.9674206284404363,6.656217392324038,4.485145516513967
0.736,9.544888258925653,13.606968763146426,14.95966115019553,6.309177780207619,22.954092451776887,2.81281185817852,7.11592957375467,7.066501714817605
0.74,9.729775018437351,14.864475734368,14.14864444617865,6.839757950436649,21.938262938832054,5.275519095195932,7.535927752979774,9.926669460946869
0.744,9.989068919264241,15.063972463386847,12.822338863948062,7.405689253298249,20.70167144151486,7.833753547107335,7.848143948128268,12.065753094298202
0.748,10.337197569379896,13.874648602345246,11.216040786485337,7.876985620191647,18.816758606586973,9.978300016324852,7.809558741240153,12.661985474117046
0.752,10.722657882797932,11.38192282252686,9.355481475249007,8.102034500472826,15.752368195673455,11.286704538494746,7.1984146143097405,11.428102854525378
0.756,11.006152774782095,8.019823466380558,7.118999163826629,7.895378027759762,11.183352047291692,11.501567675981505,6.028562968803271,8.693169915945987
0.76,11.004900699265079,4.387680895373933,4.384293064479721,7.070282547374802,5.213066295802832,10.596974779649258,4.6031122537903,5.211784211891882
0.764,10.582547120534798,1.072221340321562,1.2101076944853162,5.543258909746157,-1.5680017813201061,8.817513496257789,3.3784015995859136,1.8243218987853425
0.768,9.72446096558798,-1.4575000784906251,-2.065726949952875,3.45526765444788,-8.20931473448843,6.649015513534437,2.716811263123759,-0.8440566113641808
0.772,8.570608952349431,-2.8653806437227445,-4.863828915637839,1.2380478965512793,-13.643158257136065,4.693692664904347,2.685479059648628,-2.517814681295704
0.776,7.390082661926158,-2.931775978525195,-6.512193179777057,-0.43636750173641303,-16.942759847369814,3.4763513250277356,3.0416070858237845,-3.2359061466197545
0.78,6.47035691351374,-1.5969186495679537,-6.504272330128629,-0.8783532410398038,-17.540297925560765,3.241268497367628,3.3974271319434592,-3.200302220226149
0.784,6.001594957433269,0.9622890519866019,-4.70668235850593,0.3317643169873463,-15.344336724943275,3.869149568320836,3.49005428172336,-2.6128833038343373
0.788,5.981377546140976,4.253890273186016,-1.4511102002725806,3.0971577178218013,-10.780014209658077,4.935098156236677,3.3555794789352262,-1.6101308792616464
0.792,6.195524434706385,7.496412706438832,2.5392440836304218,6.739917348063102,-4.74301071035444,5.884435897007847,3.3027501092805096,-0.3071382667317266
0.796,6.310253299954894,9.818811407474527,6.4003342337098275,10.212700192174168,1.5639798469964035,6.271126995388499,3.7222075334648252,1.123432030021604
0.8,6.003617289117159,10.548206503180893,9.403781036121302,12.48903315152512,6.887065023895104,5.92772303691379,4.813075678565383,2.4368494758176666
0.804,5.111891669644763,9.483011122991059,11.184179048016802,12.992185251772412,10.247361516219541,5.01303673375196,6.4171830038463895,3.4019907645942453
0.808,3.718697725739588,7.003074563059386,11.806152292040792,11.842451828953244,11.227190172351413,3.909988918299291,8.06533089567938,3.932472991546774
0.812,2.153837711783126,3.947200938318872,11.657151806489026,9.790901668454012,10.087067839613553,3.019150713599174,9.213507974753838,4.152902543188588
0.8160000000000001,0.91004149878151,1.3054162598020866,11.250831397843399,7.875443063180114,7.638922566498707,2.5699144924003576,9.543629272508213,4.317741599610258
0.8200000000000001,0.4608265420446571,-0.17147348427670295,10.974279097703231,6.930779728575601,4.886946998847861,2.533194842179114,9.120357456483475,4.636400869101465
0.8240000000000001,1.052808292538998,-0.2626188832153957,10.916246103383628,7.208139013181437,2.5963596196539243,2.6850949670397313,8.311946106693881,5.099781426189622
0.8280000000000001,2.5611668972497625,0.6553939586501087,10.83255823550229,8.282991375159611,0.9833632767433755,2.7636122112364774,7.512497315203348,5.410624183264133
0.8320000000000001,4.500718493539182,1.798197167479202,10.271429073556817,9.296027747390724,-0.31562049690722915,2.621995596348256,6.848739465310473,5.07240266929108
0.836,6.235119681326012,2.3492043115037973,8.839434520937118,9.42334212789956,-1.9576144681196865,2.3011518912960582,6.081710453047094,3.5864791630028208
0.84,7.255363025771345,1.8131579501949204,6.427593287935167,8.295340944093027,-4.455572812936623,1.9671261148092754,4.740569840440344,0.6725843923199477
0.844,7.415520595189349,0.20740253385417873,3.321078583001963,6.172276353424138,-7.800744893293654,1.783151438029904,2.441207109683205,-3.582990089779173
0.848,6.979297309375966,-1.993272109367922,0.11702947271515995,3.772366155728264,-11.363301297644398,1.7857916670645864,-0.8028867288716697,-8.716715139947325
0.852,6.469707906214325,-4.094623988344551,-2.5003440007192808,1.8747129958161395,-14.12579485815678,1.8572456045770878,-4.460529821673958,-14.00047169712991
0.856,6.411454914279119,-5.46156310020524,-3.989112557133751,0.93568752157978,-15.133933760259083,1.8194215036488686,-7.625357506211003,-18.63507968077306
0.86,7.058724900978575,-5.738364962277302,-4.129829245954852,0.8932489180948551,-13.956390532905004,1.572640723802465,-9.393080870699123,-21.933871230726083
0.864,8.264332980809144,-4.913710307241104,-3.0441665445141552,1.272926777534451,-10.903935230165416,1.2062598929633168,-9.267099969797357,-23.446570576781312
0.868,9.55157644652698,-3.240174231643806,-1.0796101750970593,1.4966504743438236,-6.912014152574272,0.9876732178149155,-7.393572604545227,-23.027891562416016
0.872,10.340453478110419,-1.0862698069422834,1.3613091264438708,1.200068826428776,-3.1547166885885076,1.2072127612754002,-4.507028456076853,-20.87167159723009
0.876,10.236111407969474,1.2097141933130047,3.9925215283794273,0.40499183075723977,-0.5575797908703635,1.9822776452313633,-1.5860055676178604,-17.500400646689172
0.88,9.204304276453598,3.400712951495649,6.687540192544532,-0.5644376240992699,0.5468873241762822,3.127718086229777,0.5910620553351009,-13.656896249609588
0.884,7.5761200091538115,5.314582095185216,9.415473533915247,-1.327921757748868,0.4776606940415036,4.1924862568972685,1.771491869792726,-10.103047568631496
0.888,5.8766788028119095,6.787230489103621,12.101784001958265,-1.715797651901994,-0.05486447390438798,4.6471951201991715,2.2558832456284676,-7.38834707737368
0.892,4.577240517006544,7.6126733930195485,14.503848080559635,-1.8981325814397678,-0.39690519997731144,4.120946041767638,2.619958261500585,-5.703175787558337
0.896,3.920296480028611,7.589562895749026,16.226820503348563,-2.2782877739899163,-0.3366182036727423,2.5810278794396595,3.31239924584969,-4.896854333552369
0.9,3.863893240366963,6.632166148550596,16.841602890259992,-3.2416104560612666,-0.23913422460088896,0.34315550485780477,4.3350194034557035,-4.640436488041928
0.904,4.169710077241575,4.899789612674283,16.090324170755366,-4.885087259582292,-0.8294705143640613,-2.0690392935669024,5.209210338868445,-4.636347183960936
0.908,4.561479540319738,2.856220996046204,14.071943366748883,-6.889630108606866,-2.722195332210731,-4.139128004515442,5.270149487123717,-4.730922254717711
0.912,4.865054532583031,1.1976431596016823,11.309923143529659,-8.60797795923628,-5.944914586177333,-5.528021224597069,4.14543876584338,-4.858181059027004
0.916,5.102157813557,0.6663330613644121,8.684204213966495,-9.296747320596523,-9.71159175399498,-6.1082286232594925,2.1659752817622575,-4.873826258653935
0.92,5.447401271603155,1.7596491777311485,7.152437577477826,-8.438162921265246,-12.652393828372226,-5.916362998517798,0.3958899888737051,-4.434892520903304
0.924,6.071624796042272,4.455883050169177,7.36794872554367,-6.009020333645822,-13.445303680813254,-5.084696662379315,0.17996173139704297,-3.0961199981595655
0.928,6.93638245173355,8.06485869239009,9.31003731158171,-2.602403419750658,-11.584635950092888,-3.8375621629543275,2.356977225682499,-0.6537799066443313
0.932,7.6458748945144634,11.307434173131696,12.10369924795441,0.6501826021578836,-7.878913457578847,-2.5629833707259877,6.531081184178788,2.43455856444416
0.936,7.4847630397230205,12.682370990933975,14.208573968377095,2.3903667619988482,-4.331483556372405,-1.8603209704067467,10.871979168067128,4.852812028225117
0.9400000000000001,5.642188669080895,10.988788291737706,13.926648453105031,1.4665363455196712,-3.378408553135614,-2.4736786748751456,12.653125599127861,4.7146558193295505
0.9440000000000001,1.5877919970126868,5.83541666735772,10.110154290760192,-2.608041663788981,-6.751111552187467,-5.035416253217363,9.420583355279973,0.34893014260660493
0.9480000000000001,-4.552895635582331,-2.080151809955453,2.770910822079145,-9.34282383753407,-14.501457064820443,-9.696703792592416,0.2862037796137429,-8.736399390592851
0.9520000000000001,-11.80567376191243,-11.061697032140955,-6.692402021198177,-17.25252669772817,-24.693862477909192,-15.838477213029819,-13.289704532947553,-21.22084487203506
0.9560000000000001,-18.45056190250267,-18.856546264210465,-15.77816091023999,-24.173376257375025,-33.9717431763529,-22.052097990186894,-27.680972919367377,-34.104993119823575
0.96,-22.499105606419732,-23.351271191658952,-21.682190877646008,-27.901615818967116,-38.819164053321174,-26.509514463331016,-38.30450518328257,-43.66896248614171
0.964,-22.39059893841454,-23.251686536656962,-22.286392685399164,-26.935841883860007,-36.95072443590516,-27.600078429895348,-41.37930232919541,-46.887956809135744
0.968,-17.6491898674019,-18.502972623728283,-16.963704760455357,-21.059466257981285,-28.216721210800983,-24.584207289213282,-35.47399830623044,-42.6546167040151
0.972,-9.214254839102523,-10.30158266160629,-6.860844173735131,-11.52013862721958,-14.636086315806551,-17.97109893325387,-22.131113937439522,-32.21963734499013
0.976,0.7947555290519404,-0.6677217699706262,5.527788949472779,-0.6490230472400071,0.4422326140356745,-9.392116775919703,-5.2351806382471295,-18.64079294369276
0.98,9.781406169305114,8.2162541689911,17.2630391109044,8.920548991833357,13.60740140147368,-1.0215065635279643,10.557221640753596,-5.509097296623395
0.984,15.575649160339708,14.656184658576763,25.97262103355706,15.145081865942075,22.51837236043025,5.216526117167632,21.614622875336863,4.425483217897636
0.988,17.166445165573123,17.85788308893109,30.542047874274886,17.21281541765086,26.447657683376292,8.31019182911541,26.543684790253792,10.10755440788671
0.992,14.953433256947392,17.98819458518915,31.227350883214967,15.674482446686056,26.1130100824048,8.39921485045761,26.328442049120895,12.17654066989985
0.996,10.459067304279529,15.94642025431267,29.261835715453344,12.061265959909065,23.035555526835196,6.538915490962381,23.46476065481488,12.23114095300798
1.0,5.625759930818958,12.949129217975724,26.15595484096093,8.158626406844746,18.795373993121757,4.110581709089729,20.57815846772246,11.833797090188227
1.004,2.030249816359401,10.105452218848086,23.05704319560732,5.283378309464069,14.525475513944457,2.1894266402373432,19.240361426270283,11.78121712795405
1.008,0.35947887581392024,8.11414312943009,20.428191926416275,3.8758670638383137,10.77535715738054,1.167300420002448,19.505107342989277,11.961913276756604
1.012,0.3337956016912358,7.142026842069868,18.100699633471777,3.532683443795122,7.651125244583,0.7560821438225958,20.25819436722145,11.741969859193432
1.016,1.0718867662906177,6.910023629979719,15.624142283708352,3.4301314760050445,5.060931562659789,0.322366476397292,20.103194058411646,10.550222930020482
1.02,1.6405482835550629,6.903314509099687,12.645460053675379,2.860852804343722,2.888289301368104,-0.6772224651708711,18.225816647448028,8.302544139848578
1.024,1.5226505600182918,6.639120425817055,9.155813808543371,1.6280452976463948,1.064711609877122,-2.374132340446522,14.813134911435327,5.458244676158984
1.028,0.7915698322492517,5.888803877227019,5.510373939148849,0.11675871073521193,-0.41344541384114564,-4.435096039632299,10.87498814402693,2.743453792542823
1.032,-0.033780626288603344,4.783199451580458,2.260331700093957,-0.9525294713580479,-1.47216693053997,-6.270164293401194,7.647126799648049,0.7573262538626295
1.036,-0.3067061459889828,3.781138145490104,-0.038291145171115204,-0.915437366120841,-1.9259014858475894,-7.353081774185739,5.967338077839486,-0.31283196430149474
1.04,0.4089349221935663,3.472492283430256,-0.9961034200150607,0.4725869872570456,-1.5019541313538411,-7.492095457234427,5.925807755863161,-0.7315267021085674
1.044,2.1460963454414923,4.295042749286495,-0.46944123571120144,2.8773373624951546,0.04406126079038586,-6.90222979420605,6.935476381163426,-1.0314106024816283
1.048,4.5218878793091335,6.267595950503392,1.4155823178834908,5.473169005630325,2.734289806793413,-6.07927887803271,8.109506230454372,-1.732215998968286
1.052,6.876706006220502,8.873889868500555,4.260216623758652,7.227717609818228,6.197819005255269,-5.558235910962139,8.700816296836592,-3.1038929701014695
1.056,8.514022744648173,11.208913275523173,7.461756236287329,7.280608441726599,9.666812237228669,-5.672161059472273,8.402511913635863,-5.073734409791086
1.06,8.915540356149222,12.325461129139512,10.309909477512747,5.241615846872264,12.172253144837669,-6.446290275846877,7.375539045984624,-7.279725799279731
1.064,7.883197680602052,11.645709288441822,12.144367188536762,1.3250599016564593,12.894210956529378,-7.64271470187532,6.053866500315962,-9.22590853581869
1.068,5.586010775610475,9.241551492691087,12.530910396814306,-3.7241422841839267,11.502102775425328,-8.902460910388982,4.863575443002901,-10.461599882934024
1.072,2.49563170337683,5.8293949979054105,11.382994501053417,-8.887561388334007,8.298926499320942,-9.912560664736247,4.0062153060580385,-10.721631498850911
1.076,-0.7390394005497001,2.489106996801411,9.010829742660462,-13.193894671231646,4.106642453535642,-10.51278534001176,3.4248732751652824,-10.010199631378782
1.08,-3.477220164184928,0.20103467007652398,6.007968919027917,-16.021892241140904,-0.07070460776435539,-10.730970396415614,2.9079352979438227,-8.59807187958404
1.084,-5.281230720116355,-0.5760793172776175,3.032357072049763,-17.264068983640755,-3.432558424437957,-10.740965030627194,2.2530450624208243,-6.921950818842106
1.088,-6.061596429432484,-0.093098852040157,0.5516942569242929,-17.304496554431807,-5.650500749091407,-10.775461209740115,1.3868754480358803,-5.412262576252033
1.092,-6.103952011337924,0.8217161587851933,-1.3361753387662247,-16.81590118142981,-6.910206081829074,-11.035004018385735,0.38267174974726004,-4.3209252380729595
1.096,-5.916412158579988,1.1759910446162394,-2.8799355097235093,-16.4294357921724,-7.723916939246919,-11.597466722471836,-0.607420938764335,-3.649319149112216
1.1,-5.972528562476327,0.2946763699862913,-4.493116233087221,-16.44118972692104,-8.635644982332451,-12.362856109704808,-1.471712411288081,-3.210010357045576
1.104,-6.4440684832941315,-1.8460382567302531,-6.469066244972964,-16.668088817294574,-9.944522635975318,-13.043990732935526,-2.223271053622284,-2.7922526364218356
1.108,-7.073860703335868,-4.598533494521007,-8.755316210129422,-16.539371026357458,-11.56480146892227,-13.231367847350157,-3.009818133630688,-2.333498853218771
1.112,-7.279969637930208,-6.941092938716793,-10.916548687479462,-15.40177176310408,-13.067002900448642,-12.541757620339922,-4.044610655038468,-1.9893042260928269
1.116,-6.438750138345313,-7.928669861647677,-12.276392398334337,-12.873925272891029,-13.852406117960982,-10.802077467214076,-5.474482552480367,-2.070247327763809
1.12,-4.22930176458749,-7.097179262105556,-12.209039128127642,-9.09873043859534,-13.398258663652996,-8.197216396798922,-7.26308465336615,-2.858734620877385
1.124,-0.8511732098593257,-4.630723091147729,-10.41896324454774,-4.746961414162797,-11.474937588475768,-5.279970191986649,-9.144971428760073,-4.416950485048801
1.1280000000000001,2.980016778582012,-1.2563223783540707,-7.106928301881453,-0.784921444092106,-8.27202981583514,-2.8149040286270974,-10.69734606930615,-6.500305657746594
1.1320000000000001,6.267828795645755,2.0659833324914416,-2.9488015927531706,1.887328913885085,-4.3858944290732325,-1.498959814382033,-11.510268459478539,-8.628202162602975
1.1360000000000001,8.123837231587913,4.532084663975638,1.14568927705659,2.7858775816030175,-0.6502354866106543,-1.665547798013904,-11.354912965741732,-10.287362451970239
1.1400000000000001,8.098068199587715,5.765526602835962,4.343504387449229,1.9836044568442048,2.1214930195610577,-3.142153839384264,-10.29365669551271,-11.151993992495136
1.1440000000000001,6.31714369687279,5.87105570214726,6.149973850997867,0.004028445026051486,3.3946989276714703,-5.326669401212712,-8.668620403698242,-11.21524662943284
1.1480000000000001,3.376135093282983,5.278127893735018,6.511218849840134,-2.4645432580723536,3.071892767044119,-7.453234292035631,-6.9729803470245315,-10.752582093384262
1.1520000000000001,0.054151986009856046,4.472982091535414,5.728058100469298,-4.888352773634779,1.4758727746443583,-8.920238414415508,-5.664480767403347,-10.1545544292876
1.156,-2.964096334050055,3.775915693879142,4.275044549610811,-7.056021462641638,-0.8264231444682082,-9.504947968120177,-4.990284193610023,-9.74893468259097
1.16,-5.261263511830066,3.2433428681574696,2.584294782269808,-9.048941664787435,-3.2887841482065596,-9.384205424949869,-4.917575547496654,-9.68945535883222
1.164,-6.689988897309604,2.735322425807226,0.923940964753001,-11.042091205229099,-5.58661712585581,-8.95297005761222,-5.187427506797121,-9.948222762051955
1.168,-7.289411091464444,2.0630094715038467,-0.6255592363268079,-13.08770188962535,-7.670858484567361,-8.573793944327008,-5.477000119504737,-10.383909600279367
1.172,-7.2197878836630025,1.1071526058794916,-2.138357224703668,-15.023501758408202,-9.674992509997992,-8.41465003290159,-5.589701157622585,-10.826960035863067
1.176,-6.727638807815083,-0.12731015285953617,-3.7407720388332564,-16.53045819918316,-11.72333104570589,-8.432793382948148,-5.551958190411369,-11.142074170067644
1.18,-6.148526385492914,-1.5519281000661067,-5.530867759109697,-17.313130851119695,-13.780055905766403,-8.4984542437669,-5.587446738786639,-11.250781122555054
1.184,-5.867947127052048,-3.059040435801762,-7.510210742225354,-17.26007561466804,-15.61415345695059,-8.533440351096033,-5.966290272747756,-11.129884467679403
1.188,-6.20966434082834,-4.556388757218883,-9.547627443835154,-16.492369438546575,-16.897466195260677,-8.555904500375618,-6.811884413033113,-10.798876735585509
1.192,-7.288503369539285,-5.948284353321014,-11.387656826058901,-15.279527324771607,-17.36811753406937,-8.614045998278016,-7.974059354150995,-10.302444491369897
1.196,-8.863126166508664,-7.052344792836266,-12.657937565189513,-13.847409265725219,-16.93693753253092,-8.66373800998008,-9.032711757627112,-9.69877510927381
1.2,-10.333485492002183,-7.550099620305446,-12.93919853519128,-12.234765123707348,-15.696912588617124,-8.522178810472724,-9.45361258880439,-9.04920419123573
1.204,-10.927698339546623,-7.0358756614446065,-11.880446878965813,-10.28313792153358,-13.833339392830567,-7.944476825334277,-8.827767499402398,-8.410972155260424
1.208,-10.031947073307947,-5.18840408574124,-9.357825164457608,-7.780946967402997,-11.515968175714988,-6.794640866763075,-7.0922864572703475,-7.8373126640890405
1.212,-7.513580468763848,-1.9974336503487393,-5.60951372234922,-4.687325451011475,-8.851485691458493,-5.188784582138396,-4.616735462947872,-7.38336078530574
1.216,-3.833127603173125,2.1071923363979295,-1.2215689091162858,-1.2729310188306044,-5.919100730917762,-3.4902254807466306,-2.080495753456489,-7.126541274892588
1.22,0.10218090245007261,6.295733993837985,3.0210634009781643,1.8905036801743336,-2.868433078041562,-2.161908320929797,-0.21596292837057263,-7.17277352615838
1.224,3.290785349311136,9.574812475545514,6.3925158330275735,4.111863351623015,0.012033628114295425,-1.546575100976952,0.48483307600054104,-7.62119831900236
1.228,5.012737451557314,11.128519697299907,8.464960747721307,4.849642008363844,2.3158047717734007,-1.7047657496586908,-0.046089650692010764,-8.472208602924184
1.232,5.048508925930491,10.607211797276705,9.209284447631944,3.9334646664729007,3.634890506933516,-2.4205997773942727,-1.4618734541709273,-9.52831667533792
1.236,3.6869524739176995,8.25855515660487,8.94572567898831,1.6542819189990041,3.7223276242875727,-3.359639852620603,-3.1687152593285646,-10.382297827934963
1.24,1.525910078637935,4.821679391984162,8.131529860886076,-1.340477105489299,2.5904432466459184,-4.279578388976006,-4.580203479744341,-10.52570609893337
1.244,-0.7852258276338944,1.2567858741385862,7.143189323067418,-4.2634309923205365,0.5055929312829903,-5.124820721654032,-5.308661289365773,-9.549667651628624
1.248,-2.7407166000084544,-1.5777823139055727,6.148877668419118,-6.431126750759631,-2.117438965621659,-5.950251758406921,-5.233805005670547,-7.3392892726214995
1.252,-4.0661393456498445,-3.183366520092477,5.108957738017125,-7.459356871633645,-4.8618361099997855,-6.746463586840036,-4.446158308138365,-4.141871725137207
1.256,-4.686169748955308,-3.5005428234039755,3.9169273390234594,-7.327406658319887,-7.40318591380219,-7.304600703484539,-3.1127990005988977,-0.4729496435757028
1.26,-4.676808699994581,-2.8519770734305894,2.51952063436147,-6.344885331348451,-9.544604384518607,-7.273600919123055,-1.3868190440634862,3.0939927488079775
1.264,-4.238126522591301,-1.7930699735543385,0.9571401549737857,-5.031835534432503,-11.19116509621017,-6.378096758433458,0.5994227474966465,6.147655515533188
1.268,-3.6877918308773587,-0.9446475791783087,-0.703773259371701,-3.9538644038248094,-12.310613385265242,-4.661611717311644,2.6665913738352174,8.556709693983066
1.272,-3.432622284016361,-0.8557321181278894,-2.4871308220626815,-3.5538717048266335,-12.92514573032713,-2.5789961451937415,4.518710144398938,10.425463197606405
1.276,-3.8285922588975154,-1.8633075877046394,-4.504626688311873,-3.9840545456772816,-13.109508582932904,-0.8165104217696353,5.779087497097862,11.917827693808249
1.28,-4.991036934659405,-3.988186386709458,-6.839574479350631,-5.022613045671278,-12.987213476725628,0.0651001680362242,6.117368329781129,13.071057859007851
1.284,-6.655662242943436,-6.8786743431269315,-9.346113024616898,-6.1050960066258995,-12.685039531668735,-0.036344024860227364,5.414377585477268,13.723584724014472
1.288,-8.202862296293006,-9.85289636067273,-11.523493041024267,-6.494290960782564,-12.250183059400115,-0.6706273753079586,3.854664495961515,13.616320269446987
1.292,-8.907164011966415,-12.091840707268602,-12.62606432631037,-5.576066856212492,-11.601624457663092,-1.0837621372556896,1.8610342505235167,12.591210597846839
1.296,-8.281657072066992,-12.9206005910346,-11.965157299545353,-3.1450709248747444,-10.555156829051157,-0.6654150928043236,-0.08979817889394326,10.73586053800318
1.3,-6.353812837167425,-12.090582217078918,-9.306939577943922,0.432638097085146,-8.952409922081642,0.6499982183977409,-1.6845812369929263,8.371999949353267
1.304,-3.702137549733834,-9.916782770797909,-5.109327560798192,4.295718613645477,-6.825135642349778,2.2933269168970583,-2.8849976261453776,5.88440222657664
1.308,-1.219868540670177,-7.1812639823656355,-0.4333940090473334,7.397389143332475,-4.489583495401348,3.365541033599584,-3.866799019102473,3.520621730255698
1.312,0.2829579827835005,-4.82170356817096,3.45933631571188,8.915184149747802,-2.486027402790569,3.1666565510568034,-4.8325926680136035,1.3101036241350812
1.316,0.45041607380153437,-3.5275438016333283,5.672428921391656,8.591607969887264,-1.3560443179312642,1.646290164642778,-5.800911533338876,-0.8499972258177877
1.32,-0.4973508714201671,-3.4608335504253773,6.059430043502289,6.809259560521241,-1.388585909707217,-0.509904922615533,-6.531809112317205,-2.9917250988764863
1.324,-1.9397737688364032,-4.241602979463096,5.227372762681625,4.370562085274287,-2.4707543773438374,-2.2082575654294487,-6.64067003350101,-4.906734375939777
1.328,-3.2324659704822807,-5.2252890478503105,4.119603136299702,2.0770175324287266,-4.154144981519494,-2.527136736352986,-5.855130587427084,-6.156572519492329
1.332,-4.072779796503255,-5.920927873279652,3.401281811346962,0.3178824331216674,-5.921720196273782,-1.2269628777630714,-4.2724321395253355,-6.293303508939061
1.336,-4.618607875167072,-6.289318775730862,3.0585861417048363,-1.0812965781187813,-7.483453325442497,1.1058617065027647,-2.4121082578785717,-5.188508610467579
1.34,-5.312049548220784,-6.744929812094597,2.425649460474233,-2.6787371437858383,-8.920051973873342,3.355694364867304,-1.0144707304225449,-3.240529164620966
1.344,-6.510660983351954,-7.826398023889851,0.6709590365753684,-4.98031737331894,-10.553685145945565,4.463786158676157,-0.6553936500786222,-1.2806545393523265
1.348,-8.163338575481703,-9.742981872368546,-2.553245736495228,-8.007069211297676,-12.610953549941769,3.98443459387272,-1.3924548508039152,-0.17091640224043658
1.352,-9.747905268892282,-12.097169299623602,-6.729813988058595,-11.146100151618157,-14.905732494634321,2.2973160366982484,-2.6662829791202967,-0.30077770853858965
1.356,-10.49790595536706,-13.97074659987993,-10.588774008906512,-13.380309941667292,-16.769646017140076,0.38563220013384125,-3.520524597662188,-1.3044452168869611
1.36,-9.816124155714533,-14.391254631467746,-12.724187501187771,-13.814065865259181,-17.338704420844806,-0.70242717176734,-3.0626016751411953,-2.2023340796658886
1.364,-7.628700302260313,-12.927112004506853,-12.359394969101231,-12.195136695204383,-16.058196357030283,-0.40394883643421053,-0.9275112556751992,-1.9379612737557181
1.368,-4.487113539171787,-10.064195418072813,-9.827018180239065,-9.138589649773166,-13.11592817078781,1.0947077114997228,2.489831716140543,-0.02257439084496582
1.372,-1.3631768741979613,-7.111436499994852,-6.479509048008367,-5.909508095455749,-9.518856013869481,2.9957173575057823,6.158729959015545,3.0909744184773444
1.3760000000000001,0.8015529209633314,-5.596048691291799,-4.001743437817822,-3.8137584285568664,-6.685419297678891,4.36786666500484,8.862860141594865,6.144762460788115
1.3800000000000001,1.5517944296243513,-6.446526810382238,-3.5287301580710846,-3.5284040110273054,-5.738577682540381,4.67932423579623,9.728370563403587,7.687512701211745
1.3840000000000001,1.1613724263224867,-9.39792824273718,-5.025253015588532,-4.716769055046825,-6.864755920079915,4.100143037199814,8.58580755346884,6.838125680456869
1.3880000000000001,0.5258465079832604,-12.988255976725668,-7.299027247972845,-6.169883467975524,-9.121674334428462,3.410088196505967,5.984774446433221,3.776565666861643
1.3920000000000001,0.7313111251723967,-15.214115166245392,-8.66469341532138,-6.434539318008319,-10.851590490537092,3.545260866974786,2.8639593677780795,-0.3250267524999799
1.3960000000000001,2.533196421772118,-14.511728144497283,-7.8358928873112745,-4.575947734026158,-10.490128619164352,5.0461421111285745,0.1062292573369632,-3.9074198296311806
1.4000000000000001,5.979402644589754,-10.568765022833759,-4.593419899954824,-0.6893878238079196,-7.363421698456477,7.689138124933379,-1.8020378473338496,-5.822087445332727
1.4040000000000001,10.356325255037518,-4.531548379034575,0.13953177126677474,4.119226108277871,-2.040444403123729,10.52516972536614,-2.8358169987732254,-5.866110542727256
1.408,14.458560536428195,1.4965575168316718,4.809506761141165,8.263927714586316,3.9431900865029093,12.320774535328383,-3.234375209389327,-4.750214061468796
1.412,17.053977057012162,5.40459801045472,7.999091777177455,10.425835850052863,8.821961535208175,12.181863819740101,-3.213591102130522,-3.5366916741750174
1.416,17.35991710306007,6.000841408468659,9.05377619869796,10.143862984574298,11.403905328468682,10.043082027339551,-2.763976964790345,-2.9186815891680453
1.42,15.299915729832719,3.4272625778194197,8.213398442969265,7.924800399538981,11.496699348459515,6.735145880571508,-1.6785150150881236,-2.790112480695825
1.424,11.466542780730379,-1.0929305843865222,6.280679079995025,4.871026599992547,9.785640225691168,3.594864571325161,0.2426028537502134,-2.3623565735942975
1.428,6.825496602487874,-5.987007357712173,4.068820372061964,2.05485575018065,7.291921451942471,1.8074394995201146,2.9455986060038413,-0.7404196309216786
1.432,2.319074812499821,-10.110144804871197,1.9664348514397716,-0.005534024039661745,4.767573541452293,1.822761863377309,6.008652405265821,2.416507977313813
1.436,-1.4142934689289177,-13.121447243235707,-0.10175756444368744,-1.4703632090695464,2.3956440522379125,3.165887327380915,8.771251989230223,6.559148720109079
1.44,-4.117004500461917,-15.330821612915315,-2.404915940342107,-2.903665367664871,-0.09215246872736316,4.723186181616256,10.619478062564667,10.447904546817881
1.444,-5.778564963567987,-17.18123769517115,-5.038491317231092,-4.783991367378803,-3.0004395304968057,5.362329415846034,11.273528586480097,12.773193154982437
1.448,-6.439582403811073,-18.753025608344615,-7.749299531711586,-7.130392841496359,-6.273434323580659,4.5434241189250315,10.891585637744356,12.827574117905897
1.452,-6.0963071946653145,-19.637364500069452,-10.0921463441191,-9.474751257941534,-9.401218832907034,2.5828189129115344,9.919210457950612,10.839223734878033
1.456,-4.735043965267323,-19.226814742705756,-11.742292467015432,-11.150788121231017,-11.666178978950484,0.44863987323333276,8.799670363674522,7.765349520374002
1.46,-2.4770109482778935,-17.225104229300086,-12.755647677522575,-11.70950869002445,-12.567163156996685,-0.7988748585703433,7.71185658361901,4.7035606731496955
1.464,0.3146421226665552,-13.985884097784947,-13.518790242385876,-11.1620487781056,-12.108010908217693,-0.5710518303822028,6.523374535852781,2.3062018384098337
1.468,3.05894093824827,-10.451969387378995,-14.419169872395287,-9.925728225458442,-10.770324874241851,0.9801066730378807,4.962466220405986,0.5394796072323516
1.472,5.126313248551924,-7.714035715741375,-15.478573891336055,-8.53709564548808,-9.198734739467909,3.1044484674785053,2.8795562572595372,-1.101655585496701
1.476,6.119611926131256,-6.411369354298586,-16.168764217009084,-7.298753437418782,-7.79409206874152,4.918137670912984,0.44882859459903557,-3.115009439366986
1.48,6.083726815480986,-6.360119127700273,-15.613790376321049,-6.126854321171777,-6.4973457966425485,5.876732429489493,-1.843436490788008,-5.577442198617064
1.484,5.52059517899761,-6.627998602186381,-13.074938539131836,-4.671409856582613,-4.890929930967104,6.004041254516778,-3.4134892420242977,-8.06381521090043
1.488,5.160565974724705,-6.04142044168384,-8.464579156750915,-2.6321009635812516,-2.560179820375197,5.766157013007614,-3.8772156053728395,-9.923341223136958
1.492,5.578496028590962,-3.8522056079982576,-2.584245466523498,-0.06666778585349675,0.5200619661773089,5.700663858044209,-3.2575201507679594,-10.69318441145515
1.496,6.883459659391519,-0.1729886471221107,3.121246414430061,2.5420749322875054,3.835236895689377,6.0660983064590255,-1.960897128277793,-10.381989333402089
1.5,8.63862238159254,4.0356154495293595,7.14984786290006,4.490132567072578,6.50554745183581,6.703814637290634,-0.5666947366535169,-9.440366121167244
1.504,10.065923691920034,7.416180312814504,8.594302161291125,5.2155098530984105,7.699611824960812,7.179677020872987,0.4550402050190314,-8.455882876960459
1.508,10.41099869228674,8.834956032715127,7.496221930377942,4.586026405286248,7.047294017031163,7.078997628872457,0.9247275460402307,-7.790495163082596
1.512,9.279010880465648,7.847208268034592,4.71263064732193,2.92789715760955,4.816547508897202,6.2486710065004445,0.9412916847722954,-7.397702392663632
1.516,6.804797487974611,4.836261828968418,1.4487174779842462,0.8229843554036052,1.7874810753182828,4.858523955634155,0.7472845489173778,-6.928231564699672
1.52,3.562935161380665,0.7852370692889963,-1.310128271981739,-1.2112268132477766,-1.1118194073242194,3.2523185830796137,0.5710486985117313,-6.020346577292003
1.524,0.30951134413771797,-3.148279619492314,-3.147292286024822,-2.9331482375855558,-3.190145135813509,1.7387465175343095,0.5494797051633213,-4.561823792777432
1.528,-2.3221467915755056,-6.0461971113873005,-4.224638087873245,-4.3742197881801985,-4.222138538756553,0.4683548920584144,0.7343921389092429,-2.752440879286951
1.532,-4.029678299287298,-7.4810938017762965,-5.032571440093307,-5.653414640837582,-4.445640109037413,-0.5279908021075244,1.1199137198018434,-0.9269132929657644
1.536,-4.840853771793263,-7.523167620886852,-6.017577130263817,-6.727656995637517,-4.349483264284572,-1.1808104537012696,1.6639487733264104,0.7000069192326919
1.54,-4.958436093601449,-6.577486109820711,-7.339092589176289,-7.285682383453604,-4.396789693157189,-1.264503861490084,2.2570806233816256,2.1657830870135513
1.544,-4.54862702155242,-5.141221864225372,-8.823221913449743,-6.849936829708895,-4.804870848236533,-0.4185471476484963,2.6979457621600886,3.6813026481249835
1.548,-3.6097125896785656,-3.5988309757485695,-10.087213390037505,-5.037642973869879,-5.463836154724049,1.666642542615591,2.7365250282364286,5.402074992754933
1.552,-2.00634137175075,-2.127014633617364,-10.745700244060572,-1.833134047968997,-6.011793210233009,5.00244998897324,2.1934126510695933,7.223697299676132
1.556,0.40999209983965557,-0.6790466276288498,-10.528138934956587,2.337072995436756,-5.993408795660798,9.169226009777049,1.1275562479295331,8.752774081474854
1.56,3.641189944243706,0.9248812260302657,-9.329316264702356,6.737822282315392,-5.060646222633295,13.372406293179665,-0.09747836049064063,9.467511815906619
1.564,7.4487716245403135,2.8551998670791363,-7.192392686618405,10.614923074070248,-3.1304457495807583,16.702877985244413,-0.9211626246833475,8.977174298590398
1.568,11.369539908713705,5.134023375087963,-4.285199785554141,13.473902405967237,-0.4368474687507842,18.478171832590306,-0.8505754646685091,7.220151312978487
1.572,14.813413614358069,7.546686129766385,-0.9107422963206773,15.178136179403737,2.5305867065035272,18.480248657346237,0.2508886609302863,4.483461632522449
1.576,17.23785382159531,9.698139701022228,2.5494982662294206,15.877289444893904,5.214404586940873,17.010734727213276,2.0689210697291855,1.2549450881597295
1.58,18.304248033177828,11.1869800865461,5.729854723374956,15.815880638248927,7.210967874969356,14.72203370983334,4.013368499352509,-1.976067635070649
1.584,17.96223220212414,11.818856628287904,8.410438783468635,15.164568532511112,8.43089115877774,12.329783002416661,5.580391256764415,-4.847160447592614
1.588,16.424732122229216,11.720155741972121,10.594108843257345,13.965151888087348,9.10300304397606,10.348414244595915,6.672776952927961,-7.122670905024279
1.592,14.027312948930557,11.242593084662076,12.426198239259975,12.175718703692837,9.590442182869083,8.939117376070499,7.642730187570123,-8.62810145878393
1.596,11.081706813587516,10.731188420998478,14.035046765068728,9.794725625415595,10.137303004010391,7.9365734290740875,9.034264667583102,-9.222115670781932
1.6,7.778638269863222,10.27267963518534,15.345588835326453,6.948123478456182,10.677978622044066,7.001717199945233,11.157922075299211,-8.845780761446804
1.604,4.197950302506797,9.602431507109031,16.02117406515572,3.8984038031703676,10.844674837164348,5.834796946666756,13.789125980048993,-7.6039747359409375
1.608,0.4145606469173799,8.256780189189158,15.608448763450724,0.9780887646884366,10.196966576264458,4.3536319731101685,16.211947850493743,-5.781737503017212
1.612,-3.3822469902461307,5.894067413984885,13.80310490195916,-1.5162466795354703,8.536152043001493,2.7517794856685214,17.59232565529237,-3.7369944684141956
1.616,-6.811479059894737,2.6103933967096964,10.720094247049929,-3.382538715859482,6.116087967047861,1.4189628933600034,17.479184049178002,-1.7350100305338856
1.62,-9.353547558523132,-0.9859610524035816,6.9470813662301225,-4.527790167103376,3.5837352477719833,0.7460543906236126,16.0947360384489,0.15920862449274864
1.624,-10.514046817947019,-4.006502776828711,3.3377189928814914,-4.932725146025405,1.6744474491752044,0.9227824629342649,14.223892502668605,2.0399451577886794
1.6280000000000001,-10.047481542410424,-5.723212992180379,0.614349730876711,-4.614983916741039,0.8224556365421449,1.8253479954073555,12.741968324080517,3.977250402169375
1.6320000000000001,-8.132658468608497,-5.960034449399245,-1.0056379917659797,-3.624861964784941,0.92599853216052,3.056754439512588,12.085015198583278,5.836813106107002
1.6360000000000001,-5.347408165718662,-5.157116142312589,-1.874190922559137,-2.035196712869947,1.4471853534978436,4.147459368694399,12.033352245654896,7.254956063956342
1.6400000000000001,-2.4548962321896397,-4.069506474806985,-2.6420317850552237,0.05649856900163286,1.7852340708814154,4.792209076455038,11.934459618083565,7.828797903790473
1.6440000000000001,-0.08877351564933633,-3.275849294177533,-3.787317145262932,2.5245692610842525,1.6916978957669926,4.989615484675596,11.216122538928175,7.413018515875592
1.6480000000000001,1.4864355260297089,-2.8335467292599787,-5.257407004903143,5.191006246512188,1.4391001879303076,4.9786290119664045,9.808423427275557,6.2946714633799274
1.6520000000000001,2.3800392658749843,-2.344149458769607,-6.494226903330855,7.756877611343953,1.5859072755501984,4.971011898582219,8.136165248997713,5.057085034201009
1.6560000000000001,2.886800009324361,-1.3729546080285218,-6.797180656432829,9.760467290527231,2.487755619087693,4.857709399406303,6.69554077900284,4.137426449200575
1.6600000000000001,3.1812674588918526,0.018238124032905034,-5.865500810028607,10.586966623852277,3.85085171432911,4.077279621142225,5.477020164928035,3.346047134298715
1.6640000000000001,3.0942387927889285,1.0295872888327722,-4.145356843777336,9.599624049626073,4.66933134908686,1.7904110600211425,3.692474267718353,1.7162686341198423
1.668,2.157453288014949,0.4330439821060281,-2.695163554733881,6.3987005173275975,3.682309099338454,-2.6688310683930467,0.11916075685076066,-2.1026452333990164
1.672,-0.11434686810844141,-2.699140890108538,-2.6345482766664645,1.0904314766266907,0.137531688233139,-9.28292937434162,-6.070327133977116,-9.000160603080076
1.676,-3.8192500572040444,-8.22214269055985,-4.416293487036455,-5.5383753923742916,-5.534252356697834,-17.05867043692706,-14.435688696314173,-18.53729503048089
1.68,-8.392965189481401,-14.614904924844268,-7.373613485326132,-12.106672150501254,-11.586056821168313,-24.200222439976642,-22.96228379537206,-28.633773902873145
1.684,-12.657889631542275,-19.424841557616674,-9.851698422804475,-17.018309346161914,-15.533546711494637,-28.730505317316783,-28.638981494079417,-36.12899064032899
1.688,-15.215289283955826,-20.31669177493859,-9.912771662624436,-19.0005024656366,-15.219232877043396,-29.287248601136525,-28.739648930442854,-38.06112442420272
1.692,-15.046789380017799,-16.239484055558933,-6.325467731763638,-17.58972419915517,-9.854347347942166,-25.71616548851307,-22.20166103188967,-33.05496905557084
1.696,-12.012911421645185,-8.084087737297523,0.692864186146835,-13.319202027096253,-0.5005180144435144,-19.139296767465567,-10.34729744300239,-22.100617128979138
1.7,-6.979104104491853,1.5635001834107243,9.377463690439981,-7.507933099062939,10.270564634460243,-11.469761934127746,3.489075550880443,-8.278902388310598
1.704,-1.4733297446346114,9.50262560633928,17.05893843431113,-1.724281145268833,19.406732224389998,-4.604243726165805,15.30373183570373,4.47811159437515
1.708,2.984105243407612,13.315192914074032,21.27158072243583,2.8297844055632595,24.60586723999768,0.30592576407616434,22.08202248210182,12.986141073261024
1.712,5.511984684928393,12.361052052157902,20.75983226621247,5.694605684395356,25.154955950230942,3.150598429647289,22.922691502564703,15.99786397353273
1.716,6.170381642436951,7.915779440255392,15.955872734815784,7.156998044541979,22.034469225636713,4.638134344169885,19.13317233105954,14.43320131577093
1.72,5.79606980387689,2.4200441045177286,8.714053009021882,7.907620158508507,17.287903912025286,5.712348280125298,13.323524894374714,10.605839439602278
1.724,5.474590277282914,-1.7343934122418432,1.4810967154189711,8.566406510066372,13.027997209484965,6.968212603140273,8.048955879932691,6.931223948500701
1.728,5.946520612093991,-3.2374447731899636,-3.661429643028896,9.353810083868666,10.584303769030157,8.378535205969456,4.736294736929267,4.815284855561913
1.732,7.233572066303168,-2.257827371552594,-5.697256119563463,10.03992661778102,10.140639098251995,9.420964833701873,3.3570908839974436,4.253644518823421
1.736,8.693055011938668,-0.06500797703120043,-4.820014492357586,10.19125168141727,10.967384721152484,9.503611106907556,2.9044876552834467,4.241643154316989
1.74,9.437627654921926,1.822540285177638,-2.076161454024259,9.518102708240804,12.01001238974277,8.379464434588954,2.2567501131234167,3.619695817658794
1.744,8.872570157162045,2.4623211521757185,1.2409964556863997,8.09886047398686,12.477391803015053,6.305162401520647,0.8804669324817951,1.8136369219864719
1.748,7.0627211682894995,1.878708988395374,4.144293256154924,6.369485260502188,12.148268237804587,3.8900752696117706,-0.9756521871895529,-0.9194598287904228
1.752,4.706279926092975,0.8617145352163789,6.192193682712968,4.885961577821945,11.299020524938896,1.760066794244267,-2.6175028084671794,-3.758591691903348
1.756,2.7644268811200163,0.3877049854481811,7.422956929291104,4.029158804033614,10.402064930311099,0.268236460049593,-3.453214357057732,-5.840293116527391
1.76,1.9601972544260207,1.0205515293846474,8.103733949279558,3.817299298107173,9.805011751570419,-0.5980014982651483,-3.369263492020764,-6.686268044377357
1.764,2.4214079150715406,2.6250730212250346,8.495502175173897,3.928662575234739,9.572281882665266,-1.0807446112921753,-2.7229757027125743,-6.317805906548529
1.768,3.6627638658583237,4.506407488379409,8.760360154454247,3.9109612724041654,9.53918409832113,-1.4130734087921155,-2.0141028252401156,-5.07569870023508
1.772,4.865591632508767,5.810978487382272,8.957242280921491,3.4136205205240913,9.475276824457978,-1.6567508078460378,-1.5334643155056256,-3.328986839736899
1.776,5.295248454514876,5.948008282288356,9.083315373594814,2.3288660938960675,9.226607876389608,-1.7088920137175592,-1.229157310730443,-1.2967457603826915
1.78,4.620828706919383,4.801121249238349,9.069136692005486,0.7822489041327572,8.73823352067484,-1.4633911213804822,-0.8602477924068808,0.9250792133989307
1.784,2.9962955395549216,2.6689067037050336,8.731600058052209,-0.9806608267244883,7.978592075214692,-0.9809531951796089,-0.28844174372534326,3.2221559370009345
1.788,0.899308613870744,0.039110723408157355,7.763521337077691,-2.7148708813183475,6.858906994417339,-0.53494605088963,0.33436438764874765,5.358196317258262
1.792,-1.1779521834478146,-2.667870183553532,5.797679437691841,-4.253972288242949,5.237338087465105,-0.4934227215962892,0.6200287172814569,7.032768728327937
1.796,-2.9716059002730617,-5.219375396091891,2.607475238801271,-5.502014483901803,3.0520301538454078,-1.0966305918827857,0.22639872326908517,8.064224013061903
1.8,-4.505637892638333,-7.527213767840294,-1.661272483985158,-6.395403989536135,0.4893661164569494,-2.297871737913738,-0.8518216160646261,8.536704802785607
1.804,-5.9557109419884,-9.504151580847065,-6.356766607330428,-6.868331479879089,-1.9327061579042493,-3.75865240672465,-2.190508333140315,8.786191227316522
1.808,-7.41854115460319,-10.939274008017492,-10.402589068344241,-6.844522792791395,-3.4582402164614905,-5.012474415054385,-3.129695961410107,9.191206440016686
1.812,-8.759544728209221,-11.508269858431959,-12.652572009694268,-6.265066034867232,-3.3682201230758437,-5.700897382266703,-3.170285189693459,9.917462777259061
1.816,-9.619189981582167,-10.902220015419516,-12.344991077832674,-5.096623171255487,-1.3036486661885647,-5.718249529290915,-2.3018419770378387,10.798696200839913
1.82,-9.5770338731445,-9.011882292888913,-9.464004987268709,-3.334624122430796,2.5067266207606735,-5.204970629140007,-1.0627561696801422,11.426208011942435
1.824,-8.38233550739642,-6.071374787368768,-4.815414725976552,-1.0196066737162255,7.245579365882804,-4.413888844570465,-0.2819316010536568,11.394045433504289
1.828,-6.107058521452018,-2.66398705120082,0.264854522263704,1.7261529030974998,11.759072033112716,-3.5494339094293537,-0.6351332610247482,10.536479129674262
1.832,-3.1803927410860524,0.3947876689808254,4.3922595160438505,4.6089853712710465,14.927955235170884,-2.7113729750453786,-2.3066539565279527,9.008850275789882
1.836,-0.26953160467655835,2.2826977519262073,6.61898479107731,7.108186960648709,16.016531147892238,-1.9569537810457405,-4.922666899883552,7.161437336939343
1.84,1.9384675786218395,2.428600829700372,6.699596984140953,8.533512899090056,14.845907248081858,-1.4206243723365333,-7.7751340137829175,5.298560480243395
1.844,2.9778390929395755,0.7184886082413868,5.052289458829364,8.24226481542064,11.75516710233569,-1.3645956599320925,-10.181611973754116,3.5064097501654032
1.848,2.7759616089952033,-2.4202447391335227,2.4895430929373106,5.95672675449805,7.410605805921477,-2.0851532610104186,-11.761973927104009,1.6585514258658804
1.852,1.6617962963341597,-6.127745089492237,-0.1594625214675034,1.996895934648819,2.5663014206329535,-3.718314231819022,-12.50926738056478,-0.39588771712442394
1.856,0.22440917655285375,-9.374677780846469,-2.316924202577866,-2.713698431355624,-2.1077558124170537,-6.043753656644185,-12.639035671340935,-2.600797358485579
1.86,-0.9343505849028588,-11.310212593515644,-3.7486849094866557,-6.9516902967807255,-6.105989840859365,-8.465363498371516,-12.371854402359531,-4.613273299827597
1.864,-1.4528394818471497,-11.570210218460488,-4.499071897540489,-9.69029549580955,-9.098887451295923,-10.220097645202259,-11.80642269166674,-5.949984439489526
1.868,-1.356661538698063,-10.404503001976991,-4.745096392243795,-10.537995534585207,-10.92853728713908,-10.729477911652793,-10.946608204363656,-6.2898189814250145
1.872,-1.0690085594906122,-8.581327468152267,-4.714647799000886,-9.895877615184872,-11.629767226194417,-9.914735588370604,-9.858550729848503,-5.717894391101254
1.8760000000000001,-1.2336862924375964,-7.074899784396621,-4.661647586840445,-8.699290478617513,-11.436918303964376,-8.255353783179089,-8.802063637701394,-4.732630501747735
1.8800000000000001,-2.4238393271293717,-6.663177535407158,-4.867175342404153,-7.883965578338575,-10.746451447102118,-6.555010060950735,-8.212101360886663,-3.9967058187557996
1.8840000000000001,-4.86914482962311,-7.618952160250046,-5.610628339874893,-7.8772829100744275,-10.017606703389902,-5.5346931760796,-8.532257923619,-3.9805448033903303
1.8880000000000001,-8.28726579827753,-9.603563410726565,-7.052628672364335,-8.378895364506207,-9.603250331388153,-5.461325292602851,-9.96280166703582,-4.705817175974516
1.8920000000000001,-11.932832584495372,-11.827852310058915,-9.115061938433428,-8.584143286544531,-9.596946830311936,-6.038378491050025,-12.301515605449822,-5.737853890715087
1.8960000000000001,-14.839933713356913,-13.384030952947796,-11.418437354558591,-7.706682633579476,-9.777508260324794,-6.6072872730583185,-14.980223708326776,-6.438005859909026
1.9000000000000001,-16.161239746244974,-13.5964605945519,-13.364734785380278,-5.495379996325028,-9.706038583061854,-6.55589103445709,-17.286632569142057,-6.3290570137678515
1.9040000000000001,-15.464344593027363,-12.243989692205105,-14.356502121508129,-2.431380783811619,-8.94254648747301,-5.690399358267314,-18.666180207392244,-5.362760315095329
1.9080000000000001,-12.852416768317653,-9.56699125212208,-14.027579730304751,0.531593993219758,-7.269627113293609,-4.341923494373987,-18.9346366433374,-3.9377027409764196
1.9120000000000001,-8.907166909847547,-6.125315346877869,-12.420554921109215,2.5000281837965304,-4.835626014602894,-3.161141858307019,-18.322309999992285,-2.6687828918711602
1.9160000000000001,-4.48669154291656,-2.5976348478347973,-9.991282279344887,3.1397543163584487,-2.1326690292698913,-2.7222742023132014,-17.342281704935886,-2.0694078583946975
1.92,-0.4731863870874804,0.38683973122260795,-7.444214968429151,2.8337971134169493,0.17087591380095546,-3.182441794897386,-16.55884139491718,-2.3333235774116474
1.924,2.441344603955713,2.347129450632565,-5.473134987442791,2.406618682525732,1.4652350335718438,-4.199590311396605,-16.36802069282203,-3.319223810493895
1.928,3.9055708331889036,3.024898220162413,-4.493138420398282,2.616058883269943,1.4175203722697916,-5.136892306988557,-16.85000575183676,-4.70521625717538
1.932,3.953742290514583,2.4418550337018132,-4.518242304014166,3.7089958988162834,0.07292455671176867,-5.43205343752561,-17.745731590954165,-6.16821748768416
1.936,2.9611512702535947,0.943335362056132,-5.1898510853470725,5.311771352817232,-2.1751433997524146,-4.897441148312282,-18.530683070694067,-7.467771906534836
1.94,1.5057594576937845,-0.8365467561920923,-5.944498434691923,6.682598693503678,-4.7333912210679046,-3.794700109574478,-18.562739672885073,-8.42019980355144
1.944,0.17064738305180072,-2.1440318233503604,-6.241010282865318,7.144341214891028,-7.011781608439378,-2.6551929998731794,-17.27953182993133,-8.836496237571737
1.948,-0.6522396538202884,-2.389106546201674,-5.7385729391253335,6.429555775669542,-8.599435372945663,-1.968001069737511,-14.393193248558418,-8.524310287672051
1.952,-0.927241511887587,-1.462204634335194,-4.415259657429488,4.710263617662349,-9.374920130451756,-1.9382439110468113,-10.054743825125115,-7.380103500123369
1.956,-1.0008316737316818,0.10945402939205451,-2.567186072838922,2.362079546716359,-9.507413540184643,-2.4221005731787955,-4.898823050274586,-5.517653291339229
1.96,-1.4459867953546564,1.313354744802382,-0.6995738075220288,-0.3349654758030738,-9.36043628923926,-3.061290631108932,0.09066477411670348,-3.320420906739855
1.964,-2.7682617791547273,1.1015020722343252,0.6543859286675797,-3.322533408392246,-9.33176337039913,-3.5088987866201933,3.8832974760098296,-1.3284427641119692
1.968,-5.075051181370327,-1.035790158753116,1.1428247957383064,-6.609226839788789,-9.67620279163657,-3.591531954672064,5.7891066460224465,0.007363651272498828
1.972,-7.905777046151343,-4.6898199110478345,0.7228273627333692,-9.982890131381737,-10.39221922643901,-3.3332856969755085,5.739782441265561,0.582663614150988
1.976,-10.32535727134018,-8.574459132256834,-0.31283684349091345,-12.813230086647764,-11.204879333252393,-2.8467353958667445,4.329699728808009,0.7437159460660041
1.98,-11.281867923576101,-11.03318170698094,-1.4415099173602357,-14.159130490777898,-11.666695457362039,-2.2038939463918723,2.5673251644138873,1.1322119076230592
1.984,-10.083311804594814,-10.80074200034187,-2.1159345282940194,-13.187070348629277,-11.34030584501761,-1.3866393037469606,1.436649743856833,2.330587800172907
1.988,-6.745418410293496,-7.624862939112518,-1.9649661117327923,-9.663697146795585,-9.982743407524595,-0.339027049143624,1.4807279142087282,4.489763519608459
1.992,-2.062496663893853,-2.446642652110313,-0.9495239329153264,-4.244857290753771,-7.670580325977426,0.9238811036766492,2.5871757530785544,7.1658379594437065
1.996,2.6585589843475645,2.9785122317098285,0.6208273451638888,1.6714619429826598,-4.8044073239175304,2.249370797071606,4.092817169611408,9.472558500151536
2.0,6.099318973820573,6.854625524536459,2.211925027144389,6.493401506469127,-1.988551872386779,3.380728133224693,5.14438894498835,10.48007804691133
2.004,7.451034700171476,8.135806109889018,3.2829852354443574,9.118942758249432,0.17488757082492157,4.089608743586723,5.1354585150756975,9.67160337592577
2.008,6.730709277713231,6.95141230304489,3.516303329805396,9.401439243566074,1.2894230357333072,4.3175032385534,3.9980100519096595,7.21064921476318
2.012,4.726262516876204,4.45211221190948,2.9187385962432018,8.132482909611099,1.2745434862918046,4.221228184818756,2.192368868680205,3.89313201830646
2.016,2.6257397015444894,2.195601335239189,1.7959948619027273,6.582419611857404,0.36586932335012534,4.10229237137446,0.4405878151765137,0.8134223003698935
2.02,1.5027918589314595,1.3937672145711986,0.6037277953460034,5.849965725666607,-0.9990370047053148,4.247326525080098,-0.6427892149604304,-1.0898729924192594
2.024,1.8848938982782784,2.3983094998138768,-0.2481141738489896,6.36966683855826,-2.3440974730460766,4.7771173531127715,-0.809229936427073,-1.3841667539800255
2.028,3.5862662670256213,4.652692183766703,-0.5400210524680915,7.810308930244901,-3.3055615973917156,5.585859459416497,-0.1999808314603797,-0.26282897388136917
2.032,5.820258129518379,7.054242526528469,-0.3261602607367422,9.338002601994958,-3.7360500895542827,6.3888829307834385,0.8266657967969877,1.6010465443773683
2.036,7.544090942857565,8.513464173673128,0.09986163322309949,10.074377817979894,-3.7175529540927528,6.868231340487,1.9530299968287181,3.3695198905788857
2.04,7.8770051588360275,8.425859547063283,0.32761923877978916,9.484338101708545,-3.4911294713697316,6.818255011830843,3.081251354147298,4.3651573023603305
2.044,6.435280513429461,6.857496551845088,-0.003370183280821948,7.523673241189499,-3.3303182670188107,6.218099843204982,4.333213168607472,4.2890720279947345
2.048,3.481971507937942,4.4311082667964,-1.0287260703476022,4.555764735380762,-3.4011607936049586,5.217504091952833,5.905008301056569,3.2700299190018995
2.052,-0.18499372429960204,2.001501615152847,-2.5824414611824977,1.1367990261924206,-3.671336910776972,4.053664230095819,7.870389319909918,1.7731979378995675
2.056,-3.523894358301277,0.31812259968955914,-4.227849829202569,-2.1574664837958153,-3.893579836675599,2.965398361806365,10.068237011550991,0.41621004914350124
2.06,-5.61880256109248,-0.19606280505104223,-5.4075629983799445,-4.810915599261989,-3.6872317826569088,2.1261285115178907,12.138548181401347,-0.24924525670758158
2.064,-5.99150931825784,0.49760137025054973,-5.663256527989688,-6.380354060271657,-2.684497430290321,1.614355467736459,13.687156594597582,0.07899567623098847
2.068,-4.71610936285947,2.144784104665632,-4.8139739825451215,-6.506151221436539,-0.6821417387436668,1.430346640479911,14.482139983192155,1.3495657309854323
2.072,-2.3441798087430925,4.331650107871383,-3.0557668827100315,-5.014486177618437,2.240392150069056,1.5203770408652417,14.544445680407534,3.1766708332902454
2.076,0.33025799489473684,6.61146844348491,-0.9022690897036227,-2.0629589803229464,5.696555487455953,1.8015891653908511,14.097345058847623,4.970987991828679
2.08,2.582086025876606,8.609466239610583,1.01608321194999,1.785922866297824,9.078232656333512,2.179811049273667,13.415578935089343,6.141346289158264
2.084,4.000657338685414,10.091230142675613,2.214346099647628,5.654457237571478,11.732539248247576,2.5644508218019837,12.672878926046451,6.302360378994308
2.088,4.595746574061877,11.005614236115434,2.580698475196641,8.628269848089985,13.179685011322817,2.889780791163048,11.896294933538229,5.398393000777105
2.092,4.716425820130098,11.461521660723292,2.4064084059436937,10.096306976287906,13.268773542149574,3.1131366605422954,11.018615017032971,3.696412037389564
2.096,4.841222798254421,11.650129411722673,2.226282086691299,9.996831719772672,12.21787893250439,3.2080415922082466,9.990557717266256,1.653938871981154
2.1,5.3370424535592065,11.741135864494254,2.537931811943963,8.822945931869299,10.513350285648812,3.157041201443917,8.874300640107322,-0.2713398258779307
2.104,6.2965068327469,11.79595833467988,3.5328120726649104,7.374883867182234,8.702350835500056,2.95815718246331,7.846089416478208,-1.777759515210164
2.108,7.5191289323272485,11.75514776118439,4.996021256392396,6.384346634906251,7.162636046811258,2.6429345639185158,7.119704745438867,-2.786137497870641
2.112,8.600962306845759,11.491599387779615,6.398074737000115,6.177216891539501,5.949337700499655,2.293481850828357,6.829063035063882,-3.3789120258988987
2.116,9.094241851211791,10.904418740151414,7.152463874225759,6.548002194343098,4.805259876246737,2.0434248381070574,6.962016123593912,-3.6656201308451273
2.12,8.66015783434932,9.991137918352251,6.895105011210944,6.89111583452177,3.329365869699359,2.035446914755994,7.378388293948774,-3.6698703370889234
2.124,7.172190196708925,8.861338558535408,5.648280477778371,6.522471492058685,1.2458520901734573,2.3524701188334802,7.897625560001416,-3.2856357092691724
2.128,4.766292392498599,7.69172113770037,3.808506185499482,5.037940662428355,-1.3578518341678318,2.9534071208836394,8.397715600322044,-2.3392762154894626
2.132,1.8095747443651362,6.642928797026798,1.9404493979484414,2.51990533307071,-3.9719875877769937,3.6533012683376,8.839534246063522,-0.7106441030164206
2.136,-1.179510682116529,5.819812108660699,0.5218326443600745,-0.4645029021485243,-5.819574393869061,4.201911890768315,9.218259068064071,1.5652501076747285
2.14,-3.636484418957025,5.310928218677873,-0.22534427253231115,-3.0569443272484023,-6.173744068891665,4.421431129092525,9.501498728172464,4.270413863043359
2.144,-5.083836431053896,5.262309639251043,-0.355751329679606,-4.412527426557517,-4.701288982550977,4.332936400854578,9.611017493886493,7.066042996319538
2.148,-5.240445531843534,5.932323105780597,-0.052407886533273995,-3.971982441554701,-1.6425388843426845,4.19727354659517,9.501768681352587,9.612694677176705
2.152,-4.102045470066969,7.628933252844263,0.5475178367491935,-1.6439115972805212,2.2578017418290983,4.409182494839115,9.267863498471343,11.697635889229787
2.156,-1.9669441969440413,10.517608599020377,1.4484670728079436,2.151703426837912,6.048450027570198,5.288683874256094,9.17621875648183,13.295236616418151
2.16,0.6230899739257438,14.390557090390985,2.7430739289593475,6.580287574713111,8.943819597883703,6.862794909341574,9.556960034631174,14.521038732842271
2.164,3.011301074034236,18.53834139256469,4.440842764017361,10.59671612961074,10.580381926526115,8.762707933618913,10.574107168635692,15.502478655928826
2.168,4.6194154458781895,21.871704676239915,6.3302234644938835,13.235081322010274,11.051270594654397,10.3267280198952,12.01959571359248,16.227244184933625
2.172,5.108840162674596,23.27927456719999,7.950840870856382,13.888434102492056,10.713686653505192,10.870105815760326,13.267235279248098,16.46568919448555
2.176,4.487209678073441,22.116299798647788,8.766941247648901,12.528725789923556,9.924418206084738,10.02065430122866,13.50468444279204,15.834790840381174
2.18,3.119233963588158,18.58592823324352,8.457596095860026,9.777044904580407,8.87115307548288,7.943922579600439,12.17107747447244,14.005881739510642
2.184,1.611315934185086,13.786634637608927,7.1556161170406085,6.755329193939588,7.592671987279118,5.325210253403839,9.36134592461758,10.970676505008669
2.188,0.6197923387320543,9.35503514722302,5.494640365545138,4.732383026314437,6.144833536330225,3.1054467428430144,5.949579564872693,7.2070280947821175
2.192,0.6179089230400905,6.802430471696766,4.359962599219443,4.647584230797747,4.755460265945203,2.066781056059426,3.2827442702641747,3.640856641921573
2.196,1.7130508077707418,6.857193152371565,4.468855815878442,6.716447653502428,3.8365789754798243,2.485890663059763,2.5659036159395328,1.3694503562078353
2.2,3.589261526441078,9.137313869107174,5.976863431217453,10.29210851873745,3.804374709538024,4.013063832653415,4.244211910772037,1.2315397150869103
2.204,5.603315059553097,12.324713371186363,8.324099961365391,14.075306770448606,4.799938985313474,5.839530820719119,7.721394683238486,3.420427484303218
2.208,7.0240622533769965,14.787468239981422,10.460264142666347,16.636133858765334,6.505073142060496,7.09293875216531,11.609930907642593,7.337285821685782
2.212,7.307731879785706,15.338184934321134,11.323918444573337,17.010142074883788,8.194966026230645,7.2510254631229145,14.394223727616463,11.800150028831695
2.216,6.309166229845118,13.751339783036428,10.362889389632073,15.113029175312818,9.043125080634354,6.381595533109248,15.161702341255477,15.531690679850499
2.22,4.334894265143021,10.785622226509417,7.816628100607431,11.757388899501166,8.516708759058929,5.078627946288634,13.997730269919657,17.691515065881504
2.224,1.9992861588712003,7.704335713903674,4.593551649499659,8.24697618394623,6.638651684406568,4.124411985512779,11.829274544767031,18.184912238387824
2.228,-0.033558669251760875,5.5839133781969394,1.8253820248373813,5.753864452189418,3.964613777421846,4.061071740660282,9.833316072487378,17.582137601697923
2.232,-1.3310922165330794,4.774683234297754,0.29808694678035863,4.762571338191378,1.2691433252026627,4.879403211049521,8.744634307610795,16.706344227772547
2.236,-1.8429158265668093,4.818154934037693,0.09504769853015205,4.8933071592193755,-0.8494135339046807,6.011596640831613,8.491576396747973,16.125106054950265
2.24,-1.8511439701502468,4.853205246962943,0.6414151856438366,5.192575368198845,-2.2121848871584007,6.629669631192428,8.367420806664427,15.846539464285115
2.244,-1.7651129565729207,4.243397124257626,1.108246328453788,4.717998163596803,-3.021387920619759,6.096404409072875,7.600633065252623,15.396526755682771
2.248,-1.8436543094790068,3.0545086269552826,0.9628495107276649,3.1171812905654406,-3.5789757315401403,4.341783605192859,5.9616115119066535,14.21226915186594
2.2520000000000002,-2.0260212283307624,2.067911858282855,0.31427279573097167,0.8603386250057383,-3.9734322179971286,1.941924227740742,3.9979387842105325,12.110159897930998
2.2560000000000002,-1.953805105590618,2.3178873341234407,-0.12625628574733128,-0.9890165992425182,-3.9442991386835047,-0.13877065108476927,2.745071135481112,9.51921121445514
2.2600000000000002,-1.1786671045385333,4.414725269418113,0.528784746551537,-1.3489887347002423,-3.036965388854469,-1.022203666987707,3.07422211820915,7.306504047341946
2.2640000000000002,0.5534178868645085,8.062810514263276,2.77276749064913,0.28031306696630054,-0.9524422111994681,-0.3534203734924404,5.080512243674548,6.2871318531854286
2.2680000000000002,3.116185824712261,12.09479665328547,6.342336806524713,3.541332766209848,2.148769740702164,1.5353873100998499,7.913538498944035,6.705557755936752
2.2720000000000002,5.995978358729758,15.008960101817706,10.243002821906543,7.39448630439523,5.581100105736823,3.8110348976583737,10.152356527997881,8.0208009212256
2.2760000000000002,8.478114056814263,15.722658803044851,13.17942876431789,10.637540831503202,8.373394850749264,5.5820467944209895,10.5295815613365,9.150136870230199
2.2800000000000002,9.936264949779968,14.117679091230684,14.151249068395941,12.455446836994383,9.684097101997509,6.33551940610937,8.591744878164718,9.0429706010691
2.2840000000000003,10.069788110301062,11.062574847046506,12.89081931478853,12.692488503584798,9.155715523720005,6.141525765742017,4.919661612502125,7.264035014783019
2.2880000000000003,8.991462009267508,7.917729887055657,9.940160466864029,11.732066154029383,7.020422960304984,5.532522278135275,0.8030637431789955,4.241019317353334
2.2920000000000003,7.1128656397910675,5.792816248064696,6.313854531597315,10.08893663609615,3.91356623190768,5.131958884551636,-2.4377177813266258,1.0407955219259861
2.2960000000000003,4.912793223885586,4.989165644471427,2.975843616206305,8.019678987853467,0.5450043943460514,5.276575568773524,-4.081930665893367,-1.1958597427963582
2.3000000000000003,2.7192450106227284,4.939475961423085,0.41898142850152453,5.4081036333215025,-2.5700572123990355,5.850107175287462,-4.248004845924527,-1.8251246006227007
2.3040000000000003,0.6079590835723536,4.6406701979879585,-1.4505092888845752,1.991056837932888,-5.186652770376099,6.412351503844889,-3.6616002204207803,-0.9585362392573984
2.308,-1.5120955276694588,3.3187257612697465,-3.066861875651739,-2.2246520574348665,-7.203804491089613,6.5411612584805425,-3.122670585100707,0.7071009653517422
2.312,-3.718655314032304,0.9109333642978186,-4.808898049711161,-6.682530159161274,-8.494159774513605,6.140113077367118,-3.031908508084598,2.3557681972430373
2.316,-5.902582940569744,-1.898208956930091,-6.6768315560262295,-10.340431564595406,-8.83279967749246,5.527018757103633,-3.234713862634351,3.504353366621274
2.32,-7.7078770514051484,-4.087544730501861,-8.235664792336252,-12.090921954581574,-7.9947080142301274,5.238580522661664,-3.230278002042951,4.173157602754372
2.324,-8.636778963985165,-4.8898798064780635,-8.846567365608792,-11.319558209551133,-5.949025885547144,5.676251369539159,-2.5715419529104793,4.7114659076664225
2.328,-8.263529542185466,-4.200031367777285,-8.017834549788347,-8.26446202888286,-2.9952933423827517,6.816546027998129,-1.1755052445890328,5.411910940888674
2.332,-6.463842208283495,-2.5908114465469794,-5.708044452601712,-3.9719447571138176,0.2684314849696534,8.162393651546722,0.6171831899303015,6.192036614864037
2.336,-3.517047070473609,-0.9402108986953408,-2.379507618054845,0.16225396811148585,3.1749811179414564,8.990256929047064,2.255558829639881,6.556202357211646
2.34,-0.02887251835011284,0.07441908799245311,1.1932177146562708,3.009517312626542,5.266018793031719,8.733559761006404,3.281142589601018,5.845281021025016
2.344,3.2917127296022386,0.31305814869671167,4.237767309216451,4.160484254642483,6.456498043255124,7.295083155433531,3.5179006749360724,3.621305464674606
2.348,5.918371715281069,0.1771666897900559,6.282547750969002,4.011154405938726,7.003958020813343,5.118267842783666,3.0733490309968374,-0.053838575548070366
2.352,7.689449819523759,0.3021354211365974,7.272804591089425,3.4578935253180703,7.299061365893408,2.97010332061825,2.180434547202708,-4.586096043484872
2.356,8.812971936361578,1.1617568877381927,7.501033943714788,3.4260844882355173,7.623161008739544,1.5871095337270162,1.0453771523151545,-9.053061479767052
2.36,9.69512033435501,2.81678381891777,7.397039938492185,4.475188480626798,8.007862223749612,1.362904012532681,-0.19330889797197415,-12.5292795985888
2.364,10.659869485853221,4.917448912264604,7.2871852248699724,6.634520268514507,8.260805008594389,2.218779733958627,-1.3934110009359983,-14.365442325939057
2.368,11.723982482966846,6.920459547227949,7.2516486111912855,9.495455758621517,8.115935841900523,3.698163462581988,-2.3206794853762176,-14.330818886010547
2.372,12.534932649179893,8.33433513621236,7.101541719796728,12.421291324412323,7.390047872741661,5.18989276471666,-2.6827514999783943,-12.6147622943447
2.376,12.52416252176181,8.866438277532609,6.500009472998386,14.755038103091579,6.066798679727071,6.1751215963754476,-2.2907968211213756,-9.736576306693792
2.38,11.206923732481357,8.422814717065364,5.146917903818348,15.946608885608043,4.276170510832912,6.3844587206481265,-1.2602678159078096,-6.412869786030228
2.384,8.462953261280575,7.024758566375226,2.9480294078109637,15.615869048525724,2.22354523943784,5.839578339513878,-0.08755164349167899,-3.3888385080401804
2.388,4.660060607154719,4.766985568067071,0.12182568417051698,13.628664729419938,0.1401676601382178,4.811453953816567,0.5228679668701943,-1.2445868913001732
2.392,0.527797723606227,1.84944253729293,-2.841822766009159,10.17219022699146,-1.7335648006537667,3.7140857615311234,-0.0023672986686733566,-0.21122585517048265
2.396,-3.1464865249225227,-1.3452567569847815,-5.341340786217415,5.7912669438367175,-3.1481576422690978,2.978880981092175,-1.7729133699210706,-0.0803215985948782
2.4,-5.853492865816918,-4.235518603140122,-6.898686683772098,1.295293789892412,-3.8847902318424303,2.9103763868829446,-4.323583586911923,-0.2996424478042172
2.404,-7.559869446138293,-6.165548916461489,-7.371236057973192,-2.483525886169332,-3.8460835836194747,3.5520480401639816,-6.8204908662405614,-0.2530469070318304
2.408,-8.631365152793592,-6.630193070413327,-6.994786240584517,-4.968356142474704,-3.135610399508664,4.6352521703204275,-8.47059928980616,0.38818620771769474
2.412,-9.548499914852243,-5.503642059655931,-6.2521308530066335,-6.032736366733047,-2.0489204469513425,5.64808449371526,-8.903185665741034,1.4480315966699209
2.416,-10.546153831330571,-3.100500418803108,-5.571279381249269,-5.961512738660417,-0.913991118056174,6.064242186194178,-8.270872097045299,2.330933129109326
2.42,-11.390015058499614,-0.02113458993505901,-5.0179230939621675,-5.198062095851924,0.13215293736709555,5.627780789688131,-7.0278776624849115,2.3878062844377155
2.424,-11.467548798246185,3.111953381624403,-4.201067943136877,-4.0577819195805205,1.267707125280026,4.531704097760667,-5.564177708250099,1.3510180079711063
2.428,-10.160250804696261,5.871197715773519,-2.4789323555550027,-2.597062602508686,2.881548278245077,3.3577684409472113,-3.965152233001504,-0.4608677343293266
2.432,-7.335947181000961,8.03962102995672,0.5500243888157001,-0.7772278718585994,5.221342184771061,2.737355654694511,-2.1152351901677093,-2.349424199360328
2.436,-3.6790302578363026,9.429595410683419,4.537624583576189,1.183858061707042,7.97479613894518,2.902615627272553,-0.08843981242466725,-3.7780129469853136
2.44,-0.6227920429826668,9.658619862573119,8.177094856574286,2.537809883811633,10.069438591747371,3.3809189039213834,1.4610303526184225,-4.913809087838672
2.444,0.14633611664072532,8.095825201101547,9.509708062246204,2.068310700696429,9.915076667889025,3.0645567714502704,1.2519335057282888,-6.7700372245464
2.448,-2.5344261004887016,4.132327003836508,6.759310061807355,-1.3954469968073226,6.108631521866641,0.7178801178731646,-2.122394455808376,-10.744815355525475
2.452,-8.622501845232819,-2.3334357137833877,-0.6888981425745442,-8.245485080419485,-1.718620079043717,-4.305108080543732,-9.33759529567783,-17.714788588018678
2.456,-16.64934574892777,-10.472488769055872,-11.64653042751604,-17.54681707844486,-12.362696253139575,-11.507091047843687,-19.58772761585317,-27.196683102734596
2.46,-24.135012813527624,-18.484466502728083,-23.23127024354585,-27.064925607858186,-23.185197681088994,-19.21188471093069,-30.445859899537936,-37.1256033093166
2.464,-28.517928896413878,-24.09660080526521,-31.820629755907703,-33.97743671016917,-30.982930189931267,-25.132655282551923,-38.57249339939483,-44.486658307968355
2.468,-28.194539552463482,-25.434371717921408,-34.46234869070781,-35.98330723746096,-33.234128452892946,-27.309668874935824,-41.01753209901722,-46.57970299154886
2.472,-23.21270739072105,-21.87893848606518,-30.140139940126915,-32.30917736507354,-29.15472928195527,-24.990768607723794,-36.53022855654194,-42.296050510707346
2.476,-15.271252682298496,-14.450501100642327,-20.25242405126403,-24.084991812745443,-20.030594489491932,-18.991935062407947,-26.192860111653545,-32.71873309144053
2.48,-6.991734045484691,-5.461835275981116,-8.044606305926663,-13.871408237575565,-8.648174010663979,-11.344779491155123,-13.008856621399218,-20.693290837183667
2.484,-0.8079584980563368,2.4242248431389726,2.7517380312046953,-4.574085333338417,1.9011823204739358,-4.403381964369828,-0.6257728993000455,-9.56351343184133
2.488,2.0289559827788253,7.305786510314761,9.461595258791249,1.7338363949965014,9.471391124925276,0.14621680799155,8.19164379239055,-1.731888132101858
2.492,1.8488526574943762,8.758705491331284,11.423182911622916,4.492130741892538,13.54872550471157,1.8734067437565045,12.563586317821091,2.2249993963359884
2.496,0.2184082193272161,7.832680590940527,9.968672522632914,4.581339708073074,15.116352622352451,1.556692124610663,13.526066433143114,3.477204282308321
2.5,-0.9408802907221343,6.351133520776102,7.492668852143879,3.611414048553115,15.841233141595922,0.580311600138657,13.143392532554799,4.009043050829405
2.504,-0.32557395917524445,5.897467812603281,6.13310671554882,3.00118692330625,17.062087938106743,0.13257662628666367,13.231285809725932,5.4086035534019175
2.508,2.198231836093214,7.056277559469436,6.793696232526145,3.3670350482913136,19.142243773956352,0.6544605926533222,14.424496781051175,8.05252349663192
2.512,5.690925474925621,9.265811711373999,8.927072566650622,4.46779289098356,21.457114056529235,1.780041526945979,16.027220669891904,11.07776600990087
2.516,8.759287554199773,11.296868278952616,11.11745322172942,5.630182251406268,22.93019712890373,2.736070053799267,16.63858441108846,13.049912830696258
2.52,10.323431154324453,12.033605087582373,12.041577296112337,6.306557375599596,22.73523147904075,2.901922530538741,15.12188838397742,12.862164539454625
2.524,10.109785047336004,11.08739213904687,11.223183250774355,6.403195318506846,20.743637099822763,2.188624874618881,11.3206760892906,10.333116655603362
2.528,8.650956504394799,8.930184428515304,9.202719089221091,6.230527270389757,17.5089523354668,1.0500255799308889,6.149344583482616,6.210004726941406
2.532,6.83181153290127,6.504325474570919,7.0642602974785405,6.146200815391467,13.860524124802168,0.1491090854963204,1.0644873772371284,1.67758106880774
2.536,5.318535186327949,4.6062337462251435,5.693900075273177,6.197652329083439,10.426983542778544,-0.06952274399918679,-2.702736595281749,-2.2688425754524815
2.54,4.221235734324523,3.430783743127108,5.230790484376939,6.014458585837701,7.38108049962716,0.35614747222757615,-4.692475621803624,-5.206594424201057
2.544,3.1401366401835276,2.5309834960764874,5.02183420301094,5.013343791992838,4.529588149853453,0.9517125535901414,-5.26766556562734,-7.248906240716451
2.548,1.5481914721184467,1.2003146065035253,4.099383743991439,2.801894971237516,1.6501590435093476,1.1165818738149937,-5.2012095210923235,-8.714162945992939
2.552,-0.775858584029038,-1.0003145857234585,1.8335971482736113,-0.5038586546536408,-1.1955596738612257,0.4857535348610327,-5.125962143750257,-9.773742261766074
2.556,-3.536496831304021,-3.9045097995617652,-1.625254301575069,-4.238482612046937,-3.5834260187866676,-0.8532662216261997,-5.194538358161708,-10.321028237975952
2.56,-6.062711136242115,-6.801086636595528,-5.385214767932439,-7.468586729921981,-4.943116845603072,-2.4224864346433606,-5.13025033587769,-10.11611485270896
2.564,-7.712910408856146,-8.854399505688775,-8.307224201407735,-9.439288141148836,-4.923697674246341,-3.6322696018996794,-4.583295741125994,-9.054178828849444
2.568,-8.252451951973626,-9.582632994810638,-9.6058059936895,-9.906352454310081,-3.638529783857166,-4.079840685090858,-3.488678875877895,-7.335530021038267
2.572,-7.994013411591482,-9.122858302587588,-9.24432395527515,-9.205875352911107,-1.6450096245407622,-3.7268411117465803,-2.191860520777709,-5.410892055323529
2.576,-7.6153832234269885,-8.131911996247709,-7.89874942587312,-8.037883378817469,0.33168638985785037,-2.8683439497995096,-1.2661188110830608,-3.7656892516845346
2.58,-7.760976330021322,-7.381546656128876,-6.531361081092882,-7.096243717560355,1.763041783406834,-1.932150947161972,-1.1552769126774365,-2.6864568086832605
2.584,-8.673605489304123,-7.31264241047802,-5.858746644123812,-6.759558744590095,2.5449480925167336,-1.2479105944089497,-1.898924346597596,-2.1644510594285293
2.588,-10.0456852499143,-7.799769548934364,-5.987272375098655,-6.967061400719558,2.971740617470232,-0.9032886993727516,-3.107595706953589,-1.9910030276164434
2.592,-11.18582768455667,-8.279850950392984,-6.440114467486637,-7.332661418983207,3.4702253695243144,-0.7644366930335309,-4.219400655232903,-1.9555263828281113
2.596,-11.385591614102964,-8.140034425518024,-6.500049345649359,-7.392286598967075,4.281597735019204,-0.6129124616149966,-4.850376246894484,-2.0046945457377205
2.6,-10.286679915415334,-7.125487676838475,-5.657389378173548,-6.848210135731051,5.280678391539141,-0.30789430656977856,-5.011486509793031,-2.270991490141796
2.604,-8.08584372153723,-5.540123441289552,-3.9263552397230796,-5.71877484329525,6.024911770987046,0.11614453920265078,-5.074985041145055,-2.967796617210979
2.608,-5.4638756040295675,-4.11181031324486,-1.8424510254731103,-4.326400588996648,5.998371582475784,0.46703594611153676,-5.510715574461301,-4.254141233746168
2.612,-3.3145319600951098,-3.620816481687143,-0.19491304007419785,-3.167611054365807,4.891888490164774,0.49958410177850965,-6.567356244392386,-6.143094963189924
2.616,-2.384744273063916,-4.4898068909492395,0.3672311948105289,-2.713076003991773,2.773152561147981,0.05796524472270903,-8.095263597002258,-8.489242832461514
2.62,-2.975514258420617,-6.559888712526799,-0.3629031471023154,-3.2172087542119243,0.059419083598413636,-0.8319817776809941,-9.608303222641325,-11.032245154385237
2.624,-4.821524110147379,-9.166466777676533,-2.085916599251732,-4.602408131294396,-2.6729660992380104,-1.9566679465638117,-10.547928611415273,-13.42637942157171
2.628,-7.1654729850585,-11.433781416901866,-4.145589713964,-6.43802186025755,-4.917213739608087,-2.985931103868097,-10.575748206725393,-15.258224328158349
2.632,-9.024946792302785,-12.647441005534574,-5.832564768666316,-8.07008929123731,-6.403337970606799,-3.6051384091565524,-9.743079838428002,-16.095735046312484
2.636,-9.55085948740043,-12.518591409557757,-6.669561684720293,-8.862850597321767,-7.1380380229325056,-3.645233199946233,-8.460808495594847,-15.611497267077084
2.64,-8.356261361208226,-11.231582101584308,-6.558977731300274,-8.468033130527374,-7.328615331096216,-3.157244962945242,-7.289454047111576,-13.768062499995722
2.644,-5.715247939715709,-9.30959935995429,-5.777454472566205,-7.0270290117232435,-7.263312435953139,-2.3988171651926677,-6.682853228379372,-10.957569017475635
2.648,-2.5147878052433725,-7.3835031732478456,-4.813432903548119,-5.17177427353613,-7.198664698482389,-1.730970134213294,-6.799313005601107,-7.976636946152212
2.652,0.038594856123609134,-5.992429764143708,-4.164287733330866,-3.809133042488156,-7.29807410778767,-1.4777531838403775,-7.47050978878724,-5.766160254901479
2.656,0.8718172032765779,-5.469792626880917,-4.159058798345768,-3.7457592234986805,-7.612367611125364,-1.8030213446695598,-8.312287054529406,-5.004709039252248
2.66,-0.5124607638274483,-5.906405741822255,-4.864637262093993,-5.313564961586735,-8.085539001070174,-2.6608323619270777,-8.91053363671108,-5.766995047756609
2.664,-3.808906098932539,-7.171060436422522,-6.11322451476326,-8.190525806878213,-8.58749147519984,-3.8421150627555107,-9.010799479774505,-7.454924869371098
2.668,-7.995893276966626,-8.937210177124598,-7.594721274303538,-11.50282085142453,-8.959154661216871,-5.083213411367069,-8.62713994252772,-9.09193279637384
2.672,-11.744819059106248,-10.744053102092039,-9.000801851393135,-14.195601548787863,-9.083772989319186,-6.188476969684871,-8.051444574440666,-9.847719215295001
2.676,-13.957444815541521,-12.098116428972617,-10.13888499888344,-15.481594364043985,-8.959660252584627,-7.0873090074251195,-7.756957327791497,-9.508344845678948
2.68,-14.1908644230964,-12.626694422537867,-10.983472451940543,-15.155928297570199,-8.739155746852703,-7.812954546637684,-8.230235893005556,-8.609366420714196
2.684,-12.793962635725165,-12.24549521785957,-11.667165395250322,-13.634271594109123,-8.700398147811939,-8.422689802713194,-9.789901891830596,-8.125572777381876
2.688,-10.682286658106023,-11.236165436418787,-12.39448334321014,-11.700120992889424,-9.148389493553168,-8.920878129916218,-12.4365597714268,-8.895321938912275
2.692,-8.882933447897585,-10.179765023939808,-13.34729234097631,-10.127627295352568,-10.288591664288788,-9.255182030638935,-15.812489096055742,-11.109218877848889
2.696,-8.059870005699395,-9.71415488225307,-14.587644449534764,-9.355090466072625,-12.111255080586943,-9.379339312730735,-19.28264914029569,-14.164145081687366
2.7,-8.239476174951278,-10.208429302625746,-15.995278445363965,-9.361565124500203,-14.34432440731598,-9.340091529251822,-22.111485618126153,-16.96967800677021
2.704,-8.857112385843266,-11.531272740229952,-17.285714529691177,-9.782241480435687,-16.509732795125274,-9.306557209781658,-23.68965219798656,-18.521302451636984
2.708,-9.051300809317581,-13.037110268972583,-18.070411229396996,-10.143155985825388,-18.057501770792896,-9.479591848690234,-23.70022632660948,-18.40603881190782
2.712,-8.08084215248391,-13.83311393456097,-17.987207186959495,-10.095361059250536,-18.54967120049514,-9.936022527571367,-22.190652220510856,-16.94359017352872
2.716,-5.660385113508255,-13.199740588220493,-16.83430438272171,-9.51596313551454,-17.812715000738535,-10.484924658972886,-19.519989197243376,-14.897773739370223
2.72,-2.0807263149404207,-10.957253931507239,-14.668214328264185,-8.477269920112349,-16.005511763349205,-10.663241094017849,-16.212089131523953,-12.97140779317806
2.724,1.8872012927533888,-7.594821302258197,-11.84199414291561,-7.171190497699627,-13.580993346027299,-9.936526968417184,-12.79940497113148,-11.406468614506139
2.728,5.278664961804907,-4.048502875510167,-8.90968351300944,-5.8292493566743815,-11.123503923093267,-8.008202894206079,-9.686217340494295,-9.934162600934997
2.732,7.272202782207842,-1.2495279940912951,-6.452622749864531,-4.7000398104964916,-9.135079640736876,-5.088272262945338,-7.085379452267716,-8.07510833959941
2.736,7.457003977498516,0.31897059473294576,-4.871450313046353,-4.043006294322822,-7.844034671532427,-1.9357790687408851,-5.021949242928713,-5.566882497759025
2.74,5.955293514673485,0.8124061091259591,-4.240460618735824,-4.084283254297588,-7.1202287204137065,0.39615395160217304,-3.37615314120535,-2.619636083590194
2.744,3.344161627601011,0.8373714384342748,-4.322187759575854,-4.93565591257493,-6.55642398016721,1.017399554243184,-1.971226983905126,0.176072950905791
2.748,0.43626041826496476,1.0199695597086702,-4.709808724234563,-6.484101028731629,-5.678595184850337,-0.3495001544442857,-0.6622069266236394,2.216688713546773
2.7520000000000002,-2.0115894743267972,1.5815793980154922,-5.051285867147726,-8.356450035461194,-4.201349100273774,-3.1787365239069914,0.5868513077566604,3.279639607524132
2.7560000000000002,-3.5485921998227923,2.194727140814166,-5.206397840345971,-10.006286160124546,-2.190257115880968,-6.3263051170829385,1.6704185229375526,3.6673192075952556
2.7600000000000002,-4.124305846224502,2.231950999654373,-5.246563552862426,-10.897661328079266,-0.03535472157000186,-8.520886198634344,2.3761648413003513,3.9938060787146696
2.7640000000000002,-4.021777522251909,1.2477429571963512,-5.316010689224868,-10.723143165180772,1.7528966909744668,-8.928172494320734,2.4786936248808615,4.75225048040511
2.7680000000000002,-3.650476952769509,-0.5925936498279043,-5.423322028515713,-9.521554162002985,2.8293399287972534,-7.493099303852887,1.8677833910551271,5.936123106329433
2.7720000000000002,-3.3321883643438923,-2.4468535264184084,-5.347979716201053,-7.650760561960624,3.2053909568705876,-4.908865726249132,0.6355198331953034,6.975493305332748
2.7760000000000002,-3.180556193202392,-3.1742276799666342,-4.729076334876709,-5.622837413681964,3.227346978049127,-2.2313621315965975,-0.9201628977702967,7.045457317803539
2.7800000000000002,-3.119279574349207,-1.9699629930692026,-3.3092297209309436,-3.894137726394547,3.342318257207353,-0.35119864896932995,-2.394147727255586,5.569192183995256
2.7840000000000003,-3.0189873389635977,1.0954071409717017,-1.198757065699965,-2.727153640213146,3.775883670156645,0.39158596963079617,-3.439653469321456,2.6195732768578637
2.7880000000000003,-2.834966597986522,4.982615114007558,1.0549381322443878,-2.165856183811684,4.327063509254913,0.274923046870299,-3.9003430211232626,-1.0397929676314561
2.7920000000000003,-2.6551464761651005,8.117432114750727,2.653126042231861,-2.120782296288553,4.4175600695446064,-0.07439732186639958,-3.850140068368546,-4.300238697183431
2.7960000000000003,-2.60456158518582,9.166992339931767,2.953520682988483,-2.453227172488141,3.4082163483810746,-0.09472606907411318,-3.497148806803125,-6.238172373966336
2.8000000000000003,-2.6790352283164793,7.7391229368918175,1.8637292073115077,-3.0006905998384354,1.0077830142020048,0.3788947242046561,-3.015343697172966,-6.542736356396745
2.8040000000000003,-2.658876173239264,4.588902812336073,-0.050231801843438006,-3.566322952051223,-2.47805492931343,1.0417366740107354,-2.4283496105504128,-5.602930501907849
2.8080000000000003,-2.168655738631287,1.234332066685056,-1.7998428897737995,-3.8998210541351455,-6.202865693427611,1.340892893997534,-1.5974539448254745,-4.228757275990574
2.8120000000000003,-0.900068602407373,-0.8379310922432524,-2.4891572620401803,-3.7540040492538083,-9.153230325167215,0.82694944552577,-0.34698389564232457,-3.182448803059515
2.816,1.1392405223515425,-0.9336809438204909,-1.7991455199048687,-3.0032151326920484,-10.629998273186175,-0.5484519954979987,1.3587428522598657,-2.785046616301088
2.82,3.5280561317262027,0.5490686451685178,-0.15287354900351602,-1.7536085863619064,-10.568732413894622,-2.358213080025962,3.313491596976519,-2.8048719528742367
2.824,5.555953763278353,2.4133212758194986,1.521207919253584,-0.3741168234419092,-9.53021394497,-3.893585344983876,5.098373178020211,-2.6561456676545276
2.828,6.555968147303133,3.385909262848827,2.335117459569119,0.6371140647818265,-8.353931661565639,-4.508129128591463,6.2595877147280135,-1.773003637139027
2.832,6.260604406915036,2.8425340079793386,1.9582640719752362,0.8936322092140472,-7.681513279017963,-3.944371039624002,6.526836430710318,0.059647663029181786
2.836,4.968885026574981,1.1366703115932069,0.8224792718117442,0.3531184565345029,-7.60204283987855,-2.4612046692941476,5.956650978998596,2.587355078817154
2.84,3.429716526586276,-0.6254934845255775,-0.10479688974464807,-0.6002543000338392,-7.6076829795615595,-0.7069926787712575,4.908804859602014,5.210377528703702
2.844,2.4754860289024236,-1.2184855241174546,0.1366416308094358,-1.3042065806161531,-6.875350225608997,0.5933537115723766,3.8728961880899533,7.269496928454373
2.848,2.614694865590991,0.051506935502402484,1.9854026423938649,-1.1143929041337515,-4.701879256124926,0.9895007688085116,3.2530307830309084,8.318214393744483
2.852,3.798260571195783,3.0180325618246115,5.13162928101292,0.2887233242443017,-0.8844060407352572,0.5166088768128247,3.2064802951570073,8.257950701032314
2.856,5.48745881593095,6.802498607946859,8.705353726680414,2.7556131694445867,4.1384185811705265,-0.3304808832342587,3.61902558865404,7.30031280150547
2.86,6.965933923346938,10.303256238011727,11.730645715004584,5.748944198606523,9.4147591445319,-0.8626323556934494,4.202007049598251,5.801287809634459
2.864,7.70008607176635,12.702695945161054,13.552009837327205,8.585869610690906,13.779183268435418,-0.5693591821984683,4.620373004903513,4.083610667186576
2.868,7.559562994955286,13.725452874016355,14.026197870796068,10.712936714377065,16.196491787458854,0.5910032616125136,4.599609222549134,2.3261491467985707
2.872,6.7730257688315305,13.532405359594122,13.374995135103973,11.847634092080625,16.01523788495365,2.1165397947625024,3.959478431135267,0.5563215922807103
2.876,5.69444713565133,12.407396336473994,11.887331647705423,11.959932410784631,13.10527750050187,3.1710652940405453,2.6097972459733683,-1.272434685138478
2.88,4.552898861049471,10.493666968533262,9.702965447526367,11.159174742275695,7.8827069557448795,2.9881290411822192,0.5691436479523873,-3.1767125954261246
2.884,3.342618370824539,7.760038643065855,6.822792840901002,9.595195859155183,1.2373621144427034,1.2799463445478523,-1.982606868941275,-5.053476518843581
2.888,1.9263740019013085,4.210333876807795,3.3376442800627046,7.4518548909385345,-5.634801588088976,-1.5617295928627755,-4.651338070013935,-6.66803045983761
2.892,0.24224638442024116,0.14947002289477496,-0.34691849349155746,4.995550627386365,-11.500517692036283,-4.5991609582899855,-6.85253909794551,-7.710839406223613
2.896,-1.5249179907993948,-3.7100271106182845,-3.4818978506027634,2.6154457940253906,-15.411028576247872,-6.75342562977994,-7.950069346608416,-7.895253302926903
2.9,-2.938841673628872,-6.427006257271842,-5.227776768409058,0.7635694644203568,-16.976963651114374,-7.29854673557611,-7.479529891058519,-7.058267268512282
2.904,-3.52093857904822,-7.2435043327419635,-5.086787162293149,-0.23072063697929934,-16.473327700899063,-6.2082242439901165,-5.37480357441973,-5.2243343872510195
2.908,-3.0135175292418808,-5.971830398746761,-3.220976534502597,-0.33798958527847844,-14.684709969549658,-4.1560452518697275,-2.0502255658620925,-2.612976199636705
2.912,-1.5446772350875335,-3.1261966054980803,-0.4544301179943204,0.12113560071486518,-12.533398359461671,-2.174030156053959,1.7226772383367006,0.42433552823467835
2.916,0.4090801063430831,0.2959808847208478,2.098955575219975,0.6238253145367025,-10.65452011684863,-1.142072953721481,5.106757980894145,3.4939756494018184
2.92,2.2549188485126592,3.2758837395576847,3.597946307743541,0.7355119349068673,-9.12618345355952,-1.3804338406735042,7.526403775443669,6.23507627986487
2.924,3.565354205125118,5.213170727765714,3.8934526112163894,0.37461068654465635,-7.507013950694272,-2.5509928348558333,8.850248742320218,8.363590552886535
2.928,4.261513974562774,6.110867359638064,3.5798051954481025,-0.10801077804103443,-5.160807462924481,-3.899652445483298,9.348605032759792,9.666993776058007
2.932,4.586614733066767,6.413893279874742,3.6154476618430635,-0.12020749203634296,-1.7007304341475447,-4.7044673917796445,9.44721621736494,9.984678327501797
2.936,4.912710581361864,6.639508353372662,4.74791109154603,0.8308271836890526,2.7020428899594435,-4.652889831042103,9.436222732883266,9.220662640970886
2.94,5.502364308074448,7.029697237610776,7.05883335312285,2.8325725547340426,7.30465534982045,-3.952616599224257,9.296133488583678,7.385668137626908
2.944,6.360040816422668,7.425115269137677,9.868682128883165,5.473581090059952,11.08044713819163,-3.125173580226374,8.730716215185566,4.665322095794295
2.948,7.248616783881289,7.4225414971353985,12.070317562050946,8.032199821589074,13.151417826838383,-2.626558982963388,7.384117871908984,1.4502703026159907
2.952,7.83834775673688,6.681834433618064,12.66935074593573,9.815344505780104,13.124994295396732,-2.5385787203842938,5.094141237982399,-1.7074550330565899
2.956,7.900841319990263,5.190220041255088,11.259537312970906,10.462277002349651,11.187933452335528,-2.509094532373865,2.041522109203356,-4.2267702439457935
2.96,7.416775462806072,3.3048930411282527,8.183478264193013,10.032645619057917,7.932926613875907,-1.9871486274364543,-1.2952376766195357,-5.688351639195162
2.964,6.534495809641157,1.5499424582084202,4.314497212111974,8.848287172032883,4.049667137013557,-0.595996509737688,-4.3463196909984845,-5.978067195587869
2.968,5.463246172357799,0.342007618732282,0.6623144165836266,7.249145301765907,0.0908489295045456,1.5987167313525106,-6.657160684370297,-5.312221937169511
2.972,4.352684895989512,-0.2079005539810055,-2.0158933625968984,5.408155702063937,-3.5996423688545747,4.067139900413167,-8.000905526051724,-4.130567864184513
2.976,3.2408674278768785,-0.29442157554910864,-3.398569220217155,3.340261133317995,-6.795899495094886,6.073228520725252,-8.335894482293952,-2.8973620883123203
2.98,2.0968005771241565,-0.2470369695605541,-3.5548993483193954,1.0655685654816125,-9.264811148313129,7.040134200635862,-7.680868555118423,-1.9267358049896757
2.984,0.9001831902128856,-0.3305202516606869,-2.7953856877148837,-1.2314446542364976,-10.741755786964859,6.807972339416665,-6.043894729940575,-1.3067327666775554
2.988,-0.28321684946303094,-0.6303847619406611,-1.5179387005524632,-3.1758022191209534,-11.033779912555133,5.656706601900169,-3.46741084166581,-0.9575513440325949
2.992,-1.3010347036898793,-1.0881738383399124,-0.15025176099561577,-4.367674710998358,-10.183276450539722,4.089747336805772,-0.17601976228968397,-0.7689773086804053
2.996,-1.9684237253397328,-1.608510903911224,0.8789632900437709,-4.612045546347872,-8.532472018743022,2.551683700099261,3.3109107324088427,-0.7120121543878213
3.0,-2.1255380040283853,-2.125321063230558,1.2136539269522473,-4.045929613338558,-6.60375531180091,1.2454156154072962,6.238383531378645,-0.8604474878442261
3.004,-1.68058700965247,-2.5784778427816377,0.7018831921370747,-3.065069973029722,-4.837563289166951,0.1364660491462928,7.86948373972109,-1.300982629830287
3.008,-0.5971964358503783,-2.8099033242923497,-0.4366934761681023,-2.050397915147528,-3.3237530010632668,-0.8782171336337115,7.857916512747579,-1.9997361517814625
3.012,1.123334010723056,-2.5047602881198827,-1.5800332511423676,-1.0963597399484684,-1.722594894726683,-1.7936077193926394,6.505794994706662,-2.7273197049942155
