Timestamp,O1,Oz,O2,PO3,PO4,TP7,TP8,Fz
0.0,-6.927791673660977e-13,-7.602807272633072e-13,-8.881784197001252e-13,2.0605739337042905e-12,-2.5082158572331537e-12,2.1458390619955026e-12,2.4584778657299466e-12,-1.6768808563938364e-12
0.004,-7.9166949840600225,-17.48505706220473,-26.80050214529293,-28.919296147136635,-42.164996056512116,-38.1933879509707,-14.707314403768322,-26.864214136018255
0.008,-14.526603511964332,-30.914978084909464,-47.373675219557086,-50.347143685362454,-74.06592515233203,-66.10627018451788,-25.68234827122624,-46.18072922060799
0.012,-18.77744118176603,-37.705587012022185,-57.923575062634946,-59.807363800874626,-89.57134907382763,-77.8390113974345,-30.618604923527045,-53.64128390505931
0.016,-20.14788359587192,-37.62410058906478,-58.39696495116166,-57.46966206069553,-88.8540938008048,-74.12072138495368,-29.456422290894743,-49.84922927418694
0.02,-18.849709954414898,-32.69823045528378,-52.08266866400522,-47.664263057384304,-77.63314353894728,-61.37200666627089,-24.229244516873273,-39.66368251212218
0.024,-15.850174899172192,-26.227054077805313,-43.797275998142844,-36.60874871380928,-64.00191588677313,-48.20623265509266,-18.04491632267146,-29.613701749000917
0.028,-12.591201069949076,-21.342429188101192,-37.60304297832029,-29.533147047252193,-54.564335120865685,-41.26348890682617,-13.677703193934732,-24.76213486793472
0.032,-10.440622431820703,-19.767023669087187,-35.20821544964339,-28.62175178191257,-51.83690629503633,-42.52866268018792,-12.427762383389279,-26.607861335908176
0.036000000000000004,-10.096704933592871,-21.297766509896242,-35.73897666330074,-32.657425606104205,-54.03754291069471,-49.32077400872157,-13.748537223197097,-32.95479865462852
0.04,-11.24178395934091,-24.179813666661197,-36.77692938334011,-38.283106292812064,-57.019496844347515,-56.579321468113534,-15.734517575216145,-39.58184860845163
0.044,-12.698035700927505,-26.14639441707579,-35.97465797814147,-42.026353735136134,-57.01351101761306,-59.94002301686281,-16.20827702264777,-42.652173750811635
0.048,-13.066039451051322,-25.616306441177066,-32.36043206879533,-42.010326705947904,-52.66508090401887,-57.895261016628666,-13.889338279907285,-40.601660931859456
0.052000000000000005,-11.56389404417914,-22.520631313067014,-26.780680558006345,-38.63066827495319,-45.48646462511209,-52.12002885742341,-9.14209092780375,-34.693345785429116
0.056,-8.625749126008124,-18.40923620917819,-21.44322714116678,-34.0974717169013,-38.80391130839859,-46.1594735047821,-3.9989603740287194,-28.200616116662538
0.06,-5.866862747836382,-15.783737038740615,-18.888540209150413,-31.242498749137287,-35.99025863539819,-43.42659321393194,-1.4195239573862466,-24.7982732851091
0.064,-5.368949379969045,-16.95396503950525,-20.919873068428217,-32.22565856028868,-38.928928582298106,-45.61529877969549,-4.0684619919237335,-26.9533856235624
0.068,-8.584712377601697,-22.91363114449389,-27.89651122762421,-37.67423800030012,-47.356668700628155,-52.1857692014852,-13.070084920850029,-34.98349875939745
0.07200000000000001,-15.435165556782035,-32.759309653560564,-38.61329231314206,-46.53214050341661,-59.20767628127605,-60.93797137634301,-27.28153853220725,-47.05000815175286
0.076,-24.11115641801498,-43.937650635859086,-50.73689963208693,-56.5631790182815,-71.59831471798134,-69.1600481584023,-43.45338648595858,-59.93719527819575
0.08,-31.711255562107475,-53.2086586179214,-61.549201146624746,-65.18458764980761,-81.87884918658955,-74.65891627240822,-57.259939263216474,-70.20022026086512
0.084,-35.444994415142624,-57.90239378559331,-68.74100952877481,-70.2813194959455,-88.30421435467278,-76.2643235200932,-64.83296436556864,-75.21423131846011
0.088,-33.816631912236616,-56.911163301437156,-71.01381238671992,-70.75612319902802,-90.21955122952244,-73.80972537743318,-64.16545577342667,-73.83201491190256
0.092,-27.216516451281976,-51.00191180471299,-68.36594543254482,-66.73017011742849,-87.91795681395982,-67.8908895874893,-55.816724734023495,-66.55498042852443
0.096,-17.67063070006272,-42.35395981884126,-62.010416990111366,-59.40187440730634,-82.36876106623279,-59.66009884754551,-42.61004713185371,-55.238177172098865
0.1,-7.901909528564076,-33.562809389641956,-53.901672743248994,-50.597741210268076,-74.89461862187639,-50.64692878076184,-28.42689073710318,-42.439222219865286
0.10400000000000001,-0.20637205765006073,-26.585615496071426,-46.02571216744058,-42.140847718215774,-66.78394480691078,-42.47113662702897,-16.653496276238165,-30.58204668563279
0.108,4.34246907452064,-22.085416037048713,-39.69273540956368,-35.246909591083096,-58.908085927286365,-36.39834225554004,-8.961084615391108,-21.216037547285318
0.112,6.034341588148264,-19.44784783975299,-35.16490027793675,-30.218735691906762,-51.522063023476036,-32.927095040867265,-4.982305347205234,-14.691607567931175
0.116,6.0467250399981225,-17.385006861500973,-31.80689054369838,-26.58767213703103,-44.37808435843465,-31.6741343663682,-2.9916205140206102,-10.393827645523483
0.12,5.712394179813312,-14.736574953237017,-28.62036524114736,-23.584351194670667,-37.088639841856626,-31.640282231881237,-1.1298023748581016,-7.366957461524727
0.124,5.90702309137145,-11.054885314775639,-24.877288873318122,-20.66439125788385,-29.522024524811144,-31.737484460573512,1.5039173923200195,-4.958112326219609
0.128,6.8274137476562515,-6.710440251116587,-20.50148928598103,-17.79722971180572,-22.020414645278173,-31.29151852303289,4.471259263318657,-3.1392700914664786
0.132,8.14513854900785,-2.5739493726673572,-16.057204781536946,-15.424673606467131,-15.36019723438914,-30.28960110774139,6.439888319406357,-2.383198506942044
0.136,9.330829566800283,0.46348406243192386,-12.433297605281389,-14.181170511400516,-10.51506809751799,-29.28001908888507,6.107161935105594,-3.2343855100297603
0.14,9.955402264736685,1.8745727145705473,-10.401637205381093,-14.532852873222009,-8.327993121138753,-28.96985867375512,3.0575977519004383,-5.851438348654469
0.14400000000000002,9.8210077898971,1.6098744852329823,-10.301541823797741,-16.52767278243568,-9.211568908716384,-29.75652482681297,-1.9398457280025099,-9.775724854845773
0.148,8.94936191751381,-0.02697261815353258,-11.967808955957906,-19.76188076990409,-13.000722732619288,-31.4553585909852,-7.318662018701758,-14.065493181383541
0.152,7.4956472673860635,-2.6173330633170835,-14.906216075109572,-23.57617370605641,-19.02175958535692,-33.40776027030451,-11.540573342383396,-17.724084482024285
0.156,5.666326955464822,-5.823420157751798,-18.566461725434884,-27.355057077002108,-26.31812139407611,-34.895292045052,-13.877824012622469,-20.156890259471908
0.16,3.6881200029393817,-9.433770614136145,-22.501321768853664,-30.721408820060617,-33.89127212012788,-35.53796442153799,-14.679822252528115,-21.373029372399877
0.164,1.7843049593524256,-13.289363246886708,-26.361607571654122,-33.53039720251587,-40.84781006801951,-35.42546947898176,-15.017020397442444,-21.80898830869309
0.168,0.13991643980594226,-17.17834230575526,-29.7974803533294,-35.71604205186339,-46.48264046111875,-34.92791429071315,-15.951340214343862,-21.928413165584143
0.17200000000000001,-1.1421099647291495,-20.80217228733846,-32.43809230639599,-37.15790628264687,-50.373141371768725,-34.393129876429555,-17.898161221346566,-21.902203499990314
0.176,-2.0706054949543713,-23.841182411142032,-34.03642288939617,-37.692866601868715,-52.489519603389965,-33.981617065171804,-20.457792943381587,-21.58429591720979
0.18,-2.7254508529564667,-26.036606432630148,-34.64339908611031,-37.228065929147164,-53.20537964637176,-33.68816440182665,-22.73944142781692,-20.752779869061165
0.184,-3.17644628084439,-27.23165161191688,-34.65410659393378,-35.841392847887626,-53.09039291211772,-33.468909572818866,-23.94306313240475,-19.391989537835663
0.188,-3.407604761072431,-27.356395649422826,-34.61575726302354,-33.779325841516155,-52.553087527613414,-33.332805400203476,-23.816348345957206,-17.804615634583087
0.192,-3.332648758168224,-26.41854582092695,-34.89661279898891,-31.382329048256196,-51.56995054846638,-33.344850848263626,-22.744867084541983,-16.5025421870362
0.196,-2.912325448860093,-24.54824116689349,-35.43748864171529,-29.01325976936422,-49.71299322171003,-33.56782265316326,-21.46861388294849,-15.964773578581802
0.2,-2.278430854420499,-22.05066013649271,-35.73240676632506,-27.008461852331067,-46.48804721176336,-33.97356873315449,-20.607911079772613,-16.4170732627709
0.20400000000000001,-1.7699041958355046,-19.404409432389762,-35.08951359043414,-25.64460891810002,-41.763725886239875,-34.389477205925246,-20.29792716072349,-17.74455797669204
0.20800000000000002,-1.791446779388064,-17.135112334070854,-33.01840829659076,-25.08609932449684,-36.0182155317007,-34.5237308056747,-20.12320757492172,-19.566995574804203
0.212,-2.5689930288624563,-15.61203446067738,-29.560838963701467,-25.33963030572619,-30.25629704340188,-34.11419627678597,-19.39418311044231,-21.445903505995886
0.216,-3.957317661247645,-14.89015236655546,-25.383961030452284,-26.246234771629908,-25.62607679480999,-33.14003705121351,-17.608550301613725,-23.100445133026618
0.22,-5.420760336710588,-14.682590713508272,-21.531592349398206,-27.496870174940405,-22.920894335986485,-31.91002069124143,-14.791813260774955,-24.48883922874328
0.224,-6.267931402906693,-14.525760516148942,-18.97103564573898,-28.686545670144106,-22.21541689754507,-30.939440091494887,-11.534293980837976,-25.702966420122877
0.228,-6.023755676736497,-14.073662133957988,-18.17962249567613,-29.42947437407177,-22.89076946758955,-30.686873852176568,-8.704032139245882,-26.788795779080317
0.232,-4.73183054227578,-13.36101129599788,-19.01246125759569,-29.521047096838565,-24.075404942980693,-31.31708945161809,-7.020750594782697,-27.649217142597088
0.23600000000000002,-3.008963080577887,-12.859817707880513,-20.899088193372695,-29.048764267853336,-25.19765011426836,-32.597930205828774,-6.7240139341660345,-28.072106416353922
0.24,-1.7908765750533258,-13.258069610914774,-23.215085883385946,-28.38307959794347,-26.330632029827832,-33.98870168426848,-7.490753166636248,-27.871684225015287
0.244,-1.9082127190561122,-15.086752133413597,-25.646181418770418,-28.07161382161309,-28.16516861249435,-34.93524448938273,-8.667802205130076,-27.08191776961103
0.248,-3.7065309622547,-18.390098298035973,-28.306138927761086,-28.641765522119496,-31.59167245747677,-35.16992962503342,-9.656820745401719,-26.053476774133546
0.252,-6.911029876415331,-22.621674268259135,-31.544119634837926,-30.37826024924128,-37.10482284072641,-34.82076103550373,-10.218029592466037,-25.353276733557955
0.256,-10.788004352479245,-26.843030535226866,-35.594938057127706,-33.18919395153924,-44.388709897603036,-34.29950909768832,-10.547498405895938,-25.51342052231828
0.26,-14.475133058728103,-30.122081420871453,-40.29402044198608,-36.62772671286491,-52.34400174437879,-34.056566472293696,-11.10519688640124,-26.78229173721165
0.264,-17.306680836780245,-31.933405807632916,-45.05473184052043,-40.05531689638236,-59.522243745642115,-34.350966840575836,-12.319714927714259,-29.005489857495967
0.268,-18.96009920325796,-32.3269938545815,-49.07088397926542,-42.82301163288929,-64.65890459630955,-35.09636179489513,-14.315699766514259,-31.661421379813646
0.272,-19.41551441970682,-31.79408269145994,-51.615151848477296,-44.392135179748884,-67.00496334504902,-35.845025780896606,-16.814619518779445,-34.027739363261595
0.276,-18.821199840934035,-30.942604968792857,-52.299627546699014,-44.404433541012025,-66.36545020615918,-35.954478510132134,-19.267802017300884,-35.43196770970495
0.28,-17.382598310974696,-30.178187769807728,-51.17063979604028,-42.74347877663553,-62.95863281207246,-34.88149950508824,-21.1312157185839,-35.51768533211562
0.28400000000000003,-15.361948844243729,-29.5733215409933,-48.65144527821783,-39.61756142551061,-57.2809615193922,-32.49998471243594,-22.150429443811376,-34.41748476127963
0.28800000000000003,-13.12352049794448,-28.937482194385808,-45.34330665483063,-35.57773514474287,-50.036100153389775,-29.229748191318116,-22.46873437036529,-32.71628437840663
0.292,-11.131740037140354,-27.99584048217767,-41.77812231787005,-31.39966199907967,-42.09303596338465,-25.87092751623816,-22.493306280998056,-31.189470158770227
0.296,-9.849295931644322,-26.560892156495257,-38.26467597783026,-27.85548329703049,-34.4176548733586,-23.249542343005164,-22.624026533232808,-30.441689766760877
0.3,-9.55775001164591,-24.608352604696115,-34.88379978129193,-25.47349707026779,-27.949755256584954,-21.869692140977012,-23.014542726445086,-30.6457938358745
0.304,-10.22703286838693,-22.27481883263772,-31.642964106608776,-24.414333861631345,-23.446868962615014,-21.783059633689707,-23.527631221847397,-31.527574886425285
0.308,-11.522655294219696,-19.795821258649397,-28.642654453401928,-24.4870485645708,-21.312897832629893,-22.66072520318631,-23.868660624512415,-32.56680345911591
0.312,-12.968726466316362,-17.429425589480516,-26.131876952102278,-25.271823934456975,-21.48453528172201,-23.973367160205463,-23.7915331405396,-33.287634476896784
0.316,-14.178603940720976,-15.405450699977006,-24.439732262185593,-26.296678790912797,-23.47003296980567,-25.20215894756048,-23.250381575340036,-33.48971586931198
0.32,-14.996992339488184,-13.90119528571472,-23.821720683687605,-27.19128022132692,-26.567572952867494,-25.996139969630352,-22.415699222319855,-33.32272008906581
0.324,-15.495080990427024,-13.04902712495714,-24.345913340732217,-27.775567029004794,-30.166034122045787,-26.25226251495371,-21.582601101953113,-33.18246172019295
0.328,-15.816879332138404,-12.927608200806823,-25.83767508084042,-28.014635753708006,-33.91332154497202,-26.060590419851604,-21.01528926542438,-33.45681133064947
0.332,-15.98835363509181,-13.524791966931971,-27.88849961887199,-27.871143244046863,-37.63924151029111,-25.54642921615173,-20.81050036417316,-34.24441786983387
0.336,-15.85176913138067,-14.71103402836912,-29.956709850014445,-27.204250141582165,-41.133024325411256,-24.74742034393019,-20.870300651236562,-35.22484090639464
0.34,-15.182007433283943,-16.248904716136085,-31.519201423662572,-25.821304468676747,-43.99686219147925,-23.616386927830725,-20.984617957821904,-35.7874612041543
0.34400000000000003,-13.913619100474081,-17.836306016596964,-32.23824549915763,-23.66517111404418,-45.71005588820758,-22.155517776979504,-20.966577075822027,-35.35556723193994
0.34800000000000003,-12.294349274825748,-19.14351955091745,-32.03635620296069,-20.965868935749736,-45.84646904275462,-20.526785725255603,-20.730345289195714,-33.703673672383175
0.352,-10.825172474930334,-19.83016299515808,-31.045044268259275,-18.21304856303201,-44.287509179155826,-19.016747956395335,-20.265437793309697,-31.068398715448026
0.356,-10.001883061282463,-19.57935304458132,-29.49325585293232,-15.94366335516129,-41.29727631699373,-17.880295924857204,-19.566377456311365,-28.006333609564763
0.36,-9.997860845287953,-18.191680639845167,-27.603035892573956,-14.468201853071365,-37.42866065099525,-17.178225196066506,-18.60208798710493,-25.126033229340994
0.364,-10.511418360562715,-15.737343182239677,-25.569333021462633,-13.726732386808798,-33.32522259581392,-16.750759649635892,-17.38009175062024,-22.859311048331204
0.368,-10.886858134606692,-12.655128250968035,-23.565655145036125,-13.336335355470272,-29.491453169038927,-16.311612880439828,-16.034218974694248,-21.359563823273994
0.372,-10.470726329422016,-9.698021789415497,-21.732150820685256,-12.81402271577986,-26.131251882272448,-15.598033182356032,-14.839714205705903,-20.54029309061974
0.376,-9.0112303959765,-7.690366523005638,-20.146914950685172,-11.863236962862924,-23.14215929740132,-14.512729075043568,-14.10796176740256,-20.196998016607985
0.38,-6.848018297829549,-7.163155458894232,-18.78061046011725,-10.566576304507247,-20.277743727115528,-13.189149321082354,-13.988273207672723,-20.132481311273704
0.384,-4.780256793472677,-8.062015316236055,-17.51314380087397,-9.382669640039028,-17.389927591474333,-11.96482855494215,-14.310802427548573,-20.22260009974597
0.388,-3.6634251346867854,-9.690705662425696,-16.19766559647502,-8.907849803277683,-14.570319201727973,-11.2190746315999,-14.568286632917356,-20.382649183248613
0.392,-3.949993020181562,-10.962085944426713,-14.740301889992658,-9.508475466036629,-12.103688837056767,-11.137589662340963,-14.080522617567143,-20.474505632958873
0.396,-5.444441895459325,-10.88370059460031,-13.183944376116429,-11.052874381312657,-10.30275547796405,-11.568726273366888,-12.313635519255865,-20.26222342146645
0.4,-7.402404388607621,-9.04818207563748,-11.73349404006979,-12.919256852615375,-9.363088253183106,-12.075038643334636,-9.19404303363471,-19.49660084470894
0.404,-8.92050517900601,-5.872898362142384,-10.711525096905362,-14.29724017513951,-9.325452392724266,-12.190257780555587,-5.242839223963276,-18.09248247154862
0.40800000000000003,-9.387980784587743,-2.423240581994838,-10.405623623868916,-14.588584923232801,-10.10818575132354,-11.6948186029278,-1.406075750585551,-16.252310910301272
0.41200000000000003,-8.75574935262826,0.10460587082668749,-10.87234691276684,-13.672716442290001,-11.53702692200759,-10.729100982874296,1.362721480246599,-14.424596049052466
0.41600000000000004,-7.498820111253122,0.9582257598477821,-11.842062903642027,-11.917641913295666,-13.346281159564606,-9.70358226075844,2.549813245076167,-13.107028128193278
0.42,-6.307789594701796,0.15374819820709562,-12.799964492782946,-9.959989792029205,-15.196714062677614,-9.06968086980102,2.3194692573754274,-12.61698764266902
0.424,-5.724577176798397,-1.6431106354951965,-13.26349699591943,-8.424643936551632,-16.76491086777062,-9.115445068535264,1.394796787292084,-12.973018994348964
0.428,-5.907643178580315,-3.573000389721087,-13.082106958138464,-7.711483198967286,-17.86764700809598,-9.863808274843429,0.6487966064738067,-13.93518661056394
0.432,-6.629516390431475,-5.081799332497139,-12.559537374045755,-7.9085629357092735,-18.548495682521697,-11.09443782301793,0.644209912801355,-15.153866355674676
0.436,-7.480488847444416,-6.170397792568242,-12.322475474798336,-8.844835179728351,-19.070403135092,-12.483097467889113,1.3628630480297774,-16.332012625903612
0.44,-8.118475355306261,-7.252174514494521,-12.967548510533476,-10.210388971642782,-19.79612294004165,-13.77582173330321,2.274858461147687,-17.314841797486412
0.444,-8.423310057681892,-8.736921602494686,-14.699477265971893,-11.673370895903851,-20.986314151323498,-14.911048186065841,2.689558875906938,-18.06940672813044
0.448,-8.481610688658622,-10.61583219187676,-17.13426775103482,-12.920011281836956,-22.57979068878351,-15.987484266287622,2.2000160158955016,-18.564015269557117
0.452,-8.44014788463119,-12.322560415483709,-19.39105533465482,-13.631762460544053,-24.08088899854277,-17.089269288708493,0.9655474921029512,-18.639825768085444
0.456,-8.362368302909802,-12.999361319657137,-20.47718277230043,-13.504893757299378,-24.681482901682376,-18.113942481382274,-0.35385107711689656,-17.999211061234483
0.46,-8.174082786619072,-12.016109978405229,-19.765119026803113,-12.361680574603868,-23.63206706867402,-18.738356341962046,-0.9722687283396692,-16.356716819702335
0.464,-7.728718935768217,-9.427286224378228,-17.33064723990197,-10.318084235572428,-20.69743434533291,-18.586841685814647,-0.45768492767225943,-13.679699288928777
0.468,-6.933724507373084,-6.059225243175907,-13.93889427907255,-7.857072566789894,-16.408137284171737,-17.470737288811197,0.9895389787049531,-10.34514002034664
0.47200000000000003,-5.833176925413818,-3.13385410710885,-10.653067949299293,-5.687073336720125,-11.900676243746636,-15.529957595750131,2.6438566579450438,-7.071059973510607
0.47600000000000003,-4.609722467889773,-1.6493895518540362,-8.307988087934417,-4.440657054715617,-8.411330591264473,-13.208795866068504,3.6702824672655296,-4.646417123461205
0.48,-3.492289000213379,-1.8674957876502152,-7.123193390934631,-4.368540842771624,-6.699008786118382,-11.070738136523945,3.6185256175897003,-3.6060662130219754
0.484,-2.6565447854738684,-3.22823159479701,-6.702283097200176,-5.235726638660369,-6.736453166271465,-9.588623037050624,2.6715216125570738,-4.034709199575882
0.488,-2.168139009947727,-4.728248927370795,-6.37677374301544,-6.471101273886402,-7.82685739848667,-8.985798494562415,1.5215413941666363,-5.580131648383514
0.492,-1.9859825014572587,-5.514916350876161,-5.65988765958787,-7.475603506035721,-9.052177506550759,-9.182773008826235,0.9530688824993483,-7.636807508278016
0.496,-2.0267932935231165,-5.351759179034773,-4.561794338317954,-7.926968692499505,-9.799294700422532,-9.88282539927286,1.3662056218093852,-9.59278622990631
0.5,-2.2187751598899075,-4.672989254084099,-3.566899578149177,-7.885725672974848,-10.065255741628674,-10.729584231986337,2.547684504923293,-11.024313980789202
0.504,-2.522449340400442,-4.22450106655708,-3.3275575112671456,-7.659623892883197,-10.382407774044438,-11.475050492881358,3.8057826992060537,-11.77568459543152
0.508,-2.9062610887872884,-4.5255514095215865,-4.246352632688698,-7.504520103202431,-11.401013234706488,-12.037728229556983,4.400115927561275,-11.906987605942929
0.512,-3.3100748032189045,-5.5014386354985785,-6.194917846683147,-7.358426640421962,-13.377782402498092,-12.417367489637144,4.009131373008563,-11.576004324818335
0.516,-3.652351404854402,-6.5431813422310725,-8.561970558783386,-6.826803102204608,-15.917232391186634,-12.573814935873227,2.9269626764852594,-10.952086728009732
0.52,-3.8765299732899283,-6.954518362498051,-10.59132775365594,-5.468858806740648,-18.163321192891065,-12.378040330797695,1.867109157244851,-10.216960780230918
0.524,-4.00935007152301,-6.499859790984697,-11.824967244276795,-3.2278427429053247,-19.334095989143172,-11.70477409498425,1.4756060301567757,-9.624091491582158
0.528,-4.186172008419328,-5.673891455535856,-12.357375438832644,-0.6946973949568025,-19.245062501363854,-10.57417669728181,1.8758954892969122,-9.507052518525903
0.532,-4.60082482314393,-5.464067264561529,-12.716500134797679,1.0356962971585488,-18.448151461923782,-9.207101121161916,2.564320906875463,-10.156928066802232
0.536,-5.391622986069088,-6.7148184608525465,-13.459312447964695,0.8813498196197471,-17.875997112811067,-7.944581314248181,2.7225170754931147,-11.615900057722516
0.54,-6.521024225370887,-9.471381362652878,-14.724939773959267,-1.608083676101884,-18.218447707660633,-7.063500984964062,1.7819172676253645,-13.530264134908503
0.544,-7.740254319420018,-12.746897192667035,-16.05590945151924,-5.911181145299065,-19.42830295880228,-6.628340927713899,-0.13232647185731294,-15.202247763270831
0.548,-8.664364810204294,-14.90940280466016,-16.591932401434367,-10.680423957042182,-20.660908744830543,-6.455638294167859,-2.1679968806419785,-15.850753599730625
0.552,-8.923216796527448,-14.512177157340059,-15.527427207099974,-14.310661406460934,-20.696872438190894,-6.2086296400275796,-3.1594276685169564,-14.954167845638718
0.556,-8.329918702992966,-11.125114027884289,-12.588744668826083,-15.649908981804959,-18.622141567419668,-5.602305293612769,-2.279317322585456,-12.504671776823724
0.56,-6.963189902047724,-5.671981796863376,-8.24108192488043,-14.480513482211707,-14.393565317122695,-4.604686419417565,0.45456804154276664,-9.048991519220642
0.5640000000000001,-5.131841223003871,-0.06145626255687997,-3.5312914285243506,-11.548540676193257,-8.963325707367964,-3.535486314103302,4.105073238565433,-5.487531274225021
0.5680000000000001,-3.237575859635385,3.737693930317495,0.3784532962561866,-8.130026177975282,-3.857074077876108,-2.9436497514491267,7.249682934263693,-2.705234898357701
0.5720000000000001,-1.5989952739715347,4.695499559364176,2.747783089060373,-5.374936942487711,-0.42008343457995556,-3.2895011883342486,8.692890916775639,-1.2009464218492671
0.5760000000000001,-0.3495598339599719,3.2232978219368555,3.548790433079373,-3.813610523272023,0.8347180492379298,-4.630592937307972,8.04648484325969,-0.9022220857841083
0.58,0.556462670473554,0.9025283761869938,3.3769034290412696,-3.2728469727672542,0.39690367000855264,-6.491085672587074,5.866071302741059,-1.2643720680576318
0.584,1.2370400616497204,-0.42212772947304633,3.0226154570481327,-3.207224540592839,-0.6480108802617366,-8.043918303031436,3.268810860672343,-1.598228084951499
0.588,1.7568555188855406,0.32582330671153326,2.993866414005714,-3.17153036545929,-1.3211115394675907,-8.503278460291693,1.2956810843991122,-1.4279507314687896
0.592,2.084728539062393,2.886283906492755,3.2808598164854472,-3.097117991876285,-1.3031216812943196,-7.497285490852823,0.40748226063189863,-0.6763192597969194
0.596,2.143359753272428,5.856138967072235,3.457453258678908,-3.2351775977380566,-1.0310967536309068,-5.250904652721587,0.36880835338749485,0.38483280038369405
0.6,1.9201678074354653,7.521743433554672,3.0531143433429255,-3.8468164111360768,-1.320793411882324,-2.4763238926432467,0.5628888106466068,1.3529826544923598
0.604,1.5530013269027698,6.835168646928047,1.9199895255245236,-4.894965961226276,-2.775447604005966,-0.05150084944805455,0.4841997282099122,1.9283702950806483
0.608,1.3173304048991379,3.9901804864165618,0.37847325176079316,-5.955955944814865,-5.336145452452826,1.3658102032136457,0.09944589873117593,2.0432854929497206
0.612,1.5132984050338307,0.3035964791070116,-0.9290697366481577,-6.4035532021630335,-8.231205354993678,1.6189583697858208,-0.1405769462519011,1.8583966303508013
0.616,2.301827841735409,-2.5148186397583627,-1.4020738219382052,-5.756847667408342,-10.346902132810968,1.0787986805299983,0.36542966929552545,1.6579892812709427
0.62,3.5946750256084656,-3.272867999818768,-0.8295678307179646,-3.9721803224124006,-10.81327822856121,0.4140224834930182,1.9238121228677065,1.7112560612431817
0.624,5.056409864667467,-1.8919809482917826,0.4579385935953283,-1.5090551718865748,-9.485303240111199,0.21224245354940852,4.256733504694996,2.165358400191762
0.628,6.250012445327652,0.6387050981394248,1.750091539099536,0.8944934110682684,-7.025263431396814,0.6805857618335691,6.572257099636619,3.021386994059945
0.632,6.862810884920922,2.9004200942392293,2.3578269255666235,2.6169677743973017,-4.534427805230831,1.595188804928671,7.96664866257243,4.190134825344982
0.636,6.87023067851798,3.8703301108801114,2.0005375957567053,3.4685911809853796,-2.959888135149722,2.4879768960375648,7.913718120393131,5.563639255136097
0.64,6.548083443266287,3.4619609214728486,0.9641114042013998,3.7406541808321365,-2.623342758707347,2.94580570343856,6.560273075363066,7.043355258224404
0.644,6.300366699715395,2.4806594232016894,-0.08651392885977849,3.958356715076168,-3.138765146276781,2.816329684594627,4.648162979651033,8.51162780634627
0.648,6.405941054821326,2.055548982206553,-0.5111608059689792,4.511190656770494,-3.7216850931891337,2.2374159442349004,3.1190630210840924,9.798392780962413
0.652,6.839410229876398,2.902117432113183,-0.06623162741044986,5.40303819756757,-3.6721085974398706,1.5126952014389854,2.6308109020419503,10.703063844173354
0.656,7.258574532679827,4.837690595675303,0.9442326681535573,6.250267601512479,-2.753452229260346,0.9113313864533592,3.2232886831789376,11.072992377646901
0.66,7.199950887671087,6.826704165349503,1.844818137478029,6.520571362828129,-1.2782778549615377,0.5361989344871789,4.320670944781427,10.889400946961036
0.664,6.359741910756831,7.510035925525787,1.9600805854913883,5.840283235804191,0.09471197350715999,0.3099344107136386,5.034655657647218,10.294826819431592
0.668,4.802713602346035,5.9321003969589805,0.991613700712259,4.201075161759944,0.7302917499462804,0.0952326763693514,4.613950933943203,9.539642738212143
0.672,2.9649392413646303,2.0756378210375637,-0.802034878852186,1.9649255980806408,0.3451368007373665,-0.12954530428051858,2.8273924408823525,8.87114542873338
0.676,1.4290709770266372,-3.0843669421157713,-2.7487197135396446,-0.329928055397128,-0.8858066042477746,-0.190027555772736,0.07906497895216091,8.410263928870714
0.68,0.6208346273527607,-8.002273959565775,-4.128734982503839,-2.2276339011525055,-2.4764637512424663,0.20746189835053352,-2.7812176626056777,8.070400628211278
0.684,0.5698179667230137,-11.247576606879596,-4.587296990856264,-3.5594588630804793,-3.9391142783628847,1.2382080686501005,-4.859745843903008,7.56012509571548
0.6880000000000001,0.8881081983970409,-12.095285838606952,-4.347976296990524,-4.468186754613805,-5.048450978498457,2.7372849453276062,-5.629750114950244,6.492145779305343
0.6920000000000001,1.0074453830084167,-10.725448657089306,-4.076692094042482,-5.227989144008113,-5.895948353693118,4.179594384249133,-5.151721188297913,4.572967480161907
0.6960000000000001,0.5163727134433089,-7.998124682240569,-4.4849437301258135,-5.998331683421258,-6.726542730878546,4.891399486602195,-4.013272018871082,1.7933562210069134
0.7000000000000001,-0.5834149192022884,-4.948277935846618,-5.867372067763018,-6.654352451035275,-7.674024854599521,4.415622230878347,-3.0032513955454663,-1.476611899885203
0.704,-1.8623185925118833,-2.2951449028573823,-7.863479468530899,-6.814856439108625,-8.587567151092692,2.7941520944217193,-2.706283868361937,-4.558786977833368
0.708,-2.703965085746062,-0.21675297155514484,-9.585482671751416,-6.05526197801033,-9.061903480525526,0.6022233202018996,-3.211551922191191,-6.690187941888183
0.712,-2.6527468366145843,1.5391394317703622,-10.050634741949441,-4.176912331669543,-8.642010640872137,-1.2955749796341585,-4.0759704576255675,-7.303810763160735
0.716,-1.6755478139342124,3.313405709653545,-8.716000017364534,-1.3910794649231892,-7.089555893372816,-2.174902333363833,-4.5726219222762925,-6.251619661460232
0.72,-0.17065098046778804,5.200199195486532,-5.812996765388151,1.7001478511676584,-4.564326893507058,-1.8252044368435816,-4.083814617891155,-3.8733163676569644
0.724,1.2571481544687315,6.91164047745258,-2.3161193334728045,4.312150498473592,-1.6258435852879365,-0.6818565146614837,-2.4455677281511212,-0.8792032024016283
0.728,2.113917550637968,7.928274052495781,0.4739400587631566,5.797801973134071,0.9687267371329812,0.39322239085793664,-0.047742815026666996,1.918962632606596
0.732,2.235090385780986,7.842676044206453,1.5486025838828947,5.935300100025299,2.589506278240726,0.5883701791997864,2.3775162570407034,3.9266181772636486
0.736,1.7673886212877838,6.66519803706152,0.6653802459615616,5.015442383224073,3.0057892373983806,-0.4075671007802544,4.142162465190694,4.977137612248314
0.74,0.9601249283326054,4.907866270001053,-1.555994274406046,3.6849107738556066,2.4576042047667577,-2.2295291038611627,4.953648229260382,5.3220876267049455
0.744,-0.08543546500861776,3.372023844232252,-3.982232845245183,2.604738138623124,1.49316909944872,-4.061778279585329,5.015902042162963,5.410722601911424
0.748,-1.508279014787707,2.759720238172911,-5.553157697447907,2.1244742745486387,0.6809602223312896,-5.10958721247317,4.837429453808003,5.5968017276018625
0.752,-3.5414842497412176,3.334200897947851,-5.765949714845068,2.169252325056619,0.37278076716155084,-5.017198043762218,4.891701660583329,5.959595299228956
0.756,-6.221986417915199,4.834103573192971,-4.812924793745602,2.4079643063517446,0.6468954086844597,-3.9839651408032126,5.3468016805813185,6.3532768017403605
0.76,-9.149950473587706,6.692990385613958,-3.3045436930182372,2.6048605801004054,1.4305476154567907,-2.5204637216067116,6.052952427857668,6.63015400522899
0.764,-11.51208845727776,8.40662898899493,-1.8006887430738234,2.9016688632390863,2.6673647594924765,-1.054009779912514,6.7608964197318,6.864400568510797
0.768,-12.419056974015655,9.812977828702493,-0.455809699379976,3.823802537338368,4.3956845215655695,0.3494500382706651,7.3913261548254825,7.39893463589193
0.772,-11.400724960874449,11.091053334847999,0.983552871494366,5.957928410644899,6.658267022095953,1.9484550542580443,8.130941432026447,8.627113179408381
0.776,-8.785834640345602,12.465068883076011,2.8068290566233873,9.446626298142522,9.282572406288875,3.9638181558585797,9.21766882752041,10.603236914061213
0.78,-5.711969024586536,13.808727355396183,4.860217882742829,13.604340415725579,11.679222856024571,6.141963647683826,10.544634813427088,12.720030570273837
0.784,-3.72254821170394,14.418180047663054,6.279685568925775,16.924847669854337,12.824244910211117,7.544061404281571,11.347872027862897,13.703118374610337
0.788,-4.099227335708865,13.190234418773038,5.71183320003783,17.600712424065634,11.55111555802929,6.8068084738468855,10.29537811063678,12.045487105223941
0.792,-7.250096128793434,9.194837083659376,2.0085220013945992,14.380928488325031,7.096920769993774,2.8355125988377314,6.077644478946229,6.752053398413221
0.796,-12.473284778704322,2.3548311642193855,-4.969900468841123,7.34502394463609,-0.347259144177972,-4.438561952839244,-1.7538782198414893,-1.964612791594671
0.8,-18.202347966568283,-6.150930610678026,-13.891650144362128,-1.8312833437497709,-9.388405459015457,-13.66905681210844,-12.139943695733052,-12.434261497597685
0.804,-22.62974862522872,-14.079451744399385,-22.195520042265727,-10.356458801664061,-17.703829454398754,-22.39874416188113,-22.518927853082104,-21.950374785092496
0.808,-24.39901809358829,-18.91109365719936,-27.011292890919137,-15.386041574499192,-22.792513729684046,-27.97460297539055,-29.6258940834864,-27.740272735569107
0.812,-23.04304209196033,-18.89426426358742,-26.345451740371445,-15.18291294480202,-22.907121354397717,-28.637199601313085,-30.779985118501543,-28.05982857485874
0.8160000000000001,-19.027883135298143,-13.85488448037714,-19.98489093597216,-9.839007441984569,-17.762103138664013,-24.264844237215748,-25.07948869456587,-22.903779262343047
0.8200000000000001,-13.428955672609488,-5.338012648612557,-9.636774214963815,-1.200695330310499,-8.683674247367591,-16.381892584503696,-13.884169601750354,-13.99053161985124
0.8240000000000001,-7.460583930207273,4.003922284663945,1.7571626608953963,7.952301080090781,1.8760662106587915,-7.465317113958977,-0.326621448690007,-4.033962833785842
0.8280000000000001,-2.0943514192357995,11.502327104656203,11.220987024624781,15.076377434383001,11.26156955196748,0.10100328807655856,11.93884916348126,4.353666389021189
0.8320000000000001,2.1075781729327714,15.538847690579942,16.908089782387673,18.842938933108556,17.589471438818578,4.926308171003626,20.18373908239868,9.624395611739786
0.836,4.931059449508255,16.072694851602968,18.666742749040715,19.47825441279033,20.3441431806663,6.938845220824096,23.54959707733495,11.697175022330162
0.84,6.3546743327684325,14.417877348530581,17.810330953100568,18.369830122727713,20.346462224132907,7.069285226451035,23.09726904021672,11.668297707299981
0.844,6.437456788533286,12.423408579116908,16.24990572547852,17.184725845737685,19.148699434741715,6.521556244106325,20.988432198641775,11.032416039622603
0.848,5.315498623691514,11.506494363716197,15.47502347621512,16.989631033337307,18.18377820560147,6.079889549830462,19.281548822472594,10.850201546894557
0.852,3.276538535595055,12.03882667167119,15.91292600409968,17.81933387523339,18.10127755285951,5.829441702108678,18.971561203737142,11.283154374562903
0.856,0.804281755708252,13.345176849438992,16.91534971484151,18.849496529241456,18.59409295053876,5.3624567120615865,19.69065573207454,11.687237388076296
0.86,-1.4669996231515294,14.256233345577929,17.327003760992184,19.017027776760234,18.754459874612053,4.277562876800092,20.152846395325327,11.152811738405925
0.864,-2.911630400170721,13.85949678819016,16.24561737814124,17.692154222991306,17.714068162343438,2.588792505252176,19.01523819223062,9.15587095731832
0.868,-3.1194395524342102,12.022996624882673,13.551460642501642,15.033714537260575,15.2020216942349,0.7948515912637912,15.677448397065607,5.9588028908652895
0.872,-2.0374353623895933,9.435373730513465,9.96477441509783,11.870202700147011,11.731567975444396,-0.4063121814443784,10.629902500668662,2.562547127289461
0.876,0.012178135364259823,7.174167627092185,6.631197952149018,9.21226694247376,8.338625047128994,-0.5676882553868996,5.215875396017827,0.25745775974293794
0.88,2.450307101695101,6.0828957213690185,4.520625544515925,7.702963659646029,6.029063669171427,0.20404481298999322,0.9959768944991083,0.01154029321300909
0.884,4.632028789032256,6.298315484296261,3.9549429604731827,7.295160282222961,5.235820600976268,1.2600894432884586,-0.9668578935047889,1.993645044188753
0.888,6.036364372039199,7.190280622490554,4.520437505365079,7.327761849112464,5.599297242007156,1.7449939429546877,-0.5425531511594466,5.46990801724424
0.892,6.4010813919004,7.7354404952055695,5.395205452258429,6.949522538429074,6.204843407339842,1.0722078199067058,1.4966874189861445,9.120443653290721
0.896,5.764627433087223,7.09191036359139,5.856488887755555,5.632662456961841,6.132141168232733,-0.7490809022863731,3.8905095704508508,11.614692374726864
0.9,4.4415268022093635,5.075021436580071,5.699318125821911,3.505836971383551,5.007158909648186,-3.1020934453421796,5.482088036517221,12.165787990512028
0.904,2.9291925849776614,2.2708729541713115,5.309677872077833,1.3102774625664817,3.2282713660421027,-5.095180544971817,5.684047927225475,10.794888584516453
0.908,1.7627110150476613,-0.2539928189333003,5.371154995765506,0.01463099708217186,1.7364026707091789,-6.035491352044464,4.636484471274528,8.21203302766135
0.912,1.3529858805424162,-1.470978015710406,6.4066835278126995,0.3154465182356274,1.4704961561242076,-5.765409098624729,3.0312387917203214,5.409372415497543
0.916,1.8373653936203924,-0.8686261803363844,8.40876808153996,2.2789257562081913,2.824633340729668,-4.698951871083129,1.7087731379320168,3.1901551485814554
0.92,3.005029506185549,1.3515092443459147,10.799445994523412,5.311316220013067,5.4151703414589605,-3.535369390750979,1.2466759005739403,1.869540452612613
0.924,4.332167999923099,4.425648429983863,12.72248433107298,8.441129254981508,8.282260868027478,-2.853854679125039,1.7155671195494673,1.2605653007017263
0.928,5.141601186043213,7.416375774515432,13.503146046461593,10.753258753362791,10.410778523494091,-2.8182494705375456,2.7037576941328076,0.9090430262285549
0.932,4.851232279914708,9.616555342974397,13.01991752769321,11.761560563334001,11.272118054788562,-3.132161277906001,3.5794340467650856,0.41203717290195563
0.936,3.203295146417843,10.755252354822915,11.752769518087295,11.53767319312752,11.070605946220562,-3.267358779272751,3.8349154440762456,-0.3675290495185344
0.9400000000000001,0.3807199436320374,10.94070342392693,10.49531868829348,10.567287019721586,10.548157399956313,-2.808246161854609,3.334436386462642,-1.3028741738152547
0.9440000000000001,-3.052616641973591,10.419379838210615,9.881469457411287,9.43468422241279,10.459891342703544,-1.727079870862882,2.3332939679356235,-2.192142235546319
0.9480000000000001,-6.355700075164583,9.33673420362877,10.008254083556906,8.524146933812998,11.03859568053009,-0.42706263457676374,1.2829947351274162,-2.9778826487341963
0.9520000000000001,-8.858279225081391,7.667787976813047,10.396986064024441,7.894092002565452,11.789872716652905,0.48006827562134746,0.5501232720878044,-3.829673191177985
0.9560000000000001,-10.162696736250577,5.340435367269401,10.299795976437006,7.352832854595418,11.752602946105004,0.5170865730074503,0.20040986082171974,-5.021791568571631
0.96,-10.206968432547274,2.450829025699708,9.188494953106142,6.667342114810925,10.084941000381992,-0.37076406423353436,-0.015578838889568125,-6.688825167063392
0.964,-9.202031230693326,-0.6151938788990687,7.0971251377546185,5.7385510083483435,6.613522337179974,-1.778398522267298,-0.5002077012576613,-8.641874380811162
0.968,-7.503294638156321,-3.2669903304852497,4.610361949077131,4.638598731351287,2.020063351808865,-3.069841231205926,-1.5691584103572183,-10.394471776559982
0.972,-5.509038761742124,-4.9928544425764585,2.502968873623807,3.5118743933089576,-2.4646776646593436,-3.7333174970877803,-3.2783051737318623,-11.41293967281462
0.976,-3.628989799205092,-5.681004863517797,1.239753628637569,2.431653961900217,-5.682688697677705,-3.669228333030361,-5.4192734861896845,-11.440713044487119
0.98,-2.265932350365292,-5.745036698444907,0.6814322768411705,1.3405117831601379,-7.122135688400985,-3.2172923361483745,-7.654685101984134,-10.682591037382757
0.984,-1.7670281107395605,-5.943080762908717,0.17737590892663913,0.11241357720411749,-7.12691001079586,-2.92995284895885,-9.704415559387831,-9.717590516398612
0.988,-2.312160393228334,-6.949822876129815,-0.987567721658158,-1.2971144338589125,-6.6171328212254785,-3.216986807468942,-11.45699802373576,-9.170043169468794
0.992,-3.7740787779395486,-8.912181499922918,-3.054822084837678,-2.7202891743420974,-6.497257536674461,-4.054862478544207,-12.949633874983762,-9.333146139852555
0.996,-5.665707563561162,-11.27471308666089,-5.543498133352143,-3.794926579295451,-7.119935681827112,-4.957454642908534,-14.269078067728882,-9.988266463324853
1.0,-7.244092549725957,-13.000578799537326,-7.44803533788784,-4.133074738430846,-8.115608521021699,-5.214661131281343,-15.447727388752325,-10.541029849534539
1.004,-7.787911967786652,-13.111453045128169,-7.816494639033643,-3.575295439294051,-8.69276486483527,-4.302981688558438,-16.44632708444299,-10.414653162819237
1.008,-6.949889442915796,-11.266348701925313,-6.377475210251812,-2.382957938340523,-8.215284816351364,-2.2467493817662687,-17.232287129812192,-9.465036380881443
1.012,-4.979025591112467,-8.034659910172676,-3.802920299372187,-1.2117726910084077,-6.67218766684538,0.3095509043192388,-17.861269137237393,-8.139205267878701
1.016,-2.6653225437392885,-4.679558192997461,-1.430026761304493,-0.8463831018499461,-4.738353216697514,2.367811590333082,-18.48567902662714,-7.245719785781063
1.02,-0.9790794543887151,-2.5316714642430176,-0.5483457062139814,-1.8056412329722673,-3.3724198779627486,3.0738774819301957,-19.242250287460575,-7.452069158532602
1.024,-0.5842195901556979,-2.308024775897854,-1.689915941564926,-4.053310595434642,-3.217655010438274,2.164499371708117,-20.10751960886998,-8.826560025804687
1.028,-1.4714006794037195,-3.7494785677986173,-4.343607051824025,-6.979031762079452,-4.186737890237986,0.13024736610992282,-20.846063262263865,-10.722700330610488
1.032,-2.9332666346130383,-5.786147005388555,-7.2490079107746235,-9.67003878631348,-5.490187218470597,-1.9955409340374282,-21.10167049045874,-12.096980598867887
1.036,-3.9331663652135957,-7.158539302427116,-9.127179604219613,-11.341339472900211,-6.106242174027825,-3.131809491193598,-20.61445041741155,-12.095128607354141
1.04,-3.6702177075945057,-7.135874243562217,-9.395636317146781,-11.685817190892848,-5.417923141559967,-2.653432624357567,-19.427685991680956,-10.566174954130396
1.044,-2.0498586145033864,-5.939837227576934,-8.465718815521608,-10.977301311822277,-3.6437999376870067,-0.6699280473984441,-17.9403593076728,-8.19570652996822
1.048,0.2160117130983359,-4.632208978422829,-7.449372708007294,-9.874514460185548,-1.7887039946032495,2.0597240095764953,-16.73360711254616,-6.165157013063418
1.052,1.9711454796180876,-4.515400475979703,-7.449429330913773,-9.03427951683988,-1.1233186956473684,4.534550788866641,-16.241892413652177,-5.523803299599219
1.056,2.2377303883780826,-6.3898043314826065,-8.884625358381177,-8.762959565531835,-2.4771350700146595,6.008373865372398,-16.4741681961716,-6.622672493458953
1.06,0.7741227701679849,-10.061400238498784,-11.223312023828505,-8.884931303674804,-5.731645463564806,6.340256708662248,-16.951030071807327,-8.935248473451571
1.064,-1.7568759862697885,-14.38140347963336,-13.29873621502973,-8.913910861476115,-9.821332818334369,5.99301404256502,-16.937163925839748,-11.370841203594509
1.068,-4.110100236425603,-17.791269125416,-13.997816928133721,-8.410021450726408,-13.24352628902131,5.698945986049113,-15.851370999214103,-12.89037824050474
1.072,-5.078582534994771,-19.059457087619897,-12.886910029202483,-7.279475297461778,-14.788934835651165,6.017992452927256,-13.606686309716792,-13.058425784222056
1.076,-4.091945039060352,-17.828744062702366,-10.420327074633532,-5.845072101400877,-14.094923783834785,7.0188400126638655,-10.69372938022869,-12.209570621793366
1.08,-1.4623693988644215,-14.694652861446844,-7.599839467554903,-4.632324838514095,-11.733246161347433,8.27299441763032,-7.930351134096163,-11.146668282526262
1.084,1.8312460530015455,-10.826843452494767,-5.341605517080906,-4.021096562360017,-8.825525491007287,9.131158729509107,-6.032332793932005,-10.581705990046352
1.088,4.6706577059706,-7.375736639974395,-3.957308529641563,-3.9823998898893564,-6.423447396757782,9.107829375138312,-5.2578046303586214,-10.674859180949015
1.092,6.340878999147321,-4.98154176384517,-3.0480423526547815,-4.063375634203097,-4.999965534663614,8.15678158250902,-5.313865902212345,-10.94976460471822
1.096,6.793044591007387,-3.6297259263855532,-1.8785863563962542,-3.6567582814678516,-4.310885864347242,6.666587140560569,-5.5791134923739385,-10.633094488579797
1.1,6.530761493720291,-2.863399212345615,0.03993128477140928,-2.3902839512086054,-3.6617068593104283,5.210457201984749,-5.486288353395594,-9.202823764341991
1.104,6.229775393498656,-2.1844368378791414,2.5189010479351044,-0.41214020676179075,-2.4027719368925107,4.190162971242325,-4.8420593674528805,-6.803033234101852
1.108,6.340961012008556,-1.3954055742562232,4.694815197564115,1.609533991999573,-0.3656403242597359,3.5979048684809793,-3.904719153299097,-4.26111654136829
1.112,6.908776971108846,-0.6849043908635215,5.499125321628374,2.80600098375886,2.0065124887159174,3.061041998309225,-3.181234436494294,-2.6746202325658572
1.116,7.649132044482297,-0.46041472422873,4.297383393473821,2.56984553703764,3.890018332795547,2.1275352584689653,-3.0938493579797988,-2.7968691181537864
1.12,8.208978597055498,-1.0461587350467698,1.342938183587353,0.9183384175759919,4.533773411407578,0.6386450409952111,-3.715012809815784,-4.573038526010009
1.124,8.414372665176538,-2.4398862124974556,-2.243981293104534,-1.4598295449688967,3.6702921318744632,-1.0680927919475598,-4.728885855062673,-7.1055014962545755
1.1280000000000001,8.353459649862302,-4.266716038625997,-4.979419562651257,-3.515798120404116,1.6617813136770465,-2.278218806173067,-5.631131365884849,-9.084619277457502
1.1320000000000001,8.274157465608003,-5.938623538662064,-5.72693249450802,-4.343662217037373,-0.6882449178955241,-2.2849976810337127,-6.016817329746129,-9.454223144062643
1.1360000000000001,8.391448052034036,-6.9231175946335455,-4.2549940562171855,-3.6095320427144877,-2.531777171042812,-0.829833593274194,-5.797106809226994,-7.947532176036555
1.1400000000000001,8.76096302364294,-6.95903254626206,-1.3171016614550037,-1.6676464863491844,-3.3545795513935843,1.6904432578870443,-5.203354586416699,-5.202442503756645
1.1440000000000001,9.281369305442308,-6.124644703674834,1.758633556986017,0.6691568340989562,-3.1481135249068757,4.370050270251275,-4.597920743035695,-2.4103862252044523
1.1480000000000001,9.795613644507833,-4.741745401986167,3.7379582129335174,2.5536130562478654,-2.3108642485613142,6.234846808733265,-4.2268422665827785,-0.7046488056134956
1.1520000000000001,10.203883231821894,-3.178144313874197,4.075820259358912,3.489867582745349,-1.3541162258046615,6.751351448798469,-4.0495154630740835,-0.6126468998973644
1.156,10.489240084852788,-1.6744604593545054,3.1210473187862107,3.4759349180211094,-0.5846244893611163,6.103153096590972,-3.750099630704633,-1.8455277225702167
1.16,10.669158816533956,-0.26671612573580905,1.880023118944254,2.8737116526143542,0.06753054236290756,5.091666134655533,-2.892308923513372,-3.501296521092777
1.164,10.724857183375923,1.1671426011258879,1.468291774101397,2.1124390874602614,0.9783518769057462,4.68281219338032,-1.1379256675802107,-4.544003808567696
1.168,10.57784388561258,2.7732488048522423,2.543626222461544,1.419742945520515,2.562246508851903,5.443209794393606,1.5828550194151578,-4.294908571970405
1.172,10.146525012004687,4.585621681082898,5.011408138712953,0.7485775565599706,4.96489363632805,7.198841345286413,5.029129576081218,-2.686405682997125
1.176,9.431230417625892,6.452998901120896,8.102769935228602,-0.08295496300597271,7.8975097855770215,9.103013522260817,8.707583370013275,-0.18163399158672444
1.18,8.563713631035325,8.081373728230398,10.7781660388127,-1.1439882788071678,10.71254378316177,10.108566788793759,12.009457217848158,2.5498091366431037
1.184,7.753462486552497,9.157175213774625,12.20397889623451,-2.2340995252656874,12.669509937895008,9.563418447450802,14.35792848589847,4.978134523303806
1.188,7.165911756451999,9.48825387235518,12.065001301765776,-2.93846061152016,13.248467902644489,7.5934911901843005,15.326802855016528,6.898515921533319
1.192,6.827560708341769,9.093573021536955,10.607927121865576,-2.8604823022994683,12.362882794311801,5.07641178814678,14.737639738737013,8.391619223036296
1.196,6.613608973361087,8.179798839847539,8.417065803014157,-1.8975001127833693,10.378636379752997,3.202913710198686,12.710690171713829,9.632013403411186
1.2,6.357746055819056,7.039629723767437,6.103875653844343,-0.3578360588077505,7.953976199434395,2.8854246658045084,9.67232799737808,10.69958282629645
1.204,5.99571121563014,5.922881405591663,4.067692603824227,1.1588712524430678,5.784451298919471,4.309387990576131,6.2781890087724035,11.506099747272868
1.208,5.629366185627071,4.951123503465697,2.434347952185054,2.0598001039262828,4.379297326484533,6.850738069387026,3.2490667707436924,11.865271687888592
1.212,5.463175613401056,4.134045279762475,1.1711971807930537,2.074549277956402,3.9551831454522395,9.398052851938074,1.1755182135065505,11.64061490971008
1.216,5.627718370678805,3.453063859779228,0.23813260910440182,1.3939308579760832,4.456527900106122,10.879008491972911,0.33872703569999274,10.860422789662682
1.22,6.037130472605883,2.971132557930434,-0.3024121197790892,0.5747598117654604,5.670646137769669,10.749697846418242,0.6706785615935016,9.743399839015314
1.224,6.395457841611298,2.8788212962411563,-0.30005937087480916,0.25174929009885183,7.347570087921039,9.188280478664604,1.8593908210887087,8.618648732407912
1.228,6.368629203624391,3.4173661095244245,0.35869968087781245,0.8099177384038754,9.252341176406944,6.921914243229178,3.5382537945812755,7.790556942482295
1.232,5.841608310642017,4.718048946916511,1.6316153832361255,2.210689900619638,11.162638751882564,4.833197961437726,5.46427401381629,7.433807520279248
1.236,5.065337791922334,6.646568143204866,3.275676266959893,4.042907702952583,12.849137021072186,3.551184404904016,7.565655163588779,7.566590297016762
1.24,4.581598283670725,8.772087599681615,4.934905807748139,5.765663560484013,14.08548335464095,3.2497304610294995,9.845687781322024,8.096511532827902
1.244,4.9303158157777265,10.494599523317143,6.287833037602085,6.979796842255296,14.687391657523932,3.6985065411286318,12.198794051445354,8.87900002025535
1.248,6.285997145322871,11.280679960213902,7.159603907029092,7.567446269249158,14.548427187945219,4.480507481152035,14.273925630087605,9.741862223887345
1.252,8.280721740869954,10.90417443908807,7.555494729634017,7.656351742103321,13.652284635130444,5.245819794006485,15.519933407002046,10.477500897949302
1.256,10.128729649761837,9.54000427055606,7.582254914394554,7.451392903574961,12.05348019986583,5.85060191018523,15.40427925960171,10.835749457381391
1.26,11.019618641787513,7.66475100176138,7.349532124086877,7.07208885218492,9.850286067759628,6.356239822896782,13.71271677520031,10.559914521731137
1.264,10.55829433135391,5.808773382112497,6.904782246109983,6.495597195171174,7.167171095363312,6.908445403345919,10.73629049933405,9.46893119944562
1.268,8.989728064020806,4.292121729534424,6.232237676575254,5.627598546234565,4.158847630663097,7.587491055604206,7.217614891463724,7.552281363025708
1.272,7.081760766847346,3.108915045009107,5.321673231497135,4.445607015504879,1.0306355211345704,8.335843838617834,4.064069083467219,5.026524686743426
1.276,5.711464966863698,2.0175050387809965,4.2299819823139595,3.092873013675538,-1.9492217611275198,8.98083831803405,1.949005478830082,2.308063732749103
1.28,5.404428488223483,0.7883404011494703,3.1013024004988132,1.860052912149071,-4.472587878415567,9.356197622066047,1.0272067179351105,-0.0973784886107929
1.284,6.0836774957038475,-0.5639033280717802,2.1091512335935954,1.0362120986500258,-6.267292242532836,9.41748853363055,0.9097291567416486,-1.759061833035827
1.288,7.167352721600693,-1.7236811333641853,1.3597343766874133,0.7188507896290619,-7.1932317642150485,9.283859009662178,0.906353631298692,-2.471723813390324
1.292,7.9522670425299005,-2.2364464543731657,0.8429574568700373,0.7172812436474301,-7.304035181115397,9.193875228961438,0.40649572379113086,-2.324489041826134
1.296,8.01539117823804,-1.8171849727962464,0.4451341952693748,0.6139479302136808,-6.831406293414698,9.37369539869514,-0.8168368588651909,-1.6566404819648681
1.3,7.4073023440664985,-0.6055114039952622,0.04246130540986304,-0.017499699195588914,-6.086980084905944,9.9206478628167,-2.527463234451234,-0.9106004457328387
1.304,6.52869379903003,0.79824597183763,-0.4027310883767248,-1.3685076144188466,-5.338169050153841,10.74061260635919,-4.204397640511468,-0.4477282900196542
1.308,5.784234781345235,1.5662307454852926,-0.8192311959969141,-3.267235907552842,-4.726925806242868,11.554671352125538,-5.354563981519436,-0.4031026490887841
1.312,5.263247019458434,1.0474630993561096,-1.0827639610139652,-5.233562034754517,-4.27012901935073,11.994974662547977,-5.755085208747321,-0.636934196871068
1.316,4.651723521957781,-0.8767689137274055,-1.1324522217715218,-6.705380005729603,-3.9247176085115427,11.733320663761178,-5.516845389293039,-0.8018991290673689
1.32,3.4540536754585123,-3.671107499604753,-1.0391836650395208,-7.29274964821782,-3.6540163706147855,10.620072128008971,-4.936137627895218,-0.4946406013052709
1.324,1.3753104531214297,-6.3521078241871844,-0.9894907727695692,-6.934000694578917,-3.462516024679722,8.76230508882571,-4.260559394530857,0.5594542615317355
1.328,-1.3881801482629832,-7.934258583135186,-1.1933019782870442,-5.889368129013956,-3.389105201349439,6.496877418678647,-3.546299194019875,2.349259632097069
1.332,-4.146313834247664,-7.885616389135704,-1.7561421329673343,-4.588700953258128,-3.476447337537119,4.280465711154029,-2.690242457151384,4.5177410436618075
1.336,-6.051338853599748,-6.390306979356902,-2.6297774091763864,-3.448238950093016,-3.7580536431234286,2.5176015254222843,-1.6193890954841352,6.437377913280982
1.34,-6.56891641921767,-4.27908770503926,-3.6503439248959864,-2.744633087354982,-4.270812178443182,1.4275424660605625,-0.4817572178876901,7.419970138983192
1.344,-5.811854897899429,-2.6589639449976064,-4.646990837022069,-2.6055957824408313,-5.079942301009753,0.9928255059894182,0.30962332625411015,6.989037168077113
1.348,-4.534598964806166,-2.426158061812961,-5.551983556016228,-3.0835177453718607,-6.284615101215593,1.0001235475366261,0.2399405993735766,5.097464779971692
1.352,-3.7663760281254612,-3.869972917025945,-6.420608109763663,-4.22164078848108,-7.972488260260377,1.1699498955316208,-0.9966408999442748,2.1964832366525133
1.356,-4.2828308838997335,-6.541778822435516,-7.355406525232846,-6.042202917838127,-10.120954696819426,1.2987222723361245,-3.2270543003123797,-0.8823424313693573
1.36,-6.181938741115612,-9.414852353318551,-8.353840739280582,-8.428978105194005,-12.48545106810827,1.368774819889751,-5.725932455890856,-3.184063095207286
1.364,-8.799255449884274,-11.266914033507716,-9.202044561358619,-11.001493786066174,-14.571204317415978,1.552989407786944,-7.438822221791264,-3.943719618696602
1.368,-11.020555105008128,-11.137967966444364,-9.505945202054562,-13.112116565152215,-15.750535004383568,2.0944652337707224,-7.433094479566236,-2.846050023795662
1.372,-11.81539765055157,-8.679425169057684,-8.846509812936059,-14.015487165286473,-15.493465722703574,3.136204407421101,-5.348116043509313,-0.1326762420440346
1.3760000000000001,-10.723409806500468,-4.286683026872456,-7.006302523408603,-13.167473345552484,-13.608291024235399,4.581693550075339,-1.631526871516801,3.481491779025062
1.3800000000000001,-8.044231676139407,1.0328604275404283,-4.116101710870045,-10.496356700989278,-10.353244636334509,6.091138336470948,2.5975286693293693,7.043654677963206
1.3840000000000001,-4.654609337149598,6.004172752856757,-0.6434275063281074,-6.497391979104684,-6.355990239081679,7.213153526329412,6.009359865442181,9.658250840281571
1.3880000000000001,-1.5722430072621565,9.504794605354876,2.763934060717559,-2.079647567062181,-2.3817977191884285,7.580139240213382,7.624410203300371,10.730602131912232
1.3920000000000001,0.5090485784990513,10.91755953845843,5.514388197190736,1.781738503663425,0.9417502189818467,7.081999557704324,7.2294323955079225,10.089493039342099
1.3960000000000001,1.4709873955553179,10.284623416547102,7.255126269675518,4.415322109992628,3.3070338330452707,5.910735149799617,5.435840434989664,7.98071489505074
1.4000000000000001,1.7098844181835329,8.219396535542796,7.942660514628907,5.673074027323068,4.73684281504783,4.473124627204159,3.365166071590611,4.954381750660853
1.4040000000000001,1.8284593424472622,5.615704720820123,7.783133216498742,5.89393662315589,5.437268893230725,3.209684122380239,2.1156101575351016,1.6981204689657412
1.408,2.267136275046703,3.2732005407345426,7.085001572414607,5.640781143388333,5.593520995460972,2.4121508753616996,2.261871692762127,-1.140415392180567
1.412,3.081261342076589,1.6121382891500424,6.137166118503233,5.371086552172758,5.247591255323338,2.143076768038097,3.651308501327607,-3.099830944362439
1.416,3.9456242693629178,0.5798373112269708,5.13913936780426,5.208264543376537,4.323664291839282,2.2667076122765923,5.5617902843364355,-3.9939041210127666
1.42,4.372583108811381,-0.21592894922833894,4.214309487222181,4.942477354541781,2.7808491139026272,2.5813252334593644,7.130630570851757,-3.9179025100188065
1.424,4.007037435054594,-1.2365767090442474,3.4486971019749713,4.22482467143271,0.7619443430284059,2.9469440084790337,7.812130554738486,-3.176757630472532
1.428,2.823151529745936,-2.7589902558317045,2.888820770599737,2.8078783470720357,-1.3928584680625882,3.3128381069625177,7.603239724450553,-2.1704315237862906
1.432,1.146725464701951,-4.747819656041514,2.5245733395339918,0.7136566583622324,-3.2867054390833976,3.658703667762201,6.948109446170679,-1.2584242084593948
1.436,-0.5160905335570094,-6.914611705686168,2.2552959810190507,-1.7672818169009368,-4.680947459604852,3.894987463339296,6.383389063056952,-0.6495719114359317
1.44,-1.716902997434377,-8.885222545615592,1.91154083404651,-4.200366909114138,-5.622927401164592,3.8436797126775395,6.168530608041256,-0.3507266169061878
1.444,-2.245267083392511,-10.370571186573908,1.338318360118404,-6.167075074070008,-6.383215540454911,3.321417063167636,6.132028966664439,-0.1866054033211615
1.448,-2.169797313233839,-11.246651079439374,0.49480520295475783,-7.38264564553027,-7.21759742111891,2.2738232988672,5.823885573551735,0.10339687936063813
1.452,-1.7289433365881184,-11.506212200873152,-0.47420229119328494,-7.718575538855067,-8.092928394428471,0.879949797117934,4.887707804373199,0.7273476401175276
1.456,-1.1700505207880605,-11.163640627306219,-1.2763387877237726,-7.16592964508228,-8.570210046476884,-0.4829292995332415,3.3830610322994183,1.7171233447539178
1.46,-0.6262770333294392,-10.194029917807145,-1.5959358968082236,-5.7853314951541215,-7.956848501491078,-1.3960228918440616,1.8448123920463861,2.878949453722225
1.464,-0.09728464254065772,-8.557126037014944,-1.250532114073529,-3.698481151360106,-5.691395101964819,-1.6215139534436114,1.0064288453980275,3.841819094038137
1.468,0.46733385259346605,-6.300825348447779,-0.2993330296175847,-1.1268020001213657,-1.7648565411826695,-1.2632367819197663,1.3358576584414326,4.191171456991303
1.472,1.0740429570632586,-3.6450812079930777,0.9904591703122332,1.5958757639432575,3.0958471942802905,-0.7282845207658342,2.700257431767149,3.653866433906837
1.476,1.6417812721716776,-0.9679321950767164,2.2888328728750222,4.066974497421621,7.643151257177408,-0.5055602154977734,4.385694608073634,2.269758030277745
1.48,2.046665901375146,1.3262203124197804,3.398266545086444,5.935461580235485,10.661475438341842,-0.8592671105143435,5.511467315409159,0.4653125971224761
1.484,2.2106524275452024,2.980343690540005,4.362889539378347,7.035002747402977,11.565501902789656,-1.6382282627293299,5.59257076642084,-1.0447865486758492
1.488,2.1575098969243554,3.978233841750774,5.3955713300138886,7.437798170727357,10.698058467825668,-2.3388134719549285,4.88366768016181,-1.522423188506946
1.492,1.9884277466156473,4.490627436725487,6.673724113824232,7.392873748983459,9.135447104772904,-2.3958251227938963,4.273024231105532,-0.5467023610767132
1.496,1.7855819938330397,4.69602787399654,8.111961908783472,7.1789137596706105,8.090661214355693,-1.552841870277411,4.738999997249713,1.730059027120582
1.5,1.5297343635809901,4.609632137837423,9.290653444390442,6.976163544385559,8.25479609196102,-0.050251322764411466,6.705468383886457,4.571477085451413
1.504,1.087590434801635,4.055538775725564,9.616858538211908,6.8226137013361985,9.446264167279134,1.486007966807923,9.701803708804212,6.932654512094085
1.508,0.3069127062241439,2.8238958979633138,8.650866923326745,6.673308352905924,10.772725607490386,2.3991364401008957,12.562045283973355,7.923641833053028
1.512,-0.8154196231958879,0.9341638247425614,6.435403298990341,6.518423636877443,11.212540804001584,2.4116746032514587,14.084822115161227,7.250327373499856
1.516,-2.034787575548008,-1.2033169124869219,3.5838547500083324,6.445378774646403,10.251861227000925,1.8160512476770223,13.731680374601886,5.39081501917774
1.52,-2.9305922717409594,-2.8872921395792908,1.0336012052490944,6.579175249297242,8.17974956492423,1.3126687913251782,11.908348516535632,3.3675698261453983
1.524,-3.1500587504734563,-3.4926441532040178,-0.45314413473609294,6.908074627708993,5.850552889055978,1.5466837004140568,9.616265153652554,2.194339156474285
1.528,-2.7097258219392337,-2.9375787101043795,-0.7978978213190238,7.092561232816648,4.044933035203661,2.5881398296166007,7.6645966171492,2.260084991298243
1.532,-2.1453768271315834,-1.9487308390424491,-0.8027253158326515,6.426139089757173,2.8452853205377027,3.6926781756231826,5.954436983500985,2.9817260601115607
1.536,-2.3768915109764723,-1.8922706464407935,-1.8730656241672703,4.045640144046388,1.4687384720139107,3.5249950225769195,3.3458102210803498,2.9725065695727855
1.54,-4.263011742570247,-4.1464814847753955,-5.300178460036749,-0.6274629082856542,-1.2630833697970065,0.81583655220977,-1.6819565340134757,0.7176893192412861
1.544,-8.042439485173336,-9.29347331452668,-11.442820020109778,-7.41914681942355,-6.062146933216516,-4.876964988654331,-9.910635068319154,-4.561642116467434
1.548,-12.976724593493724,-16.56069216553664,-19.254269254995535,-15.175994600221234,-12.43674468446088,-12.726509562471731,-20.47150631366095,-12.298330065254515
1.552,-17.422595314676233,-23.85803151537262,-26.4362565366808,-21.95328954756014,-18.564510501926957,-20.761075629784987,-30.73770477868565,-20.564970218521324
1.556,-19.39723120109258,-28.496224586837933,-30.251151194165917,-25.626802535795356,-21.943629361183707,-26.565867658675806,-37.237864017044615,-26.72150937295841
1.56,-17.41165891311252,-28.297686693317793,-28.64483620633822,-24.68948555325994,-20.524798740324595,-28.231372673937344,-37.17550681250353,-28.446120128842455
1.564,-11.200701065434385,-22.594297552734776,-21.18839396831971,-18.89996795255188,-13.749901739865233,-25.128030424123093,-29.796907771395,-24.683028803081044
1.568,-1.983497761130102,-12.61851208313389,-9.399265912371614,-9.483410246258224,-2.940729505447504,-18.1576239848622,-16.885707222807923,-16.074242571186705
1.572,7.9182075584442435,-1.0751582900946555,3.746018060936911,1.2497839004413192,9.183544237472068,-9.362189666055977,-2.0823012252296937,-4.684944973437188
1.576,15.943527281866372,8.908574757337984,14.886080942065215,10.718271270340361,19.619408565375032,-1.1070901645379605,10.626122916215165,6.828982059654324
1.58,20.25554939550567,14.973667296710596,21.48468393522539,16.982135709889704,26.26067153530153,4.800989579759484,18.50438783991044,16.208331645913013
1.584,20.374455026106208,16.320033640357373,22.65360262863321,19.353327637856804,28.568277686178508,7.661014383795656,20.979419949835993,22.28556897299488
1.588,17.213790720485616,13.774169484754552,19.26296181163399,18.45414735183396,27.453995240286996,7.8891695753182445,19.484596065215605,25.126858819601512
1.592,12.551297207604065,9.184253952019873,13.37894636441311,15.747705260586338,24.539883919809185,6.58783230474038,16.450524378423403,25.65266802135551
1.596,8.208890635579188,4.495859035527384,7.317372856481159,12.784538397181862,21.260411013428243,4.91803950796839,14.02770064764551,25.00485928275262
1.6,5.35497235780618,0.9902794519001366,2.785645982902336,10.564719199067273,18.31655614486762,3.6255390930810383,13.229563171586554,24.015391031179746
1.604,4.222114413769733,-1.0047470785089514,0.44042843309545887,9.285846643367508,15.692520521351854,2.897172455148903,13.834448794085207,22.997098563235305
1.608,4.282992220992248,-1.906534231067292,-0.05750391063226212,8.519913646297967,13.079693129819201,2.51169357089543,14.91738706376566,21.857852091103904
1.612,4.720605941658529,-2.374567590907883,0.40798551286646423,7.669166507403661,10.3611931011547,2.1508332839006377,15.606059271146856,20.384438961518086
1.616,4.9041571262934305,-2.844827668304769,0.9550566876743247,6.4074535036740805,7.835850967191761,1.6554677232452035,15.58937226770686,18.50725165210501
1.62,4.659938349259271,-3.322810321087999,1.1073572876726399,4.890223194511693,6.088817212158405,1.1186812907396946,15.158477809014343,16.417520497017996
1.624,4.239410707052026,-3.4859434437844112,0.9069894183119167,3.6369258715987463,5.641319558348612,0.7875804659991097,14.863741625468723,14.498454164233967
1.6280000000000001,4.0718924751722945,-2.966998812776141,0.7446070940317239,3.1905723501581047,6.648595590275773,0.8629582040870349,15.077761722844352,13.155387595455135
1.6320000000000001,4.482960288681585,-1.605211764430476,1.0636293181857372,3.7892332684730374,8.839445271484088,1.340415841531092,15.753843811282518,12.647983394458272
1.6360000000000001,5.513386394481412,0.4595988206560877,2.0825755064992943,5.227897891473368,11.701090022725298,1.9627798214945833,16.480740057948488,12.992050611121295
1.6400000000000001,6.909365406072791,2.876288481823798,3.6769297180502862,6.990094773232968,14.756910804473193,2.326787312757215,16.756357299535356,13.950144521872492
1.6440000000000001,8.239357740039528,5.259705020391635,5.436101065294479,8.545572462243975,17.72165178054944,2.0664251808542815,16.27015622862977,15.084969604567119
1.6480000000000001,9.05813123310855,7.332591471125712,6.839719985955686,9.623106723332524,20.433127910127325,1.005382193967149,15.016099666685683,15.85311300417213
1.6520000000000001,9.06394316206949,8.98976841133932,7.489809202688782,10.320586048041209,22.67048097353803,-0.75803781759884,13.234145552761657,15.738703305500845
1.6560000000000001,8.191752207877837,10.278134759159942,7.26827307445053,10.997253197887266,24.051312071047615,-2.878082498079026,11.246362261736452,14.415169069026597
1.6600000000000001,6.641492731926327,11.34376897907281,6.366499699215787,12.028182107624843,24.131011817273677,-4.868924857817752,9.311046289279275,11.887860363661042
1.6640000000000001,4.8362850683967435,12.372059932989707,5.165425216425254,13.55917822206971,22.665614006291964,-6.263358168340851,7.557039284276541,8.542674410092
1.668,3.2911870313559177,13.515470236484333,4.004480255034708,15.387498271645603,19.858325805003425,-6.772365659236995,5.982134330071421,5.046406857956805
1.672,2.42793838507603,14.811035161570361,2.96766984083336,17.017777227050523,16.36649280508933,-6.386578456370201,4.487004457190562,2.094376099281275
1.676,2.3793262847656407,16.080740237615057,1.7811892219328644,17.83908742788629,12.998075258528106,-5.407450071745545,2.899683017470158,0.1007082051963728
1.68,2.8715965089630466,16.887387389116014,-0.07322641156206267,17.359810129802543,10.271728956756728,-4.3495881461788395,1.027461218629405,-0.9940998434870814
1.684,3.281942534841969,16.62374312445194,-3.054127175760579,15.408274974519587,8.117835232108739,-3.739985717337892,-1.234779224049884,-1.6757172917928642
1.688,2.880973565188868,14.744367247208764,-7.215075256654104,12.213860385563912,5.943057617761649,-3.900356565416612,-3.7849000330551483,-2.5717732174821517
1.692,1.1681146927435582,11.068250281933516,-11.997688835037115,8.342160732709644,3.056649231481554,-4.809015529943951,-6.25300637438549,-4.085447796202468
1.696,-1.8539832688261426,5.989617629505791,-16.338284308270698,4.49921326831094,-0.7895761180435583,-6.135408032227865,-8.091974797922434,-6.153037434748899
1.7,-5.62584242743027,0.4496658550947821,-19.064710735280826,1.2797094365382131,-5.080295342728076,-7.414214382980089,-8.816532183927457,-8.274672877655124
1.704,-9.267288112084243,-4.3814743068374575,-19.425581348044922,-1.0571247601930582,-8.685121027520825,-8.28992057896577,-8.297373301161727,-9.820368054208913
1.708,-11.98860284270952,-7.585624127421276,-17.49199904951457,-2.6808311521003687,-10.4330525613397,-8.70049222390029,-6.937592017196496,-10.433867822969649
1.712,-13.462888195922565,-8.90131731476706,-14.195034762914613,-4.093870768325004,-9.814618872686795,-8.884523706084241,-5.5660087605746655,-10.299973444040674
1.716,-13.967342662868612,-8.840841770876985,-10.978195808479864,-5.880708627428842,-7.410130037709719,-9.231116213881059,-5.070179384392558,-10.101094200953375
1.72,-14.194735966407602,-8.413978459744934,-9.186413242702175,-8.38347398814187,-4.7436042763673445,-10.031438093143429,-5.932875531318066,-10.663233095617674
1.724,-14.834867293597922,-8.5848869369934,-9.489490061495731,-11.468096619071535,-3.602678992080811,-11.278186096326754,-7.932016726082871,-12.489099337380168
1.728,-16.169838333795344,-9.755716315697025,-11.639206710237834,-14.523814563069243,-5.162051668142623,-12.636856601551113,-10.213255817927118,-15.448803361784154
1.732,-17.89548653418278,-11.558102789113534,-14.65270224304794,-16.71568609667803,-9.388143631748738,-13.603083188887162,-11.723129375302063,-18.828071218515326
1.736,-19.28908873403191,-13.09161014259919,-17.347524284415865,-17.40013001189928,-15.06020378177662,-13.78459779838967,-11.800480313340817,-21.718347965016353
1.74,-19.619574122854143,-13.475811026839484,-18.920327157854917,-16.47575658606421,-20.377501725555142,-13.11571135410582,-10.582798891313736,-23.51769581343223
1.744,-18.567768397066445,-12.412502369858455,-19.281658164566775,-14.475488069780692,-23.83801187247034,-11.8836819238717,-8.978546499349243,-24.25714119262798
1.748,-16.432154048430412,-10.443046433520475,-19.009448036019524,-12.339741577818904,-24.922923934021767,-10.559772625760713,-8.207888589460179,-24.556968019502328
1.752,-13.998446498236657,-8.735260527139161,-18.959652604414362,-10.975676179058546,-24.249848340033328,-9.53058697899244,-9.142723693135512,-25.24771791283906
1.756,-12.161714984184528,-8.507205847395257,-19.787903356928833,-10.85328296107772,-23.155596878946582,-8.914313361169908,-11.82530003482508,-26.881145468830304
1.76,-11.510590405158833,-10.380366081250461,-21.606636826721584,-11.834397764964205,-22.94115998866996,-8.531775991984713,-15.414064736933835,-29.402707263419202
1.764,-12.083073271429383,-14.000459814957459,-23.932464825705722,-13.313234195497873,-24.191002012425592,-8.042332110991183,-18.587635883279553,-32.17860191260961
1.768,-13.4158488450385,-18.140797394278263,-25.926823119303414,-14.581483403902496,-26.511916523815607,-7.164742262854157,-20.187124086734393,-34.346592499405475
1.772,-14.814184247290218,-21.22675507608181,-26.763908611932848,-15.190587612891132,-28.794751925846064,-5.837072301696085,-19.739697152688393,-35.283496484248644
1.776,-15.685779661517218,-22.03410144464955,-25.975083109397257,-15.127942756697593,-29.835567859990064,-4.260241809366447,-17.629234356442254,-34.93309796188544
1.78,-15.76276245569455,-20.22193151742554,-23.608373361385137,-14.722624363775452,-28.959269495281195,-2.7908820721770624,-14.838281089753819,-33.803411734385016
1.784,-15.116941311670203,-16.458738883070353,-20.167796806267717,-14.375040201753187,-26.335905874290987,-1.7635096663040262,-12.428872640713234,-32.65069949612425
1.788,-14.011427991299534,-12.101747840216202,-16.40268753038766,-14.299383323340074,-22.852310547410614,-1.3504806131595406,-11.070628356006022,-32.04896577105719
1.792,-12.709414869121517,-8.596848237029866,-13.038687959999876,-14.437259041992933,-19.652645385800042,-1.518302274637171,-10.835811986257475,-32.10708959343901
1.796,-11.373238259708307,-6.893242498983477,-10.576844997829882,-14.58631156845496,-17.615550287292685,-2.1055933101997537,-11.330433515282856,-32.49288696411418
1.8,-10.071342796688253,-7.103287041966703,-9.181426035760612,-14.602394404359835,-17.00486023611936,-2.922820125187042,-12.020551969583376,-32.71119306607026
1.804,-8.843804159239285,-8.519141402542875,-8.672165858727878,-14.508290413395049,-17.42886748117054,-3.811770379769318,-12.531535194107398,-32.444509396875965
1.808,-7.750944124669761,-9.943824827548339,-8.622263244638257,-14.427294228098948,-18.080870365820278,-4.646531347817706,-12.765748861199198,-31.73450897511265
1.812,-6.848343596641334,-10.175189165757988,-8.51674268331219,-14.401366117804619,-18.129414645700013,-5.292433175187597,-12.805773280931794,-30.902297101600332
1.816,-6.141350422735883,-8.469885455220094,-7.956684690437158,-14.271514892061397,-17.080364008112557,-5.606988939632811,-12.733286179582569,-30.277473103010458
1.82,-5.5610037860272215,-4.810375872030722,-6.818292993810687,-13.727226298236284,-14.946693839271909,-5.470010282383232,-12.507012663670073,-29.90919877686578
1.824,-5.005202619097222,0.10413278184473695,-5.301581983541668,-12.526735264820529,-12.194622678848596,-4.835753116013418,-11.9820687179933,-29.460357454839695
1.828,-4.445910049826644,5.120394938428225,-3.8420743597179063,-10.75511349346379,-9.524591415150958,-3.7745350976337937,-11.050595358633085,-28.36413601035756
1.832,-3.9982136003846347,9.05608978744888,-2.898136422073405,-8.908391558607383,-7.5944839269498265,-2.45441723867361,-9.779594775379882,-26.167744887401234
1.836,-3.891959327349083,11.112371158354117,-2.7440724764305164,-7.714636807412048,-6.801738084656916,-1.0975231264069205,-8.44363441664824,-22.870349259698337
1.84,-4.328055492044288,11.134968136308167,-3.3423813782063427,-7.739317363003545,-7.167591917891429,0.09018440165225117,-7.399677583764227,-19.032856545473358
1.844,-5.293494115049427,9.62337195233642,-4.366542524343699,-9.00058983984557,-8.350395708812682,0.9692059834527624,-6.867274500340263,-15.582295821899894
1.848,-6.476836016696393,7.480114286023993,-5.379337182248225,-10.854077858883512,-9.771186137633299,1.4647193999468404,-6.778168996380936,-13.403233942452363
1.852,-7.350496859238072,5.617853122238976,-6.039339490938946,-12.24381235081534,-10.805977803850055,1.5510323973360292,-6.785614572390813,-12.9267497751269
1.856,-7.423754521136377,4.584567255481913,-6.248920493755458,-12.227118325529894,-10.9967362624757,1.2225817846027232,-6.453086454402912,-13.930893451463527
1.86,-6.524640822845135,4.397240568462764,-6.138974044901401,-10.462084425741125,-10.188652497847187,0.5152672779973475,-5.508602104714368,-15.633938872362256
1.864,-4.9167488237518615,4.66930270963026,-5.905712319567645,-7.365649890686523,-8.546049368168926,-0.4288855163929961,-4.006812201821527,-17.021831805334564
1.868,-3.1759137117315333,4.937630823113125,-5.626736221917035,-3.8554677587313786,-6.441556176848831,-1.3237861455736861,-2.3005108241082075,-17.234688721079756
1.872,-1.8668233101811422,5.008968306586645,-5.161239453411925,-0.8271015327098503,-4.270020188522778,-1.7701252499089035,-0.8132449903437662,-15.84705851011414
1.8760000000000001,-1.2131143849003205,5.10482598283974,-4.235614865095625,1.299632357187174,-2.286662997512975,-1.4045249922923586,0.2284917913305584,-12.947533364119938
1.8800000000000001,-0.9708118098035916,5.709672845891818,-2.647035386257901,2.707033574213824,-0.5383857910484551,-0.08329744803072914,0.9432477653786009,-9.01878029595398
1.8840000000000001,-0.5985771895775214,7.203746287636448,-0.4551761852445182,3.91090842817464,1.074070676083796,1.998852049089615,1.718391491287374,-4.725971813458427
1.8880000000000001,0.3435281908901189,9.484843239891825,1.9494637222716147,5.272573156386269,2.6405004579398437,4.324184872896877,2.928546335296419,-0.7138411046332989
1.8920000000000001,1.8251503415103691,11.844333528851442,3.986228380996071,6.632779483035179,4.094568218916523,6.236828994213884,4.63884892632171,2.530949062148031
1.8960000000000001,3.234563199954808,13.208233880653298,5.138145649824462,7.304741451769203,5.169235329718344,7.194922588479263,6.47179752226202,4.736961009226114
1.9000000000000001,3.633892375836659,12.653935993014862,5.197551572779712,6.47199282531652,5.5120477417058265,6.998858870463983,7.764996357089784,5.870910330515803
1.9040000000000001,2.269187578553624,9.934584310469539,4.360011806721494,3.7552287835103773,4.904053037712883,5.872428528722168,7.957794471597561,6.139551970575043
1.9080000000000001,-0.9515224407907779,5.703979666765253,3.09213025028616,-0.4115141353091252,3.4525896252534327,4.340533251089096,6.975684876395066,5.944753409509007
1.9120000000000001,-5.282103576372095,1.2894547355657462,1.8781502315405447,-4.836982803941191,1.6221254233933409,2.9769029175466994,5.3905585352990855,5.757525574021226
1.9160000000000001,-9.403371063644247,-1.9065853315323835,0.9732644134180504,-8.074724628294017,0.05020017066005833,2.126493686753382,4.2157794348543,5.925118963902357
1.92,-11.9919260412614,-3.0549949247498462,0.33333991678739106,-9.084174906686371,-0.7459592147464749,1.7768503899564698,4.4256737503810815,6.5049530138757765
1.924,-12.306479865397941,-2.260276252107494,-0.24961364413433368,-7.703170432089286,-0.6257033893994891,1.629107171399712,6.4331513120267525,7.216429891564939
1.928,-10.507013350375267,-0.44543215325126617,-0.9148735982407805,-4.691603591809642,0.10776303117667962,1.312433965569762,9.806960154974071,7.5748324110428165
1.932,-7.532296036897477,1.1814250160440727,-1.5501610718566667,-1.3301018883433469,0.8847068876878552,0.6350450622710004,13.41354295782118,7.167178571585834
1.936,-4.626259660690972,1.770628753121592,-1.8083555849999178,1.1727615345110824,1.1830073424423369,-0.2940963943663244,15.913130680236065,5.9309473492152
1.94,-2.7541232014483255,1.2455317210484855,-1.304478191641044,2.1761146114247616,0.8260992504531963,-1.1016496399044184,16.36858351051552,4.287965525345732
1.944,-2.1837654813585363,0.2821595431806827,0.12958602052615542,1.7856509187648577,0.09452892598802431,-1.3165240020243476,14.661749416472407,3.0365534708047526
1.948,-2.4408601919731314,-0.11578002539929955,2.2828996859107002,0.6676988947086602,-0.423723903517533,-0.5924845671860428,11.496153450283245,3.0268897991160415
1.952,-2.5986927691217208,0.8301228573452688,4.642081723138402,-0.32738063501839487,-0.15739194730297412,1.1394573286189327,8.01846265341282,4.774798235053126
1.956,-1.745020028636138,3.2859361430680996,6.637896399785672,-0.5398344458022699,1.1150813951368423,3.624666319638933,5.252175311016419,8.205394015226318
1.96,0.5843002799188772,6.771459666676984,7.931412273958983,0.28604681537880516,3.1122245129691812,6.365872070544322,3.6598846256696156,12.667332494442274
1.964,4.192021445051861,10.456872732394604,8.568690748255488,1.994051508366192,5.154148964582736,8.777430088315722,3.0491119583922672,17.203518927658187
1.968,8.285315815185157,13.56471127030693,8.884322755134193,4.137022460179396,6.468239135746106,10.339547305727239,2.817022368012646,20.933430519052692
1.972,11.782642821786414,15.6532389258514,9.245547048782953,6.144662537952415,6.540347746954746,10.730860219608866,2.384355344583614,23.364833064492146
1.976,13.715860893198318,16.64034284407557,9.774911771291166,7.465694223333095,5.323628873848104,9.88651120300705,1.530548365844685,24.48301292410298
1.98,13.594144503483005,16.641704684129085,10.250361949492579,7.701059624666826,3.2399645705955935,8.02187837002732,0.4645536276845159,24.62670076737193
1.984,11.6121383410238,15.798214163669225,10.265915958728367,6.733050516599271,0.9986330633025675,5.618769567252419,-0.3569504224935657,24.26351399607195
1.988,8.595166136068496,14.220512007190075,9.532828293740113,4.80283563422931,-0.67712360219273,3.3359542385942995,-0.5468970873300385,23.791750601584507
1.992,5.704824502282436,12.089587168074551,8.14843251748885,2.4882775181347556,-1.29093035539168,1.8539473121704018,-0.020510001120961796,23.45123707676852
1.996,3.9925938021686216,9.785337370967559,6.622629651600791,0.5221403430448315,-0.7119128407758737,1.6498558658465123,0.9767548622941633,23.334857077195117
2.0,3.9727593470465132,7.891438463286541,5.6370876629875415,-0.4973003798485225,0.8230115872045367,2.803597262374595,2.0369496503745124,23.440368256823856
2.004,5.411414666778356,7.0098987008090035,5.674511408632325,-0.3688303987922521,2.822412259141295,4.935275740227923,2.8295338707167095,23.701531089117346
2.008,7.43233106616232,7.4523709648025065,6.720023111428507,0.6155403283197032,4.718951016641585,7.3202418904385285,3.2441365305308447,23.985635958245034
2.012,8.927718375005615,9.018603574727873,8.25896981912369,1.8287464059833525,6.063366631318989,9.174559178404,3.3742891759282374,24.09785308891455
2.016,9.078154036417576,11.017340106060699,9.55988261583335,2.6390503168011272,6.66013890653957,9.96416144065652,3.361188299371756,23.824021097816775
2.02,7.734316058167899,12.575045105214514,10.100443954303476,2.762969371445464,6.619088896826538,9.615396742923283,3.245447223807439,23.0315087749471
2.024,5.467091090427208,13.080002402586654,9.8842810698217,2.436922132447899,6.2960840589662554,8.516950408959353,2.940757584148657,21.773380427763733
2.028,3.244615505975404,12.498783203778986,9.434379074739077,2.284479385125737,6.132456649422363,7.297643222605875,2.3411077744829862,20.311041190746906
2.032,1.9355208402621855,11.383360954582727,9.476023134803814,2.956560898184146,6.442117058972386,6.514828392755323,1.486370218864278,19.01234756613666
2.036,1.893632231888886,10.541460652167553,10.465238317027715,4.732694072536241,7.237572504253242,6.3922974259543075,0.6378833123093086,18.15232755248983
2.04,2.8432431850689777,10.561244408436078,12.26423383863479,7.314844160217003,8.20067151796406,6.757194051684823,0.18690782164062103,17.731767721500795
2.044,4.1153057928570576,11.468811841955944,14.162825476395476,9.930034904038704,8.820060308270161,7.19204071115123,0.4320835987850091,17.4313819051391
2.048,5.071033748798191,12.712110673527247,15.23263846901849,11.679810542722567,8.641651294943465,7.291665717340178,1.355045513606914,16.755078288988862
2.052,5.451617730383552,13.481998792874165,14.834351839523153,11.945721151036153,7.502880040706134,6.885684495010603,2.5533860556537027,15.294651038803455
2.056,5.431744462250963,13.157505247379754,12.956054230949066,10.61295206093106,5.5991533378675635,6.071276900824408,3.3792624911565774,12.960963102143015
2.06,5.3861525710828495,11.623327833714196,10.207838994602572,8.036329645281734,3.360828238540316,5.0889235853752846,3.242004166208936,10.068230735660292
2.064,5.553739878781171,9.29060595823288,7.48517551228649,4.811718341346338,1.2099130441221497,4.143617334887473,1.9254364337934025,7.222537300911151
2.068,5.8243091222958565,6.823906722348083,5.480504531215473,1.4978466456628214,-0.6583675244227489,3.2811094090332236,-0.2767395024002617,5.057440461746589
2.072,5.804404748924618,4.7676510730677535,4.350021588403983,-1.5452651139143905,-2.334128692872001,2.416656402269277,-2.6772128387680345,3.9582275635865876
2.076,5.098597829437392,3.2960858418089938,3.700910876193155,-4.162815709893802,-4.064867782882334,1.4562292992172754,-4.515311110803801,3.90179781185984
2.08,3.6083030139109074,2.225817898269444,2.9058073178680153,-6.3042548515115735,-6.013464147405132,0.4260117705949531,-5.30238147681715,4.479425259116291
2.084,1.6439752971203045,1.2547769910239368,1.546818397811422,-7.9204798309082545,-8.063446419413413,-0.49626954611992513,-5.010686426564369,5.073125380697915
2.088,-0.23869897214710267,0.23947333611471322,-0.295071595538551,-8.94496816668584,-9.799208361788601,-1.0917833422854768,-4.031109302027781,5.095538225243728
2.092,-1.5585861241925443,-0.6719859856147714,-2.0544610970933315,-9.342733364690467,-10.69227986030225,-1.2569557785770091,-2.932276238816131,4.19385636302424
2.096,-2.1816800813453066,-1.151156708395579,-3.020322843485606,-9.179860719003761,-10.406688602886387,-1.1218221171019804,-2.182058017710954,2.3422969708220793
2.1,-2.3538268693690556,-0.9511071927863515,-2.7734432683698103,-8.614810093114663,-9.020711369751021,-1.010554027316283,-1.9701305288818514,-0.1709608675237657
2.104,-2.479846270287441,-0.13495915931218683,-1.4565600598357054,-7.80305101890818,-7.035129803404363,-1.2535469067665455,-2.198904780223806,-2.8338773342665773
2.108,-2.8166828767200824,0.8812417247764479,0.270302920562429,-6.790042163785059,-5.151937315027038,-1.970956244013017,-2.6169437252282672,-5.040572538513146
2.112,-3.287571193075061,1.5189626788096293,1.5844591116063969,-5.474137518795117,-3.9462542465496764,-2.955555079618205,-2.97109016037467,-6.244127528131939
2.116,-3.5618311909429914,1.3386825824496318,1.9402838313131605,-3.709188742138544,-3.617654587430817,-3.766627142952442,-3.098340347564937,-6.111124027153295
2.12,-3.3342423030320267,0.2769801051875238,1.3652066501991422,-1.4821124659729201,-3.933354611055811,-3.9729586361186313,-2.915857314336003,-4.632585570065227
2.124,-2.6027783842186762,-1.3243560129539595,0.4394242167581561,0.9489260980803529,-4.3954039642407325,-3.415506112100565,-2.3595090075363014,-2.156615964355903
2.128,-1.755698540523165,-2.920049271472211,-0.05324723553363997,3.0548489351252828,-4.531262868696281,-2.3451306966144188,-1.3616854722685763,0.6925427960643433
2.132,-1.3622749292261467,-4.041564835522705,0.4283224546506861,4.229804833384856,-4.126985609965407,-1.3213031539032838,0.10994752347680148,3.2118948858078338
2.136,-1.8043502499703383,-4.497487735742906,1.8587341273507407,4.074987180605954,-3.301505056788666,-0.948971099456613,1.9605914965654976,4.861680599522484
2.14,-2.9783201832953323,-4.380080675818347,3.6420181984749718,2.637562579965577,-2.384719904705996,-1.5637460690285652,3.923380225785872,5.468876256207318
2.144,-4.266897869299916,-3.894300467879961,4.935785571540023,0.46214410704183573,-1.6848635917575265,-3.0350616773531316,5.626536329495162,5.294283144030038
2.148,-4.8565681476737,-3.157469971507295,5.106162541680727,-1.6120885949330517,-1.2864766221644341,-4.812055820920095,6.749785745892817,4.92165158186091
2.152,-4.201287335597177,-2.10159438561596,4.0963911146587835,-2.8033963909786523,-0.9770582327970843,-6.165388171918737,7.205169889635382,5.0184435159426375
2.156,-2.358610367235231,-0.5561955054434984,2.485018401416998,-2.732577959121019,-0.34023840714140974,-6.523463919352277,7.210782314197109,6.0599406603769355
2.16,-0.0028182842591544244,1.5440697560283172,1.2027815365051482,-1.5874807210082693,1.0400898749186154,-5.725753300656869,7.188224251549044,8.137389249133937
2.164,1.9095944111340408,3.9780284559259935,1.0650790374222314,-0.02510073133640134,3.36260688129717,-4.087399953268544,7.523569987155828,10.921824182036012
2.168,2.6339058570775187,6.222474856696318,2.3407580982527065,1.1306772193052836,6.469523013148297,-2.264685114694694,8.30791318494862,13.787750985245186
2.172,2.024585164623911,7.654464109733272,4.606276468818114,1.2612950565490646,9.851860786219216,-0.9650518490796172,9.236099481521732,16.038207958002925
2.176,0.5932784217341398,7.860504142698188,6.946885344124414,0.21237052173155302,12.794505280982467,-0.6626092022610459,9.731700696131625,17.13821764573313
2.18,-0.7795347221079423,6.876337829380777,8.408204721027593,-1.6557909920506213,14.615160692837101,-1.420309900397669,9.252738833277895,16.875386411069346
2.184,-1.306567217260429,5.216776164007341,8.46814086308697,-3.6344263828353127,14.90830636849449,-2.8775065829197577,7.622082835085535,15.406597492096168
2.188,-0.6823123002137237,3.6543665410912087,7.279608805298757,-4.971666824991007,13.711535931833538,-4.410637290370518,5.181193386393516,13.192325845913238
2.192,0.8079463826208532,2.8620314236011986,5.581261970329906,-5.16086499790524,11.527973780176083,-5.3747941667625625,2.69337943123759,10.848279023451802
2.196,2.4827308348631445,3.1003422057225234,4.302098371536053,-4.114960007812035,9.161991834010106,-5.363376224303112,1.0061079040316718,8.951895183589922
2.2,3.63773635361778,4.119887812695889,4.082468253017168,-2.1604027544816775,7.435549013280939,-4.367329128736637,0.6519512791716262,7.875115960173037
2.204,3.9038717198479773,5.333387572249596,4.964789957677738,0.1311626040935301,6.888890521320314,-2.771282749566141,1.608805184069315,7.688746077738905
2.208,3.3971782176514536,6.14150213121824,6.385452345302494,2.1702889588220553,7.587316723474764,-1.2045023330965159,3.324156809551602,8.160245693137878
2.212,2.620862805383492,6.242657367822644,7.494186134133822,3.5511160873793464,9.128569797804044,-0.2794421317809759,5.0070643950703655,8.860575461573294
2.216,2.1868531502413173,5.758748030956852,7.603055038864813,4.141438489915524,10.837411920516345,-0.34961094301937923,6.0169724346713584,9.33811813438638
2.22,2.515277198161978,5.12263080568413,6.53716451319427,4.059033598938356,12.07483365117824,-1.3676004151089416,6.146980354473937,9.294187694657913
2.224,3.649915372350466,4.800681244345315,4.717589675185475,3.57153725837295,12.515270426458702,-2.9104268274270075,5.664214589296637,8.690385935835806
2.228,5.244945390508169,5.00790360632703,2.9253684939821376,2.9742450183396976,12.256095954653954,-4.376397032803222,5.0922111381268165,7.752274402435363
2.232,6.734313590330126,5.599736192452885,1.9136395273586748,2.520927002709157,11.725771710825887,-5.240664452436165,4.8838597871466,6.868817790886451
2.236,7.571474553004073,6.174593042349534,2.0379126084568835,2.3879628123441092,11.430130099519225,-5.287024153054059,5.15240128944065,6.428922303244688
2.24,7.436241501756811,6.320997312558809,3.107793496813594,2.6620267174704573,11.687209751133025,-4.6850095843084825,5.622130072519069,6.682003338793277
2.244,6.3491990046113935,5.868116226296067,4.531692032028788,3.336953336321646,12.488929716795305,-3.876349532911031,5.826315653432232,7.6790716237890315
2.248,4.653885612330727,4.985704715326294,5.640600313062118,4.299535448353442,13.549924097771669,-3.341781496932219,5.422203805022397,9.307695560132917
2.2520000000000002,2.905258655100819,4.094291622982376,6.0357361541401975,5.34103026351118,14.513247945259597,-3.339401149583649,4.465708332737483,11.385585336020654
2.2560000000000002,1.6826395473768976,3.615606652314139,5.751627362269204,6.185592677328863,15.160911862966012,-3.7850793205346753,3.4559336714987783,13.727045046561495
2.2600000000000002,1.3897415705108365,3.7100212845899585,5.171158089948451,6.55903713579505,15.509479219134809,-4.319077982356452,3.1107656332195397,16.13867691528882
2.2640000000000002,2.1140817569993917,4.155417473182416,4.771138698531938,6.282413117235397,15.747549771664417,-4.523624683710812,3.984870797614622,18.349465647420317
2.2680000000000002,3.5864656082235014,4.438545972242128,4.835221197134403,5.352392997426573,16.059373452686643,-4.176877725002944,6.126776259904766,19.951570122391132
2.2720000000000002,5.279329370811685,4.0312470659884685,5.330422811935531,3.984827634981007,16.46834091605081,-3.3749030947847922,8.995126879596564,20.4408714769704
2.2760000000000002,6.614261749391492,2.6998362436513057,5.989699424624348,2.5774278318837163,16.80744485141753,-2.4748103232172576,11.69823294422058,19.385718163875286
2.2800000000000002,7.213551445140352,0.68444117228767,6.543628843744892,1.6108458064129758,16.860081258805874,-1.8668847887447826,13.460561777421736,16.678235697263002
2.2840000000000003,7.089487762411272,-1.3585750343233345,6.956830593382611,1.518493496910763,16.576251876105676,-1.7041226117177128,14.073875888524814,12.732222819638848
2.2880000000000003,6.659001612363051,-2.655092971474309,7.479942057721534,2.550573931909427,16.19975217416669,-1.7760704009652626,14.052961834950304,8.4714554604788
2.2920000000000003,6.559023111639318,-2.711419300861917,8.477320499242257,4.669227492646323,16.185735975103928,-1.6063319200281958,14.36581012103549,5.028539448431853
2.2960000000000003,7.306018802420271,-1.6301496300498748,10.088764971036158,7.477505312179856,16.892275229131766,-0.7787374840074066,15.814180921791802,3.218408252200822
2.3000000000000003,8.938303482748813,-0.1815850616368575,11.923572974706515,10.215451889855204,18.203492303408822,0.6894553257424443,18.38639389165847,3.0306682904297393
2.3040000000000003,10.842421355497482,0.4388904671431031,13.00796307786354,11.862733857574185,19.316139606364203,2.1572234508175434,20.957944892151517,3.4241406330748925
2.308,11.88716729783301,-0.9170009671475445,12.065765947142985,11.369705715331481,18.8814782426547,2.499496355231981,21.58383903120854,2.6177825375741826
2.312,10.864580162946126,-4.832891236451292,8.077433486547562,8.004302241043353,15.530363301168842,0.5907379636094436,18.344744461899168,-1.1602717673614382
2.316,7.0639303703177125,-10.994468085577118,0.8611573845425844,1.7034226717129703,8.57925263753516,-4.092579026168844,10.38312869133928,-8.760837134324081
2.32,0.7307940491938199,-18.184626688691758,-8.604274682378596,-6.707597404079035,-1.3993769863185075,-11.029544754486407,-1.3746599055588553,-19.463583711523263
2.324,-6.82774428698839,-24.626588628998345,-18.30165097943547,-15.563962656457427,-12.472459476325714,-18.6279084200351,-14.21792097965203,-30.955269901696653
2.328,-13.60249732807694,-28.55474177346737,-25.762232290654097,-22.743406199775404,-21.838208507502827,-24.694171932121677,-24.481472943223764,-40.0328182178951
2.332,-17.5813336048608,-28.791236286349466,-28.884605759693752,-26.287880748813087,-26.768389257763747,-27.21267862361122,-28.886812933003448,-43.78726979258288
2.336,-17.507929718799822,-25.124938404470186,-26.681412040368315,-25.073404153541723,-25.63875643626985,-25.132694092015868,-25.834095967795342,-40.7703995591146
2.34,-13.379350214773204,-18.364880653726416,-19.63762947975596,-19.261354565020692,-18.59011482679851,-18.804394953358,-16.062571798786372,-31.612650799649913
2.344,-6.459272815116583,-10.066043796586126,-9.531252889624522,-10.323416198392446,-7.527679034756536,-9.864394174383909,-2.368019272100426,-18.80755917510365
2.348,1.1983707104648946,-2.047630907627047,1.1869257390181414,-0.6035264198711463,4.559542543604297,-0.6338541085638489,11.482148485297724,-5.751555013877367
2.352,7.525407666482232,4.135277474860878,10.218711620138894,7.453094523804406,14.686303501800394,6.723261915739521,22.153365367195743,4.528088191203214
2.356,11.163034643686572,7.581216444288513,16.09812507882009,12.104254908691761,20.889877729652703,10.895958760743527,27.846989010940405,10.38372278530641
2.36,11.830522147585876,8.193285135021366,18.49404551603216,12.84619455080963,22.77363956791172,11.720233482050755,28.66466003150055,11.886015716704982
2.364,10.252794353263434,6.59780271499412,18.092682240398414,10.502816783915405,21.398625666753865,10.01503639061853,26.174934020439217,10.424022202073324
2.368,7.716149192389515,3.8719895343859188,16.145366221069207,6.838104864240339,18.627813178266926,7.082206289186854,22.463396910946003,7.845261641545613
2.372,5.491827422297314,1.185358194273494,13.929348882368718,3.8543214309343123,16.26130169380234,4.154406542066653,19.174760556943056,5.595818516764314
2.376,4.377507045354855,-0.5489352308086888,12.320914601108328,3.0380384338870705,15.34482769350759,2.00085795873535,16.96466552930434,4.252121786926325
2.38,4.525706855747946,-0.9119002149273463,11.626535336871925,4.846676514583453,15.929999869569485,0.8221644576754903,15.535979714985679,3.585930434940641
2.384,5.570983449876738,-0.04193490048044879,11.676419334641643,8.613516528540687,17.302148944667966,0.4019981283672056,14.125404232831402,3.006394962215751
2.388,6.909333106177764,1.4741485289109013,12.052716708571259,12.88034269486156,18.497562849783456,0.36265275566816957,12.096426298825627,2.069391579727478
2.392,7.978755686470816,2.845780935930315,12.343028889641388,16.023341980527693,18.82020016489178,0.39641692201152967,9.334093460387415,0.7581628268843694
2.396,8.412050810429395,3.3760912843538216,12.292071837588411,16.90332655869665,18.1083547367386,0.3571104257500206,6.266099427584851,-0.5800506880561223
2.4,8.055786163834073,2.716997952807274,11.826473570834615,15.288290728689239,16.691665713134395,0.23181219402814346,3.5685338012484236,-1.5257747955997427
2.404,6.916083503532031,0.9891674525507057,10.996707901585696,11.884167641722078,15.115557959946646,0.058178801684189096,1.7802227957496832,-1.8850617625342947
2.408,5.0990883235715385,-1.2867087809991467,9.88578600356509,7.974033759757749,13.819903974294427,-0.15547474851756649,1.0362029805251893,-1.8010562003646233
2.412,2.813541841612741,-3.4116404697245706,8.570447171870551,4.851687466169606,12.948287654827203,-0.4417051265027312,1.0525364316181562,-1.6287822507746728
2.416,0.3978480016926145,-4.808337037646423,7.120661367418258,3.287779628128954,12.342976859880434,-0.8587437423077144,1.3180415930202973,-1.6884668323092389
2.42,-1.6901130718666075,-5.266600372721268,5.6318229345166575,3.2820736744993533,11.704361766183128,-1.4504601508036468,1.3500868302999383,-2.0606173187750803
2.424,-2.9558100852449276,-5.02014394351785,4.261154487713016,4.199633772006155,10.794760368139706,-2.2051210732123634,0.8819900129257983,-2.558636191450379
2.428,-3.0285973385671934,-4.623583335732085,3.206444315087173,5.182717918134811,9.57715288240643,-3.0444010596588,-0.10135497776061264,-2.8826494724532346
2.432,-1.8241081467250684,-4.668380752903197,2.6550195578363613,5.629782229259749,8.236596927662399,-3.8171347346160642,-1.4351780348304368,-2.8418263890815805
2.436,0.3737452054460244,-5.4757848995844425,2.699902373159296,5.476557487051141,7.07883407664454,-4.328979734745903,-2.8955327374402575,-2.511460464402635
2.44,2.9685556998888813,-6.915829817825719,3.2678616210374507,5.145109739927817,6.3826425372029645,-4.398590461869464,-4.287947939595663,-2.2308739665515933
2.444,5.248382551326603,-8.446466507208786,4.111332038446874,5.211153701616653,6.268351719496937,-3.9334820208437566,-5.470124726742042,-2.4554571545945763
2.448,6.624013449319875,-9.383326178125037,4.855798928446263,5.9876371051969075,6.630111776366345,-3.0178421308094894,-6.3508001355674,-3.543880001254319
2.452,6.815074099708372,-9.272458605414263,5.122924503627917,7.282994308696322,7.160238376350307,-1.9422298237941673,-6.887787927865643,-5.592022297975226
2.456,5.913442124853161,-8.17726193590969,4.6703301494597245,8.461244748705836,7.449509445208845,-1.1548248446657574,-7.115515668464971,-8.382137127237936
2.46,4.296406062262193,-6.720595714278883,3.500047554108793,8.77660252494739,7.137267305667589,-1.1127085027538537,-7.173071034450693,-11.442096694996472
2.464,2.449035554532463,-5.824796961224756,1.8978204735171644,7.801615230922323,6.061742642764537,-2.0736209636866816,-7.268751620327461,-14.175277865520794
2.468,0.7799556702649002,-6.25973839024391,0.3471290037232766,5.698537422427304,4.3581713652049245,-3.9421661523091793,-7.591485548581224,-16.01425615082321
2.472,-0.48670700059870464,-8.216103474219699,-0.6431891162578349,3.1841918830002065,2.4451952522128835,-6.242352820305151,-8.193834954625125,-16.56759277890417
2.476,-1.3267789299192891,-11.144515204430403,-0.7593716866554345,1.1868661430622334,0.8690466416827034,-8.280902158293841,-8.924183502004464,-15.739264883604589
2.48,-1.8592347039166046,-13.959570106006094,-0.052744511088589796,0.38355972199522537,0.06874745158456719,-9.433866439213935,-9.466149152020584,-13.790068512691738
2.484,-2.2631535158446647,-15.5277178030549,1.0392015237504078,0.8488559780459446,0.15559841481045078,-9.425270596185651,-9.482048435542353,-11.315267306749515
2.488,-2.7258610027882764,-15.214226679912858,1.825087865882994,1.9810512462794843,0.8202625368777461,-8.479520297410911,-8.814019058266346,-9.10921427596341
2.492,-3.4053871427725033,-13.18739825847311,1.6369799310284758,2.766797617088963,1.4503849881380433,-7.227939127390656,-7.609072856863502,-7.926800359285544
2.496,-4.401027153184963,-10.317992488753665,0.12874906225275493,2.2416356401240254,1.418408089926197,-6.420249234742993,-6.299676942280133,-8.216917247446412
2.5,-5.73024368715559,-7.731240560890182,-2.543841224591665,-0.06964573451131706,0.4058117836804134,-6.564132705427869,-5.440955460316244,-9.946911267185794
2.504,-7.291356771986024,-6.243978680237642,-5.746554365254591,-3.92648780161959,-1.419503836815565,-7.667003794010538,-5.475397516793537,-12.621420170492744
2.508,-8.850988191877045,-6.003197112226145,-8.61849443089772,-8.465848471032851,-3.4849493586157427,-9.227091871115523,-6.565040758807787,-15.507042159821747
2.512,-10.075783018621204,-6.506272779888246,-10.423649365977727,-12.553846135741534,-5.125648606797835,-10.46299961252532,-8.560139520785714,-17.96834352560461
2.516,-10.613936476884657,-6.96546902577945,-10.853027902427193,-15.233452732125391,-5.960765338177495,-10.685953108678234,-11.120554823699564,-19.742663311179122
2.52,-10.214138054150096,-6.785950026293174,-10.127698892665551,-16.0650179090129,-6.108521854806099,-9.61575783135594,-13.902497486430935,-20.9963257719741
2.524,-8.830519281682928,-5.868907542121733,-8.84779756329823,-15.22943138051613,-6.1126739640972705,-7.487506859058603,-16.69004491680858,-22.14250417443954
2.528,-6.688796665471063,-4.587759657967952,-7.701430390254142,-13.381851158609466,-6.616696069267233,-4.926154530582182,-19.42042181897289,-23.526928462427826
2.532,-4.252930977853088,-3.466125687466251,-7.146275562674595,-11.31781388596826,-7.9534924512924645,-2.633007157610982,-22.08730230423418,-25.15649341561349
2.536,-2.1049159279233267,-2.803613085599603,-7.245111894547133,-9.63601435258769,-9.915265119459383,-1.0731121113058695,-24.61436278601412,-26.65110094551322
2.54,-0.7835794876898872,-2.502932593296757,-7.727610074699383,-8.554496371784854,-11.851711197698082,-0.31127078231639493,-26.798417457427608,-27.452486387498038
2.544,-0.6065383291619979,-2.1956265513172775,-8.195809615798119,-7.935902179795578,-13.040898491337696,-0.049735300869633736,-28.347137079276546,-27.169977290781063
2.548,-1.561846586120187,-1.5774027062101392,-8.372398800113452,-7.5038929013657345,-13.115662206161865,0.15612265414692017,-29.005344229678435,-25.85210522998849
2.552,-3.29377530230549,-0.6899596669461288,-8.224621879155546,-7.097043152642471,-12.283111941844851,0.6568487456440905,-28.671665372084536,-23.998346602435937
2.556,-5.191141942118892,0.05824048187254505,-7.925527725031624,-6.812437684355686,-11.204325739558685,1.5475865670586395,-27.44263806936066,-22.291900146807848
2.56,-6.581262449450305,0.15968333138002588,-7.699056331293002,-6.947970411829523,-10.598648194633439,2.6604663088677745,-25.563892433878138,-21.19718478400486
2.564,-6.953922688352641,-0.6004052353508849,-7.64374010186194,-7.7593917107872485,-10.812013064242544,3.697876274438042,-23.316083360651692,-20.66021648512575
2.568,-6.1445677218955,-1.916362022305659,-7.672302466091879,-9.18550048567159,-11.619390363284124,4.390815390867049,-20.941273419554655,-20.108700549874314
2.572,-4.398475472974162,-3.068978761487476,-7.576549290223592,-10.708097222012935,-12.379215593273868,4.626773729820742,-18.633136723621597,-18.770510033615544
2.576,-2.2769502860101483,-3.3265185135595594,-7.178356586246087,-11.475174866375031,-12.443405163727043,4.475848264081786,-16.58917489485435,-16.145015763992355
2.58,-0.4370521603614623,-2.393299744807985,-6.4587265663529045,-10.659975906468526,-11.561764899282341,4.1382841644066835,-15.054869308941916,-12.35376173275403
2.584,0.6507987861389783,-0.5990674764967245,-5.5613006998644,-7.872775401540442,-10.030077652492153,3.8787668884457136,-14.276185705207045,-8.159323616058227
2.588,0.8962615684678457,1.2939711459556342,-4.700791725051369,-3.423865535398593,-8.505603810601317,3.959148141666766,-14.390829126758279,-4.635500447182665
2.592,0.6045025587547875,2.56680022367987,-4.022567480767362,1.728289003915667,-7.608507971428709,4.598259538056775,-15.290291151621217,-2.654528975330507
2.596,0.30438665849424523,2.993361899813775,-3.5253432903466337,6.331479492353155,-7.570766675285769,5.914231380312936,-16.568063201093107,-2.4647374016942862
2.6,0.47741662760971726,2.975867329009682,-3.0903556281916984,9.344678765102561,-8.133726435976563,7.859166673855521,-17.622592903375832,-3.572602913413563
2.604,1.3339915294826894,3.2735839830965743,-2.5828157794025546,10.350154586331715,-8.747717029397313,10.176825271692667,-17.88079750439521,-4.990844489172031
2.608,2.730609304981785,4.475221821589599,-1.9683513134425317,9.660352510514361,-8.927389695337506,12.404869199151623,-17.055122221129544,-5.704964231175164
2.612,4.283624098201557,6.570840935501711,-1.3324501532341593,8.101358804016165,-8.516106072282655,13.997447063793707,-15.275339256036688,-5.108239626921239
2.616,5.597258265240448,8.901142748072257,-0.8026687990879589,6.5847637957413605,-7.712636827769506,14.53142354085006,-13.021154098252477,-3.1984306595011827
2.62,6.4633896139162985,10.528787604293207,-0.4231125137313463,5.695917812010832,-6.855213763316563,13.91926698976464,-10.877662305881076,-0.4605120953625552
2.624,6.931994825718304,10.813823720008026,-0.06144598485093766,5.507219386398909,-6.139172733983106,12.514959881551835,-9.23462190432449,2.449844261456169
2.628,7.210059241419082,9.821405205749688,0.5425183535127776,5.66654799079098,-5.487374641075086,11.003155727192272,-8.114056510471613,5.027810869490455
2.632,7.484444538768658,8.316144926090466,1.6278019123945784,5.687341611647838,-4.657503371392343,10.121844380353016,-7.203992130098491,7.0868149114349475
2.636,7.781116491080007,7.324917108647532,3.2240501466732665,5.245648750530221,-3.5116293008152457,10.316473888296311,-6.095959862061991,8.70234978076234
2.64,7.952300219008402,7.530283917372334,5.0504341817631,4.332060225914513,-2.2396083779057734,11.516505326481322,-4.582629259260232,10.023730524728862
2.644,7.802777226125363,8.860064574310895,6.597299825468935,3.203564352111775,-1.3548104940569834,13.169898705342682,-2.8285414894681122,11.097193556571762
2.648,7.2420574094961205,10.503305586446224,7.342226264270617,2.1801503430308307,-1.4274121743798354,14.513585974052186,-1.3183040779497417,11.811641308500484
2.652,6.365335013790329,11.352470562776587,7.02186012448302,1.4451668293491386,-2.698532886268827,14.965435118975936,-0.5823926239465704,11.990573813536008
2.656,5.398792575378748,10.605584930349387,5.797888312840485,0.9552091102204128,-4.836724431659568,14.403937540020847,-0.8635129757918294,11.544813523232666
2.66,4.55293135403418,8.192975474313624,4.215002147385313,0.5024840006106541,-7.009814378911159,13.191985331302655,-1.921763907989888,10.576561566530891
2.664,3.916243820108165,4.819583539665797,2.9772434062003796,-0.11626052333551229,-8.264734547465018,11.946149928404077,-3.087450150157495,9.359773209132083
2.668,3.4440931057132866,1.6033294447529105,2.622823920169973,-0.9559188340860003,-8.021704239762771,11.161776787615672,-3.578966099537059,8.20509178270336
2.672,3.0670919802110768,-0.45571075084737434,3.29317016924986,-1.8711834003423324,-6.384616478104755,10.943479050002598,-2.9009614604345173,7.299019039818756
2.676,2.828340953282596,-0.8993121788011909,4.692541881497633,-2.587266930439672,-4.088271635661495,10.98168366258232,-1.1172849125921858,6.618384888413911
2.68,2.9279822308575114,0.060463921233897544,6.2574320075480365,-2.8428811399557903,-2.092052520071025,10.788252722088107,1.1583647363232172,5.974788364001941
2.684,3.617771310650884,1.7276597981044874,7.455660786152435,-2.52123520698471,-1.0524093899912632,10.050813374770861,3.068902606358134,5.16106430144728
2.688,4.984844806455682,3.2696959641432395,8.029798537522904,-1.7144364734636697,-0.9775253472444536,8.865495605059301,3.9420724913873455,4.111684090069312
2.692,6.796706533524365,4.06441258179194,8.08991528339375,-0.6755865442897713,-1.2535894610752543,7.732185956303443,3.6294538235773675,2.9869801968285477
2.696,8.53085388483493,3.892628509965362,7.994131884658641,0.28894648951469204,-1.0382520695316924,7.285282051762592,2.562059410216587,2.123206426991182
2.7,9.597221922345742,2.9293890095747797,8.082560812101004,0.9283717003423737,0.20984137697532823,7.919283116892734,1.4895596824957873,1.879080288692941
2.704,9.653322363616756,1.5995094824777838,8.434525191279102,1.111483036585811,2.3596177777771246,9.536244375718717,1.0607125292126058,2.4523618456547056
2.708,8.805971319998486,0.37468391801617096,8.769143887765086,0.8215446203320833,4.604493285884561,11.545890742372457,1.4725670187101554,3.7639220027624067
2.712,7.5632069746753405,-0.4016922495701618,8.572799130220428,0.11929509912253522,5.831451317859308,13.148801126969747,2.3915512723698082,5.471223241900197
2.716,6.544121811728669,-0.618682675012119,7.378869236441404,-0.8988391856875229,5.154061806194791,13.7291878433609,3.1763131127479465,7.0961580022868755
2.72,6.118223257943116,-0.4125692067863641,5.053127157848897,-2.117804482168083,2.344200066176496,13.153800770607546,3.2605610642906697,8.20858619678538
2.724,6.207062306027693,-0.08535570052532804,1.9409713731564366,-3.396236095028006,-2.044273664681292,11.826185963833574,2.481126361835957,8.574453137613016
2.728,6.367287193851313,0.038115838698328464,-1.2262787652338725,-4.565729283213422,-6.900735266170152,10.456236565089508,1.1451209956344766,8.207290873598119
2.732,6.126866512761687,-0.22317067956898917,-3.600262684441307,-5.43318820944368,-10.987611156490381,9.7097292058948,-0.1739609163439919,7.318805755827659
2.736,5.353171804818435,-0.797284768366179,-4.549338803915791,-5.815292504379643,-13.370821439769475,9.899373814290833,-0.9894090703341192,6.1958907868225035
2.74,4.3999194836468085,-1.3694737928883456,-3.8951740123400125,-5.59342713418665,-13.661432577328943,10.871591908940832,-1.1782756451609937,5.076086004832689
2.744,3.9361407739220207,-1.5046755899756674,-1.9249865291286432,-4.746905207050295,-12.013776100620383,12.139411557058338,-1.0004971575346158,4.082558741066609
2.748,4.532848333642728,-0.8466139191733558,0.7757235114523722,-3.3654974359986474,-8.953234178693059,13.143078374346258,-0.8755880868295227,3.235766246813822
2.7520000000000002,6.270024872596054,0.7172248555890882,3.595033917359877,-1.6152672592425046,-5.146097470738556,13.522200640103836,-1.0485533972331067,2.530494927269597
2.7560000000000002,8.613576010671238,3.0056773556784013,6.10791676154042,0.31755328194075894,-1.2316618785131803,13.245977974669104,-1.37489819434833,2.0122853252631225
2.7600000000000002,10.65059413272041,5.627138231227146,8.135231540827707,2.273796219131852,2.2583516240225263,12.559847781568854,-1.3791733086869422,1.802611571732423
2.7640000000000002,11.569823938241234,8.150771069008,9.669748633752928,4.140764601207296,4.923882587726328,11.804710756149847,-0.5426694351937726,2.054051377692972
2.7680000000000002,11.10458118493909,10.248858832769272,10.72681882880629,5.83146781141981,6.510875653327423,11.197576888535725,1.3314427886506444,2.849844804370787
2.7720000000000002,9.692897412720612,11.756229912316465,11.269394396175615,7.2670137870086755,6.95700426688251,10.73264606201388,3.9350763268553015,4.128767749925563
2.7760000000000002,8.263617960401431,12.635002694610321,11.24777542361751,8.374800215837423,6.426345889968603,10.228645475567037,6.569892658533366,5.678622304525532
2.7800000000000002,7.768021917590687,12.892354809625052,10.707305825206799,9.104439945934615,5.2868062470327875,9.491756231533701,8.494788877176015,7.214131790741999
2.7840000000000003,8.717956265114243,12.530383709159747,9.880514453225045,9.449241481290244,3.998114784175346,8.504068563117084,9.312660991091324,8.508289861835403
2.7880000000000003,10.955854167600549,11.5499890228941,9.134638979033426,9.434449866749205,2.9267806388546105,7.493151478816204,9.14536408236674,9.499584820892872
2.7920000000000003,13.763649332655373,10.003561116711335,8.794814355595676,9.090424956924224,2.1844027683628857,6.863139767286697,8.51387352204399,10.31393302060669
2.7960000000000003,16.21682760640164,8.026265076521941,8.921337598083193,8.414486678685613,1.5711181705580755,6.988401706889677,7.987727277599145,11.169911012149106
2.8000000000000003,17.572726903794138,5.799848140462575,9.187467699487557,7.364291162374153,0.6833608623063321,7.976359631490291,7.8276809312185005,12.220644051675375
2.8040000000000003,17.52596385800699,3.4826899621477643,8.988946140534129,5.920072778579359,-0.8509585019903101,9.552048175498411,7.862939734043494,13.415647709040861
2.8080000000000003,16.235877364940755,1.15660056388917,7.749934134564754,4.1829896387118515,-3.1230248776410026,11.117721787927508,7.646860886174323,14.46022981900911
2.8120000000000003,14.185264768874664,-1.1349576865382955,5.3008077697633595,2.463995806543614,-5.796465980044669,12.00320283832406,6.815590882858246,14.914048033965255
2.816,11.97475695598275,-3.2734396055059225,2.097574768938803,1.266607649297156,-8.162414781915789,11.771914230206194,5.407498912945636,14.377006559550704
2.82,10.132591905713362,-4.965422472565108,-0.8764236805525085,1.12025489208194,-9.382747617566334,10.428527734401445,3.9247769558416152,12.672406693884644
2.824,9.006258100484562,-5.744521846488458,-2.4935703052343916,2.3239220972261885,-8.821065516915205,8.42106602918821,3.1103792621817936,9.938695249174877
2.828,8.705930262465735,-5.1448605624282315,-2.012446891682299,4.704285650627321,-6.330382451184923,6.407879031560022,3.5390126472055803,6.582446679863223
2.832,9.099108244926182,-2.9686568950949006,0.5431998557777282,7.5644882967941145,-2.3531536564970597,4.944633821905409,5.2777988524745645,3.133959036954918
2.836,9.863663494956143,0.5009317343263118,4.3542446160183275,9.901848688126496,2.2030973781423837,4.246111142901848,7.808198326455203,0.08227923876365661
2.84,10.585718118268263,4.495045348425468,8.15262166771406,10.830096735535195,6.267068467940394,4.152458084591829,10.252100309338202,-2.2284618779674172
2.844,10.903150407489857,8.024779759007481,10.795988924284668,10.017808927768572,8.961633401043965,4.314608424740039,11.788088275637087,-3.6117780636214425
2.848,10.638645016312775,10.297893611343012,11.75156737552899,7.894837603711433,9.877210126584435,4.4520963411291605,12.007743777940057,-3.9897504966164314
2.852,9.863225587905678,11.082049681320079,11.271491285850818,5.498053201533962,9.16817191589218,4.5401140865729435,11.05006144786573,-3.344180810819168
2.856,8.837031674644535,10.794147484278385,10.165987302784103,3.986855874862761,7.430535449992313,4.782716430697235,9.46003564198339,-1.7221564906978086
2.86,7.850707415344807,10.242814598318578,9.302962672874951,4.061328987637745,5.429901772834835,5.400892841546967,7.875321949520552,0.7120946447390395
2.864,7.0662310822742,10.163897746633268,9.132070109881646,5.601540032933947,3.793202927039518,6.397386106612128,6.739645784511286,3.63754430664728
2.868,6.446010759857693,10.79660066398905,9.467413288787414,7.717048863446054,2.783565758771841,7.448215847027194,6.1718177760453665,6.599390546847615
2.872,5.828911504196566,11.747414448706255,9.650263831561105,9.204881572060353,2.2536003994653377,8.035158114133743,6.038361161034863,9.121099772792087
2.876,5.10038258089693,12.221946082800184,8.982177985897577,9.174960049885595,1.7809608153858454,7.741893210057442,6.146101650779215,10.867568548965133
2.88,4.328590043408678,11.49223358582235,7.173684969051967,7.508991874438372,0.9260823403236574,6.538783545653318,6.405931191449778,11.77415242456689
2.884,3.7694998380883273,9.347602114870233,4.5665265577895084,4.908455524209971,-0.5115785250105707,4.870332787410549,6.877435514204812,12.053396843115362
2.888,3.700188860913397,6.251790215931255,1.9748459984555407,2.4920106171250698,-2.368548943131039,3.445217680594209,7.6647126253272,12.056230920723637
2.892,4.20298575805688,3.1420484540423743,0.2721849298453769,1.200767646759776,-4.170212054835559,2.864537057650753,8.768127675839668,12.065802141917107
2.896,5.0497012638106185,0.9843757581268786,-0.049641190081718634,1.339519437498763,-5.33920383501226,3.286493193273054,10.001081779204362,12.1360150360101
2.9,5.787187962475187,0.3308407579355652,0.8846579502475258,2.501076630317339,-5.449069928510649,4.334667936752387,11.028846508463648,12.074027423041784
2.904,6.006221859867457,1.122408628006336,2.4497094168034694,3.894411607258741,-4.407815881944607,5.320715497249308,11.522459225540914,11.583143462604847
2.908,5.605578223495872,2.793159115739449,3.881288484500341,4.836304601650921,-2.4904313897976254,5.62463195383527,11.322559621231068,10.48034446492742
2.912,4.890545074928557,4.599158935104116,4.692280160497031,5.119645990583497,-0.2034231411284919,5.0312734167665205,10.525245200518189,8.851132526451892
2.916,4.418555040080133,5.968150961536888,4.901408241902242,5.043295489931198,1.92715954358501,3.804888840572378,9.42307718793316,7.032423670699246
2.92,4.65127524562381,6.674463374195444,4.940232137134129,5.104847842798474,3.5269357712529237,2.4698129785698484,8.325045457109255,5.420941845202826
2.924,5.635617846016612,6.795943281708864,5.332018046717762,5.578467531810724,4.427460253887244,1.456537505806172,7.374793137343058,4.210586943715545
2.928,6.913920951842445,6.522736724662149,6.313193643182063,6.248274535861314,4.598227076858811,0.8205932219598274,6.4575777668109104,3.226906109520623
2.932,7.7437090824583406,5.985464020128061,7.646180120575663,6.488550107986066,4.044019399848538,0.23556969788529725,5.272271361091061,1.9879919916550666
2.936,7.511148088869602,5.211873653621105,8.724361219162624,5.645335985882924,2.7505377786923724,-0.7502058180176219,3.5333004783258932,-0.015550837068904921
2.94,6.089306055069787,4.2085082327372385,8.89857330265106,3.479608954651493,0.7300192951401048,-2.358572016047555,1.189365354360682,-2.9561147318353322
2.944,3.938489885272936,3.0874617961239688,7.8566403215700955,0.40690387501288106,-1.8652934647146981,-4.344035927155151,-1.4483325586661944,-6.432648442402985
2.948,1.870508676457559,2.0955155666309384,5.797111292392075,-2.6376128281661275,-4.677141470972195,-6.05767057610347,-3.777784806518487,-9.533543880438359
2.952,0.6112443943390456,1.496772035646905,3.3168567162261193,-4.644450726210201,-7.202760436424224,-6.769995053450454,-5.150120096042025,-11.203652980909649
2.956,0.407039327141267,1.366696683796568,1.0721878603446875,-5.057628833830881,-9.002491283481788,-6.090119635330546,-5.176549317244449,-10.756103547517535
2.96,0.9082625411530181,1.4512214355311115,-0.5875892974280443,-4.085780282657273,-9.936760789721149,-4.23037696356908,-3.941703477295945,-8.257560644286936
2.964,1.4025764926394042,1.223160318113118,-1.774710751263437,-2.611143611439201,-10.278844600691762,-1.9428697361808562,-1.9926207740233055,-4.5678987322092794
2.968,1.2291652833225262,0.1264378844975722,-2.9443759521896915,-1.7604668985308112,-10.61025642365542,-0.18724750116606037,-0.11997760206606944,-0.998815028834914
2.972,0.15468730646105688,-2.084351459503061,-4.552888897976512,-2.3366935868264784,-11.499006485995393,0.32711652300935434,0.9925305295730693,1.262634849651759
2.976,-1.5007844230386906,-5.103950658548448,-6.702172821487617,-4.40364740430669,-13.120028429709006,-0.535620624151919,1.0659445127148812,1.6755655291698055
2.98,-3.0580340017834637,-8.111037418404903,-8.99643883691911,-7.231212431764747,-15.027311316865386,-2.316612475532687,0.3124037860370601,0.5445429311294543
2.984,-3.8610149187729066,-10.088428640741,-10.693064146948313,-9.624627586499614,-16.254488349161562,-4.22676925619582,-0.7280183339691568,-1.2086142049167652
2.988,-3.647320813891873,-10.299667514760486,-11.089698463172518,-10.49169689593359,-15.741033897912986,-5.572795664182748,-1.5161666305136148,-2.5716091652637942
2.992,-2.692898705323927,-8.667182800437512,-9.905849644192259,-9.354489916360631,-12.870975483350083,-6.0838687700003815,-1.804492930875611,-2.9693777248879005
2.996,-1.665922198893683,-5.841492192558443,-7.4470080567929715,-6.577738838958444,-7.857513120694444,-5.996821959382872,-1.7325991660996323,-2.514260400329995
3.0,-1.2780442477920682,-2.912312515234635,-4.47054946778425,-3.2073546605383365,-1.7532372273897168,-5.8716414985495105,-1.6786033921224783,-1.8472687238267085
3.004,-1.901961262257052,-0.884025608153991,-1.8097694006008131,-0.48446188630170894,3.952645501929632,-6.236901983635237,-1.9406726921621544,-1.6770283335482894
3.008,-3.3683813394433253,-0.20373870370735547,-0.00301005921252262,0.7164487792234548,7.946805635608982,-7.288493751802175,-2.4717937820818445,-2.3035701012295213
