Timestamp,O1,Oz,O2,PO3,PO4,TP7,TP8,Fz
0.0,1.2050804798491299e-11,-1.3642420526593924e-12,-1.9326762412674725e-12,-2.2737367544323206e-12,1.3642420526593924e-12,5.002220859751105e-12,1.5347723092418164e-12,-2.4442670110147446e-12
0.004,-32.30984654029737,-27.193075923606784,-25.194013367486264,-30.795521666397235,-5.583278854290484,-19.741017475065973,-10.437527496379005,-5.856169544309694
0.008,-57.34395319049543,-48.04296837630034,-44.866649832597886,-55.027648968494304,-10.9660627566509,-34.11275672658769,-19.259054796028295,-10.566123407213638
0.012,-70.90110572217986,-58.867766093992884,-55.669079726349764,-68.82871966018979,-15.732219570771349,-40.19509972424396,-25.16365088182846,-13.182392993431705
0.016,-73.39558524296967,-59.98632896883697,-57.59107830983453,-72.42000798540107,-19.263547730723985,-38.698769471658466,-27.459172599489705,-13.179883895380016
0.02,-69.15725485269547,-55.133690248131245,-53.62128758202937,-69.5786886291221,-21.05099289096256,-33.30063212527796,-26.283625526781805,-10.664713557794101
0.024,-63.932480845242026,-49.325047541485674,-48.117882251659125,-65.50896002703007,-21.106060510515817,-28.55048424276822,-22.630762074408267,-6.457234341319747
0.028,-61.98700753246317,-46.369102844845884,-44.75296358345861,-64.2632107444158,-20.1572369916928,-27.53018191290039,-18.10296864643192,-1.9341393508524902
0.032,-64.3316308511761,-47.32952677883219,-45.05377798298525,-67.02745963628297,-19.422763713600204,-30.524372198151582,-14.432906832668891,1.3867408850121308
0.036000000000000004,-68.86888695305493,-50.612128666096396,-48.177446620776095,-72.04680220942873,-20.028570525210228,-35.33560990956721,-12.911633716480878,2.3845272068748784
0.04,-72.13164713436504,-53.39591475834743,-51.83726598993428,-76.0156261181495,-22.361530317685265,-38.88951455212373,-13.92397972050395,0.7827381645272453
0.044,-71.44074973716852,-53.41405217523203,-53.733257597004695,-76.02247421039806,-25.746556000394662,-39.101641317566646,-16.802094558922477,-2.7328223837751864
0.048,-66.29277587222464,-50.09279981376841,-52.71582034978394,-71.01842185682949,-28.685224118289057,-35.949392686502506,-20.116286743276873,-6.808190880504924
0.052000000000000005,-58.364867756271906,-44.56302008938644,-49.17259822744177,-62.16257669396248,-29.57993554200351,-31.249670594941563,-22.32495071763134,-10.008468260542713
0.056,-50.39883929704001,-38.78119136470724,-44.62388149335959,-52.08328538022522,-27.57970949550969,-27.441089778069113,-22.525649060904158,-11.426119672486692
0.06,-44.760657099593914,-34.42597984469671,-40.87176661314743,-43.59784930435592,-23.084057543599386,-26.175167630991893,-20.94179136686867,-11.002849608740604
0.064,-42.442702926888046,-32.184121552128204,-39.149260161904294,-38.55034839009966,-17.60027549922239,-27.512114310582945,-18.860161397966408,-9.422548916826003
0.068,-42.93574778143579,-31.734236155493647,-39.66243136186836,-37.27508741152462,-13.023935711675676,-30.09047918106205,-18.011308025810763,-7.655112740587953
0.07200000000000001,-44.851112777919866,-32.270811578739654,-41.66704017672714,-38.7996761694676,-10.740020381557997,-32.061739528692044,-19.68129810216169,-6.410066351200953
0.076,-46.794737577679825,-33.12348900942385,-43.94426687124462,-41.53684436335607,-11.013960523913,-32.17102570173506,-24.0020469570928,-5.801341284067945
0.08,-47.9691369259873,-34.071547829923304,-45.37985065867326,-44.041485546575586,-12.971430567540153,-30.342538798280714,-29.797839002285002,-5.375130503473287
0.084,-48.23988510376398,-35.20649887380495,-45.355024207838596,-45.47302605699588,-15.12493563618807,-27.50021245485084,-35.06946914138504,-4.457161931857769
0.088,-47.835402593047775,-36.572465463586354,-43.851480331375114,-45.68077962130917,-16.135442823579524,-24.857032338794056,-37.9027130196549,-2.5986112817163587
0.092,-47.02001384578227,-37.930723349309176,-41.33389025711381,-45.032861960212585,-15.409180862201367,-23.185451415234127,-37.35383651665114,0.1381272094262158
0.096,-45.97717113548333,-38.838910125435916,-38.51510378317414,-44.14945289698437,-13.240862452329054,-22.507062101793622,-33.8579711877542,3.2163559277547904
0.1,-44.9048862821561,-38.96818698540187,-36.10517449915824,-43.65253481787363,-10.512209897833088,-22.30831788036494,-28.965388574235135,5.929160829313986
0.10400000000000001,-44.07659509228381,-38.336535819818096,-34.569708766238705,-43.924239471924864,-8.158108333768894,-22.01443054459429,-24.53192817773933,7.775032139860684
0.108,-43.73777063219569,-37.27234373303099,-33.969173365386894,-44.92152274729722,-6.716139676540195,-21.36713125897961,-21.800519481720528,8.688042715173992
0.112,-43.906231420410165,-36.14998025110248,-33.97316262984373,-46.144220100874065,-6.18511504470689,-20.50472769598929,-20.870304878515753,8.99821092214006
0.116,-44.256665596244034,-35.105502008219844,-34.05582880029715,-46.81024158169339,-6.198801005769553,-19.76505564217598,-20.820496265974356,9.166225011221911
0.12,-44.238378397947145,-33.96860368063159,-33.790862685888385,-46.19730825200571,-6.336522222228552,-19.39890425984754,-20.40092122400361,9.47027507669793
0.124,-43.36129116442106,-32.43469614611399,-33.064052538236695,-43.97796254477976,-6.357186923098027,-19.38326379038233,-18.84725606471403,9.83794377961982
0.128,-41.48319828452054,-30.367717439847212,-32.09279409786711,-40.37696450121615,-6.2436372629737775,-19.441173039320972,-16.35809975380718,9.922724224655724
0.132,-38.92834455444199,-28.02807715785093,-31.264780048010948,-36.08801775712084,-6.084994914506069,-19.23883662134483,-13.992395590106526,9.36077693985149
0.136,-36.347461757186466,-26.05531956103482,-30.896089390886345,-31.995559142436264,-5.926258101222743,-18.61256579211397,-13.061068190372879,8.038219696431582
0.14,-34.38686808088903,-25.19008099593782,-31.05378035425099,-28.83677339845326,-5.7048622084331555,-17.66990346208746,-14.37937930677603,6.199940136412863
0.14400000000000002,-33.326888720542,-25.845231163165522,-31.511501830909538,-26.937405680504412,-5.2948547185362145,-16.702997440945865,-17.764491423708193,4.340884846397472
0.148,-32.93910455844298,-27.808600413131842,-31.86806411605562,-26.16067392435491,-4.607309784694394,-16.010250464468356,-22.06266350839556,2.9395673565036304
0.152,-32.696540861960216,-30.303701057554633,-31.788531709883728,-26.11256764135328,-3.6823301239904254,-15.776909548331446,-25.697866858241923,2.1854503870577275
0.156,-32.222707165337056,-32.39869160024307,-31.23880648071122,-26.484971854694322,-2.7274982777258856,-16.086314833868073,-27.436629972112428,1.859919293151421
0.16,-31.656941157685196,-33.50466129717415,-30.5410254152207,-27.29638345929709,-2.0560699456617613,-16.989722083743857,-26.948474058462978,1.4636565444918972
0.164,-31.636012161669896,-33.63145139151169,-30.182415180339603,-28.85727473936504,-1.9618838560531344,-18.51736423899456,-24.86617688532189,0.5207438860870184
0.168,-32.89555037229513,-33.27706514269141,-30.509124862863473,-31.498616087150367,-2.600194027317002,-20.5944829934607,-22.34519974417816,-1.106892361643304
0.17200000000000001,-35.768224140575285,-33.05797649506724,-31.511376476101987,-35.27153421031937,-3.9146375566538154,-22.948913565438147,-20.42250633276643,-3.0775949055035596
0.176,-39.90669698621241,-33.33945401103074,-32.84288626453326,-39.823856064270444,-5.638117864949663,-25.123480243327094,-19.52784124540233,-4.693496718436876
0.18,-44.38925767918124,-34.06921070815787,-34.03577879170575,-44.50358316381346,-7.354712586921778,-26.62782280624731,-19.37913366712303,-5.226022149871085
0.184,-48.11926693506314,-34.85650945573127,-34.74543449529176,-48.59535322037277,-8.607034703262684,-27.16094372769294,-19.26710668126799,-4.284192083614755
0.188,-50.292928319133466,-35.22844662255409,-34.88007198702098,-51.54531121546995,-9.028224986156488,-26.75853227974676,-18.498001630871613,-2.0081567679612817
0.192,-50.686568598563554,-34.90215682923508,-34.565201165052486,-53.07260065397668,-8.472413105758505,-25.767252872621953,-16.752333820442516,1.0154195237201975
0.196,-49.63241441598507,-33.91797598463506,-34.00660053610011,-53.15307643471283,-7.099438924356264,-24.640342279009133,-14.194122292571308,4.059427092749445
0.2,-47.72779238129556,-32.56748542695584,-33.35401247816162,-51.91182401924948,-5.356994477619878,-23.651289793707633,-11.313178700419712,6.607269303984765
0.20400000000000001,-45.43728815452255,-31.14743897469748,-32.61835666533739,-49.47905175333608,-3.8160960337060033,-22.694474731940772,-8.639346952240487,8.549966296675734
0.20800000000000002,-42.847408812467165,-29.737495664287167,-31.704327110682016,-45.927888312980485,-2.930850159078659,-21.323400694672046,-6.529752494892307,10.110094562779295
0.212,-39.76524010841035,-28.198653945686488,-30.564965000687835,-41.37050744172734,-2.8641817136578993,-19.07231796271435,-5.176892835129195,11.525460881788831
0.216,-36.0777494761835,-26.39470762255155,-29.372130138846842,-36.146762644036016,-3.4797843686232,-15.898000772922273,-4.791038663860206,12.68938844598722
0.22,-32.101454910180564,-24.46493371395718,-28.552325168173866,-30.94092155353769,-4.504941360979615,-12.439657282727808,-5.755279165980028,13.004615375980109
0.224,-28.627917768456427,-22.90489138954956,-28.61608510298265,-26.68959250872217,-5.766741247450682,-9.873971213064806,-8.558803571254884,11.580297524144669
0.228,-26.5978468795372,-22.368650918137973,-29.87798854984362,-24.2923900092851,-7.342652962114244,-9.387891835053438,-13.501931038289513,7.708519239192071
0.232,-26.60686704896034,-23.294016500911653,-32.239526810966936,-24.272492301507555,-9.51407186687129,-11.5522282426723,-20.33189744987908,1.3668951690760878
0.23600000000000002,-28.510001422408095,-25.548264811073523,-35.14130468820326,-26.528217353805758,-12.5214116599019,-15.922646972850998,-28.049561332162796,-6.5418693438454625
0.24,-31.400929683692993,-28.356372369284713,-37.741571880436595,-30.326824365001812,-16.26080518770391,-21.117074422931182,-35.084045806144616,-14.38639270301826
0.244,-34.028663596706565,-30.615148844787427,-39.264181538830826,-34.581474198053,-20.132874542900936,-25.37855876005483,-39.8146745917461,-20.378696781234908
0.248,-35.40693671048689,-31.428048738406574,-39.3181890381652,-38.255716373733776,-23.17363976371348,-27.32551094406608,-41.19092264116267,-23.239514078732668
0.252,-35.247329815869534,-30.538774235179517,-38.006316951890085,-40.68732160452305,-24.43502599649389,-26.495974993261825,-39.13294225989682,-22.633011354214148
0.256,-33.990734723618516,-28.42150923456188,-35.792847203097836,-41.707319800808136,-23.439484622441455,-23.44036904645759,-34.505492231675476,-19.175399128494746
0.26,-32.46920011917473,-25.99621653409679,-33.25138435188569,-41.563650735935425,-20.469727516797775,-19.370937912871796,-28.700494587178582,-14.045265675075598
0.264,-31.411589653521787,-24.131216801107712,-30.8494285990364,-40.73199629416604,-16.523082546343858,-15.596323258845587,-23.061036072209163,-8.4404105243338
0.268,-31.074039946223138,-23.21051488007788,-28.85186790461512,-39.71170126091329,-12.927822192393023,-13.024412436546527,-18.4356909164419,-3.1683263148268566
0.272,-31.184429318013144,-22.996788933384323,-27.343670608654975,-38.86903709721901,-10.798486081141846,-11.932660294095285,-15.041903286940169,1.459426574454028
0.276,-31.206923886599498,-22.86324966269308,-26.325029283633512,-38.37971790006759,-10.600150579868341,-12.049770083533758,-12.628748847576276,5.4490807772572225
0.28,-30.772505272461785,-22.26976842968736,-25.806221948612347,-38.27748583610992,-12.024558509589724,-12.836396419430002,-10.7855387861199,8.847331556255085
0.28400000000000003,-30.010229896172177,-21.19271582728402,-25.84423547307142,-38.55553409847698,-14.221783514850586,-13.783760876124916,-9.193119852277391,11.56243195686875
0.28800000000000003,-29.514911216979726,-20.185107007594297,-26.469626049523413,-39.193551464456505,-16.219177915878618,-14.56023654469459,-7.687271656823782,13.391842927013272
0.292,-29.93475920144533,-19.999278071181834,-27.551105355104937,-40.074685230064006,-17.302812054990454,-14.981615669435314,-6.169677126602778,14.188012449067628
0.296,-31.468179885335303,-21.029965712997864,-28.734268399088705,-40.89875891756742,-17.203148281745825,-14.921501087983415,-4.531331251902202,13.987947035988668
0.3,-33.63281247368991,-22.967254710934185,-29.546620029363567,-41.209601830843894,-16.05223583323982,-14.29305088060687,-2.7212195658603378,12.986744818333023
0.304,-35.46103275384439,-24.88672096439268,-29.6299307637737,-40.56289596634019,-14.200003165564794,-13.126949116901415,-0.9187809150618023,11.369131006698467
0.308,-35.991870300128085,-25.722765405869723,-28.931725449363967,-38.73895853863223,-12.023044680270232,-11.631779632937878,0.36315053185160195,9.146783050238469
0.312,-34.73783524123792,-24.824049790009667,-27.700587279205592,-35.85842666789631,-9.809246619600117,-10.132516502507542,0.39922123751875915,6.154594473444945
0.316,-31.877163388778627,-22.271216190765017,-26.29306933524026,-32.34312250394032,-7.747899175213661,-8.896134032929012,-1.3891226533905865,2.2496353831147644
0.32,-28.128587092518956,-18.828631675669612,-24.95140622935105,-28.77337375216939,-5.999539130868698,-7.970069018186905,-5.045419679379165,-2.403688599326074
0.324,-24.42232292919607,-15.585203857707029,-23.713978416082682,-25.727731244363895,-4.765087169960452,-7.1763843379726495,-9.957997234689628,-7.180414611505739
0.328,-21.539165123152998,-13.464992235512227,-22.498078392570278,-23.643342178557305,-4.280105612308944,-6.271586553901898,-15.092515601435252,-11.108746554248341
0.332,-19.874979167299898,-12.85085251664259,-21.275956353558286,-22.712134054757826,-4.729743299949632,-5.1565171883528365,-19.46064485917975,-13.223781722946455
0.336,-19.410994102751374,-13.50208410753612,-20.212858927652178,-22.837991106758636,-6.139755916769445,-3.991974345317203,-22.564408535851953,-12.988627065020978
0.34,-19.8610396364993,-14.778863974678643,-19.662167802665408,-23.674936837468977,-8.319613194975318,-3.127043073692221,-24.533894435971433,-10.541886995430787
0.34400000000000003,-20.860066011558956,-16.007935427844814,-19.993497028737238,-24.73283415289825,-10.90209562822588,-2.856673822743687,-25.86633668072352,-6.626899279784425
0.34800000000000003,-22.05546469115643,-16.762445761048866,-21.33385192333276,-25.50772187882285,-13.46755127603194,-3.157484012467421,-26.94373924620095,-2.247149313287423
0.352,-23.082097222251832,-16.935538655247683,-23.384682353827884,-25.607133299441557,-15.683623305874335,-3.5867422551359596,-27.65188421101709,1.7567263772548358
0.356,-23.54671957139044,-16.664005113576877,-25.48259838141803,-24.874392535293737,-17.410582973278906,-3.473041275458172,-27.409582313689953,4.968256686422251
0.36,-23.147546404640707,-16.228117034964725,-26.92489848473724,-23.49018260747016,-18.722595052485758,-2.3398813414837605,-25.630632329015725,7.380721137833348
0.364,-21.89818104599408,-16.00031799941553,-27.384498467817593,-21.989636730047096,-19.83145997684187,-0.3179795425382963,-22.31123732443757,9.175121613490887
0.368,-20.268115802472494,-16.38819809131087,-27.115272363947042,-21.093545250449097,-20.92304680274833,1.7659220042585275,-18.309714065004187,10.479170470543977
0.372,-19.050805257323645,-17.67952817097489,-26.76176379195067,-21.355651795187896,-21.976629863224844,2.759169144629368,-15.028959749927822,11.276979212576634
0.376,-18.978316928309596,-19.824507809046736,-26.87174374370761,-22.798101491885518,-22.665966641159685,1.827306835218451,-13.635380480495655,11.495172352618852
0.38,-20.283823831450263,-22.29615826769077,-27.416400173482998,-24.761218620946238,-22.408006631308126,-1.0032205665866059,-14.286580248471523,11.16131340422271
0.384,-22.48455463434493,-24.17104607481565,-27.65659833215659,-26.110625511963008,-20.569851805905728,-4.757410608468717,-15.896788847004132,10.470029255817508
0.388,-24.550752670918882,-24.474994652149235,-26.48051736608113,-25.73998484305821,-16.766553932762918,-7.954049366163872,-16.652041808073477,9.671568210135206
0.392,-25.380144719925738,-22.653438352273724,-23.03653101243617,-23.112427495498196,-11.109009337217685,-9.338631037067444,-15.025812648206625,8.862724839605448
0.396,-24.33220738341697,-18.919801768978232,-17.31454875837244,-18.557946980390625,-4.27447850745034,-8.500713442952474,-10.727958890776335,7.849837810694908
0.4,-21.552500982429592,-14.276121428167926,-10.340665600958346,-13.17061811685835,2.65478878008048,-6.039917717560002,-5.009152502662573,6.226226651637944
0.404,-17.88600763636032,-10.12080015833817,-3.826215843726459,-8.32664467221548,8.536767195261973,-3.194986366490866,-0.09477298930437428,3.6693931235579385
0.40800000000000003,-14.413951436798925,-7.600208320740876,0.5832336784533254,-5.055993483422299,12.553811248334114,-1.146759372004908,1.9680081694287992,0.27489776072866334
0.41200000000000003,-11.852692144723278,-7.026881966809015,2.0824089329266826,-3.574605114433325,14.475648972365661,-0.3832897666397912,0.4187147670484137,-3.3074952867531238
0.41600000000000004,-10.196216263615952,-7.713776343335667,1.0769711164534783,-3.24706660050515,14.683191602075112,-0.49553103983612345,-3.788142759355992,-6.07101201043065
0.42,-8.853897510294246,-8.393186119243865,-1.0844540823763964,-3.0314697451922257,13.925741119613576,-0.5190887096023289,-8.490859305706863,-7.117809071585043
0.424,-7.191626418107717,-8.010232185378527,-2.883744506527819,-2.170944017963393,12.924390013790571,0.39843941754816115,-11.48117172530624,-6.151483401321229
0.428,-5.097574056274425,-6.412982521307185,-3.461268076552642,-0.7128523504707118,12.019821524002282,2.425580123393729,-11.63869202849844,-3.691942276564646
0.432,-3.182416204175297,-4.505874222511238,-3.0261218983023355,0.47113586625437165,11.039846707181596,4.928928312057906,-9.405672136467501,-0.8512502665485044
0.436,-2.4668142248083313,-3.756653433524889,-2.655542710673217,0.1766197698434553,9.42948950958339,6.853115437772431,-6.382170352231697,1.2233250854434345
0.44,-3.7478631707067507,-5.349579687753021,-3.646231448360595,-2.4159694462077823,6.565927927161283,7.342207054713981,-4.3445945266068975,1.9305809551655102
0.444,-7.049049381024815,-9.478625886301415,-6.8052124338737485,-7.211457161342878,2.102628705054485,6.216728714687633,-4.283985739791433,1.4895202293878356
0.448,-11.489442046050954,-15.181143327558402,-12.040907496691034,-13.134991621919653,-3.803274056707096,4.044309886079191,-5.976642882243368,0.7494387647055873
0.452,-15.650153814677196,-20.79409141457245,-18.41448228707759,-18.55604799967614,-10.470774181849947,1.7979102374301874,-8.259287631786037,0.6426143136957307
0.456,-18.24371802193309,-24.76530056146794,-24.56721671375908,-21.981937240473144,-16.870396281450894,0.32130588284644546,-9.77057613267516,1.6074270971523674
0.46,-18.716563687411053,-26.369143563680836,-29.26224396448606,-22.66875215427399,-21.907933961906565,-0.09372522992453014,-9.685835888278916,3.317561377594984
0.464,-17.444507475880073,-25.93874517148697,-31.764444820030803,-20.85810104111988,-24.71543875646762,0.21144074695030213,-8.040602206768654,4.865287341851058
0.468,-15.40660568143312,-24.50037284662426,-31.902629329777028,-17.531498957153417,-24.848875430306407,0.5470377155043025,-5.524876355600554,5.294079795777293
0.47200000000000003,-13.522825437665233,-23.05203805488668,-29.867714917319518,-13.835912505669967,-22.345053490564396,0.3408535324088007,-2.9513663348511727,4.165887670223583
0.47600000000000003,-12.074781478410841,-21.944058922995282,-25.961706091924043,-10.518223224587473,-17.649530299751405,-0.4967931734367994,-0.7751246551733857,1.8338365819420233
0.48,-10.586147493162116,-20.746735246030084,-20.509610498000256,-7.685501711971938,-11.476377623738472,-1.5326736848314795,1.0415623038220474,-0.7354004392676643
0.484,-8.232947256714397,-18.656532605793927,-13.96712313962098,-4.991834361636393,-4.657842524991793,-2.101931588876596,2.7929788404187548,-2.4805386414370787
0.488,-4.518011143894455,-15.155253327083528,-7.082162759298626,-2.082630825205797,1.9801021169000705,-1.7383684584815455,4.651719059531388,-2.801752057869521
0.492,0.2286385099364452,-10.482535717118708,-0.9077278915442548,1.0053696990798926,7.698194126714952,-0.48304472770882967,6.417163367196281,-1.8490563634743467
0.496,4.847652550574821,-5.634359892727616,3.4326719629107174,3.735894953204024,11.896554943235287,1.1055267327635647,7.562255050610702,-0.39363915705462205
0.5,7.8555063982998945,-1.914827883191947,5.128972321003857,5.299599785100327,14.1519932985168,2.2229159847670417,7.523831780338583,0.6253727248143832
0.504,8.174995714738543,-0.3132956695467328,4.015461312248135,5.029815466380114,14.249592028216057,2.206556016579725,6.029150313252217,0.6127385114883737
0.508,5.70198513284231,-1.053567607277273,0.6671773416801443,2.780618855229932,12.223381550450085,0.8513628639082071,3.2582199301768924,-0.3920917849094394
0.512,1.4214962866030874,-3.52084000785635,-3.787950260649268,-0.9267830309258898,8.40107594677238,-1.4776676586513986,-0.22481032538041745,-1.780336468926862
0.516,-3.002577412995379,-6.585885082862887,-8.081232178099526,-5.086256024492741,3.3946962275865644,-3.980513603610916,-3.719323689330281,-2.7324415266538153
0.52,-5.979768270266959,-9.142439327654301,-11.267730698315518,-8.637497860774147,-1.9977508734959883,-5.7388011755867865,-6.660805852234262,-2.645203642769161
0.524,-6.7182435573540715,-10.583663900455576,-13.049870600048962,-10.942005737952513,-6.985039009685352,-6.076950642061547,-8.779564942900038,-1.392358983374038
0.528,-5.550961466331955,-10.996575147481508,-13.818624934610853,-12.044081432680741,-11.022192717462985,-4.809195507389177,-10.106793939378463,0.6946653801435332
0.532,-3.6958440478911143,-11.011191546433338,-14.397986006784322,-12.56558993586441,-13.982233171842381,-2.279131958936432,-10.856600672973855,3.0714778841530688
0.536,-2.5948153711165105,-11.433313706099852,-15.633451686734134,-13.302539795366101,-16.17578348411257,0.8016958006267032,-11.27480414382228,5.27290622378257
0.54,-3.189780370637891,-12.872476621457736,-18.020522083116703,-14.747113344847548,-18.186135214371916,3.618939193894221,-11.54116461990634,7.088343344166901
0.544,-5.510706974225286,-15.531247130410065,-21.51830728936966,-16.797413503491953,-20.577203442064047,5.50624394493434,-11.739165484395016,8.528002098492948
0.548,-8.715530167519319,-19.16794505611938,-25.573126054696786,-18.778511845448975,-23.582847198289983,6.121866667443328,-11.851216296104099,9.65132546914299
0.552,-11.502807304439102,-23.171620597855508,-29.28567953808988,-19.738454766301857,-26.91701528117892,5.526474158047449,-11.741151204645462,10.408039750307921
0.556,-12.678609698562468,-26.699705214082087,-31.657186646725677,-18.871133314250528,-29.80639735183331,4.153157792276261,-11.159232802161569,10.611960956154235
0.56,-11.615436511341159,-28.85884278194999,-31.848449418942437,-15.867167394644184,-31.23939609981494,2.6712129361399093,-9.810426666166563,10.06784454595413
0.5640000000000001,-8.435104197428245,-28.923723790325084,-29.405931522903757,-11.050308177831994,-30.335195983214362,1.771605479237678,-7.511137521010937,8.74939011668846
0.5680000000000001,-3.8663903355050024,-26.54606727029659,-24.391830061701967,-5.241840522437087,-26.67802866038619,1.9464895020155382,-4.363111051832107,6.896290142628459
0.5720000000000001,1.1285863243524545,-21.876534818687333,-17.36950385570117,0.5784401134233121,-20.482949492625266,3.3467355647353543,-0.8260996307622008,4.948767512652353
0.5760000000000001,5.7461611236608405,-15.545097880763024,-9.262410879996878,5.623223942460299,-12.541721882418415,5.755524994857751,2.375308917422899,3.3407293976980554
0.58,9.547091802255636,-8.511889824664422,-1.1494560661226387,9.473223100692849,-4.003671265809771,8.677741028880746,4.496676158948958,2.2741623148417602
0.584,12.39590063213791,-1.8448820648145556,5.929091367620458,12.00487459202759,3.8934913930486346,11.512079845031394,5.058482018255631,1.6159276971584404
0.588,14.251189783980863,3.519518686045558,11.13028049362174,13.18427984373784,10.062887965486425,13.753372307564632,4.028574725014209,0.995936651093416
0.592,14.989022294525057,6.960819136056898,13.929043491443736,12.90577106169576,13.73774945827995,15.15313196275315,1.7977220132517004,0.05351991121642641
0.596,14.382164987298893,8.251496217585327,14.183760462255805,10.99118996852485,14.56122761825327,15.774968643980856,-1.0384544081772447,-1.3169208795089844
0.6,12.233564327327258,7.511354330872791,12.134799020076798,7.344890358268231,12.612328232303753,15.908271589756168,-3.9793749389201594,-2.865071179804886
0.604,8.564430873409492,5.096343203233573,8.336204412084044,2.1564816337256616,8.382791408126195,15.874777684501396,-6.819932279108798,-4.081056997927931
0.608,3.758656121871354,1.518144927028061,3.5482679086296685,-3.975372835179087,2.7055264004382025,15.846673010450104,-9.622944393295029,-4.421795487443887
0.612,-1.4384395395973115,-2.581529681549682,-1.4049830038329674,-10.102484431771018,-3.399231490689999,15.774400021908377,-12.483530998511014,-3.536934170534778
0.616,-6.108056815660575,-6.45311233279017,-5.799941296856332,-15.180862851148959,-8.94839976756316,15.459321420026981,-15.243700927446866,-1.3739693345553405
0.62,-9.457738193076693,-9.336977624960241,-9.173504040497164,-18.42095825135607,-13.242729644708106,14.716905837053446,-17.372880629982433,1.8634519938625544
0.624,-11.09157112026719,-10.66160867929193,-11.43548157234818,-19.56735301031813,-16.054994849643663,13.524122101743615,-18.127657448955006,5.834569574582815
0.628,-11.126854920055393,-10.275824550027892,-12.857042320265919,-18.954559050419903,-17.663537541568076,12.055775841377908,-16.93984789954345,10.147145450279481
0.632,-10.091079268804378,-8.570116890602321,-13.903637114862931,-17.30151489155014,-18.683687874802217,10.598666707628809,-13.799895266459316,14.360743671630644
0.636,-8.644115355658414,-6.371095812240014,-14.967682503777723,-15.341361532711062,-19.75324841212796,9.403088122250665,-9.3888455107043,17.94152534561465
0.64,-7.289015343535766,-4.628480032838979,-16.14033520381531,-13.491499703738555,-21.21712838406347,8.554145376798942,-4.873430853390687,20.25592546059829
0.644,-6.223167818815,-4.02875846681502,-17.158268839757966,-11.744207064481998,-22.961566482243825,7.9446303829367935,-1.4358321459801573,20.68314477088086
0.648,-5.361323376846485,-4.707033360691753,-17.541693597929907,-9.802557192861968,-24.46905612590467,7.374345524746332,0.22718651402476553,18.84251720887937
0.652,-4.473526648215056,-6.201558334081938,-16.84966964371756,-7.359823023239187,-25.07556631309194,6.7189961229928485,0.1797577615566297,14.827714566437578
0.656,-3.342970972887997,-7.683023918049685,-14.917375121271789,-4.357654823028042,-24.303167929845927,6.043876338198515,-0.8442484524872498,9.289287873599164
0.66,-1.8702827190975313,-8.352628740018417,-11.951859554498697,-1.0819359756160338,-22.093980392372032,5.57044566373429,-1.8535730223824203,3.2729828902191684
0.664,-0.08811273722562873,-7.7932641306751975,-8.431213942985778,1.9514914686430984,-18.821192004781892,5.499904642646925,-2.0931213839763814,-2.136579522624004
0.668,1.8856273347898878,-6.1004855818716806,-4.865649289084558,4.254004577046544,-15.08591175132301,5.814311130027363,-1.3661235341272686,-6.203142619629716
0.672,3.928554413739448,-3.722281296410756,-1.549702108838801,5.634035477243742,-11.4025510611948,6.2158331908892706,-0.022013511930083496,-8.752558291228524
0.676,5.963943214011806,-1.1254957851347172,1.5415833133497472,6.318188168932238,-7.951835456492404,6.264117266026574,1.343814244844907,-10.104818257265947
0.68,7.925120716590527,1.4603141628764433,4.63397985505776,6.826779251575317,-4.554275753446518,5.640577740507979,2.2650541832182967,-10.77433136452811
0.684,9.657033279745747,4.050662576065292,7.882336866505739,7.646842931821084,-0.8784590291788845,4.369965366832275,2.6208434924981816,-11.118173865212839
0.6880000000000001,10.849374908623304,6.685647798292393,11.127098331012576,8.884384700723785,3.2334850274854716,2.8562522254741225,2.6020746236260948,-11.133061956509096
0.6920000000000001,11.078238533054673,9.16312304827386,13.860859886155367,10.108638842798882,7.526869637412801,1.6937357618581927,2.5031451390694315,-10.492997886909393
0.6960000000000001,9.961770380856706,10.940062370968803,15.43574058607237,10.490078596880267,11.320976699784183,1.3473093878338886,2.495147573292911,-8.787453533356029
0.7000000000000001,7.343510531373113,11.297939723370291,15.378851173868725,9.169426855245092,13.732629070268445,1.8846981888001437,2.5244818379736103,-5.804737464954826
0.704,3.399801268934425,9.694531697049342,13.613906037783181,5.683222580793199,14.015436518568436,2.920910742968317,2.4023634313473394,-1.6890135060199327
0.708,-1.3780085299667917,6.099670614021079,10.449226239275276,0.24795215350059152,11.8410262871663,3.8195519735896823,1.9801483921252725,3.0943552302162516
0.712,-6.321444626559924,1.090485831642809,6.344386943917925,-6.236955724693644,7.379109601322625,4.036859661252606,1.2619571921317174,7.931732934932029
0.716,-10.790179944697002,-4.383427830403093,1.6092676689097516,-12.481614268091562,1.1580594839066407,3.396976909053933,0.37186494908632994,12.238816979462626
0.72,-14.342146302385572,-9.438870439511106,-3.747113372402964,-17.244702270140806,-6.164198529445912,2.1390271538141405,-0.5979816379481235,15.556018502108316
0.724,-16.771997217844955,-13.626204686676829,-9.878193543870339,-19.715074111941703,-13.952738212455301,0.7171086447262951,-1.7240126791028842,17.547670581002535
0.728,-18.039422191915037,-17.007289549120173,-16.736898370397967,-19.686260985326726,-21.594369942397407,-0.5046512868681248,-3.241761137832839,17.964839345525945
0.732,-18.125810843662293,-19.870659564473044,-23.696051619568834,-17.460726339236544,-28.37285274535452,-1.4520970094749828,-5.344932010113098,16.662013306101812
0.736,-16.904402269943603,-22.260543981531214,-29.42308171321929,-13.57036627415755,-33.364245257292396,-2.312724124702413,-7.903288656561529,13.693421450357675
0.74,-14.16891711157109,-23.69098716232577,-32.21190782121471,-8.53544734991624,-35.53435100366164,-3.328956055344065,-10.327122038988705,9.403661738168921
0.744,-9.822655230476357,-23.276098725185648,-30.67253281484841,-2.790261409917548,-34.06671720093698,-4.579552150636573,-11.705976990288036,4.419532109813076
0.748,-4.109625651041824,-20.233976196879667,-24.439545327002406,3.229488112669742,-28.786547527899756,-5.911502268039499,-11.206427052942956,-0.5118514155100797
0.752,2.271278722631905,-14.47343274367961,-14.508742700762696,8.956415677650284,-20.433773148238174,-7.065927155989584,-8.532000863076291,-4.781929169128432
0.756,8.296964328569857,-6.863244644637803,-2.957790657523219,13.686463889744346,-10.559025803446161,-7.900555113625273,-4.164652539321253,-8.120938185686555
0.76,12.957477502171741,1.0176513175650825,7.83626309766737,16.745091880962264,-1.0340979546197104,-8.540093333881032,0.7813738243505668,-10.616467928877114
0.764,15.628769372828401,7.540862470547609,16.097874875344473,17.748547631461292,6.613414041442638,-9.340835743492221,5.041728377572952,-12.52056860798632
0.768,16.28645822092335,11.739329009064136,21.229510829840365,16.804939625464613,11.722339334885987,-10.658129960991573,7.769133217994579,-13.957341579343392
0.772,15.44312745523439,13.675005780822744,23.79644175749138,14.507528782890063,14.615012353569114,-12.56550191937231,8.89216873352558,-14.72413160486434
0.776,13.842911662815027,14.2599238499472,24.983221020069777,11.694511132412345,16.262083656541336,-14.712745650850707,9.091190912565366,-14.320620767510945
0.78,12.061125516623292,14.62849717913923,25.846736761515785,9.070693622579142,17.678747887982922,-16.434949823315037,9.398503203648659,-12.213195173334498
0.784,10.240437032529712,15.448594333605854,26.791476876762545,6.903024385374351,19.393271995768146,-17.05869963142777,10.661223436248235,-8.177918165552398
0.788,8.113039943532272,16.575387835836523,27.530981965076194,4.96486080999307,21.257124368780296,-16.21935750473085,13.141539800743942,-2.5123733742946683
0.792,5.298139552888188,17.239372934646326,27.49061198141078,2.7687367335674935,22.653218220559438,-14.005632324957901,16.43866606645082,4.0089213811835975
0.796,1.685022300876426,16.611545485371835,26.328154615654512,-0.05217405852624779,22.91443991602364,-10.856124885133,19.731520894618882,10.416105866352154
0.8,-2.371415510819361,14.336124173644635,24.183025105022466,-3.466509691029387,21.655915244832272,-7.297076276991106,22.156347069745266,15.887433880024957
0.804,-6.1811059176695835,10.69204850300872,21.49040899632189,-7.0402690555531535,18.840722790608197,-3.70952122502365,23.10125933427895,19.948572429405488
0.808,-9.096728892930628,6.325717071193651,18.527845508785276,-10.183976311967967,14.620091946716343,-0.26311001104602383,22.315903437944087,22.449681627754103
0.812,-10.899797528728186,1.783990411681259,15.059531104737857,-12.480132901611,9.142654387664038,2.974413910652288,19.861178331514054,23.386434984093682
0.8160000000000001,-11.920935738443177,-2.7733403544307293,10.413707183348606,-13.858048174614055,2.5548943058543045,5.869789691128631,16.03724275667696,22.73641163241473
0.8200000000000001,-12.80664534503694,-7.477325315802375,4.018374706955569,-14.513126293725918,-4.774759873606058,8.144631701951084,11.35209534582009,20.439428967943485
0.8240000000000001,-14.072307913841314,-12.34920696104615,-3.927911787518724,-14.655049286623239,-11.98907750815215,9.445450328238962,6.508106133559693,16.522896065564453
0.8280000000000001,-15.696223311398398,-16.898648266430314,-12.100492581897925,-14.263494932163894,-17.700224454711588,9.520541484225191,2.322636335954826,11.262446679151168
0.8320000000000001,-17.030796217475654,-20.072435727633774,-18.338493118090696,-13.05312914448848,-20.35175160915435,8.374999394045972,-0.4754811898264393,5.210592866126802
0.836,-17.103518751441698,-20.66391966224427,-20.531368249925094,-10.689485680256553,-18.899580559738297,6.280916352878876,-1.510261792516303,-0.959197528474192
0.84,-15.14429637728847,-17.973117027079127,-17.65407380585941,-7.110638238955858,-13.446790695724644,3.640762904239523,-0.9436825320007074,-6.697615818272851
0.844,-11.044670422807826,-12.307477723205182,-10.37427399492185,-2.7318349449652715,-5.414883377389572,0.8035090980376935,0.5850642812143292,-11.734146749546852
0.848,-5.459060565956747,-4.967906768550677,-0.8286843601355258,1.6553744068708056,2.9550987354174936,-2.023807928453607,2.304074533307528,-16.00080170433256
0.852,0.4981703844397316,2.309149010633803,8.347187859810447,5.256621123555647,9.569531713019785,-4.711819555923398,3.770597062920217,-19.37302094260292
0.856,5.781150298506418,8.14248586162006,15.218672369333262,7.697032200440958,13.410753054220208,-7.057065920893422,5.161314435810027,-21.444996033989213
0.86,9.851287557930618,12.061135836361075,19.320053658281267,9.208951548077152,14.90019874310218,-8.697090295493012,7.163275217125772,-21.561018115982336
0.864,12.753979188687026,14.492022569908443,21.572144180401438,10.421354044150576,15.463496057693703,-9.21502434376805,10.473012541953636,-19.173477946618448
0.868,14.810572427550824,16.19958964061493,23.4106311024741,11.841330696094701,16.516959489807732,-8.422378133372092,15.136539420979574,-14.376148080144674
0.872,16.15705219972233,17.572677745532303,25.676603917484385,13.355082341320212,18.47200057223756,-6.639933510732135,20.152677330213834,-8.257836171829354
0.876,16.442284473562495,18.23679446499642,27.953845735596133,14.086901300946693,20.3644185969423,-4.752573970127571,23.663058956556284,-2.759053813005039
0.88,14.901886672442288,17.244085693975023,28.745118867483598,12.753817780281906,20.348958638311274,-3.928014456714095,23.70344150814813,0.024720189180726493
0.884,10.801209693663736,13.73563242355766,26.38563997226572,8.376420757555024,16.811313451287333,-5.080497072628987,19.18363277242827,-1.1818817319768868
0.888,3.991867918208982,7.6489962313593765,20.14834941535912,0.9687762336351398,9.46440043360576,-8.346203643159583,10.590382433903642,-6.077646002753255
0.892,-4.730449166272479,0.02761629778507313,10.89230735984188,-8.178685790960913,-0.2037961564137163,-12.858983804257832,0.020716234339090533,-12.689540015038375
0.896,-13.682089270173378,-7.280698503560757,0.8775637254411777,-16.803208311764365,-9.403270470780967,-16.984768349354283,-9.509528661515844,-18.074581034477063
0.9,-20.791366096712522,-12.388037738626394,-7.163658647286525,-22.461537512185714,-15.195897523034773,-18.941571316969146,-15.197871616220397,-19.524180135270996
0.904,-24.35395317314544,-14.185932016581717,-11.21157015627,-23.467165761759247,-15.742392964581711,-17.537602333788527,-15.509490393097849,-15.720967645403704
0.908,-23.6896448635016,-12.774779673272747,-10.770832512015659,-19.537280093577692,-11.01635934948024,-12.684996922371738,-10.681298579182226,-7.298997421700506
0.912,-19.41823270047007,-9.306854806368051,-6.926022969006453,-11.872400290258156,-2.668248486333823,-5.4592063229099494,-2.4985884176853688,3.4402520421589315
0.916,-13.22752652881195,-5.364429966178022,-1.67604192656961,-2.661034586393498,6.806027221281397,2.2957205972376187,6.486272810880564,13.481632059104527
0.92,-7.23488114696238,-2.239454594170752,3.0486306668319685,5.748027251937401,15.111301308353404,8.625847256272891,13.908681088620142,20.25285575861801
0.924,-3.195982761552841,-0.4656239768303294,6.173958049877683,11.642260974579813,20.91086490399266,12.091263014968717,18.323770185994476,22.469853566878953
0.928,-1.8666436502796842,0.23294505333444704,7.745597347168314,14.417350708177537,24.02074925257193,12.136634939421015,19.487760767891473,20.368005357078687
0.932,-2.767880781244912,0.6381684033704005,8.642498189757134,14.592394405249024,25.093318914232896,9.12914148568359,18.187968950365416,15.333663053883015
0.936,-4.4261975736098975,1.6224306419862842,9.998831835770716,13.436396731525747,25.0907466094136,4.126852683405332,15.79154063352945,9.212984051151807
0.9400000000000001,-5.005037403574306,3.81009583508785,12.643611134284129,12.384376548185173,24.846223340736287,-1.4919628970052372,13.704030729077601,3.625775703750378
0.9440000000000001,-3.089894026345746,7.402612112444103,16.78256999823816,12.463593697027363,24.861690643918337,-6.412792563330868,12.90833632721234,-0.46861880082855123
0.9480000000000001,1.693530348756667,12.152497905950213,21.980097511414215,13.931845167194297,25.30886082961524,-9.688099240068254,13.699502770390723,-2.8679747317123656
0.9520000000000001,8.48823297271997,17.420707736248232,27.34577227346813,16.235376638395337,26.099896577645723,-10.906392573703215,15.660576479314386,-3.9611633948877625
0.9560000000000001,15.531529192211337,22.29462360890875,31.80446779952399,18.28076400482223,26.920644765224097,-10.215351223751668,17.85931509451234,-4.437758667569824
0.96,20.851905518122066,25.7663571958102,34.35958167906938,18.899889748833175,27.244681866753126,-8.198839449691604,19.203602370472936,-4.980726263739655
0.964,23.01627013959387,26.972351272220976,34.31464901954814,17.31421272618263,26.40756631858335,-5.643905994902752,18.835370629754607,-6.022657191764893
0.968,21.59264018500653,25.457258868328495,31.436246876947507,13.407583738660833,23.805287874578426,-3.271809995453168,16.41386556377529,-7.614410935466367
0.972,17.14289497789514,21.354372407874962,26.021986709488374,7.70647686689972,19.16519941372235,-1.529084840450878,12.180212635313637,-9.436777828792401
0.976,10.820896501371863,15.395728396531467,18.849337340938973,1.1201135139829148,12.77270078649235,-0.5052833700005976,6.796257471779882,-10.946718911387961
0.98,3.8228946576036833,8.705682890026537,10.989877443430032,-5.409099865915323,5.517081806124224,0.003855770014297377,1.055482647889221,-11.60863249393742
0.984,-3.007131169193144,2.4433093565653508,3.5297220302754795,-11.166884969329203,-1.314647332712866,0.3255506697519195,-4.37077821259868,-11.117858399075658
0.988,-9.226186717862674,-2.539741603518223,-2.6916497824013277,-15.715061403061554,-6.422272042957047,0.7240111643691307,-9.013846701832563,-9.500458103553683
0.992,-14.551858394775081,-5.8778490832887655,-7.2200673179909245,-18.754510355679486,-8.887166001505875,1.2880672517160292,-12.51518886243457,-7.043980946024249
0.996,-18.581667690135873,-7.648459967040253,-9.96389551194261,-19.960721395745622,-8.426758667671038,1.925395915572608,-14.494026414458403,-4.119653402269478
1.0,-20.749089573211222,-8.191799325222291,-11.073044972981734,-18.975093416216623,-5.438960474533815,2.4373277206209423,-14.546843546773744,-1.0296061750957506
1.004,-20.595622718882623,-7.915270462800208,-10.824462585348556,-15.622987286465104,-0.8482710176290311,2.606944404236401,-12.460190970210988,2.011202460099412
1.008,-18.208486184696994,-7.192505429299672,-9.586585856172405,-10.245864910039472,4.158926052981087,2.2528984454224883,-8.531132132182393,4.741837394959816
1.012,-14.488690809519994,-6.351056694678846,-7.830316004130964,-3.8948036717338255,8.432972563464773,1.2547106117312978,-3.7384987159907723,6.702071415939827
1.016,-10.959653181336762,-5.6642969193858335,-6.09357613291877,1.8424825319752927,11.141987832721497,-0.4089552464388362,0.44344387501678284,7.2321909190445695
1.02,-9.111715980337976,-5.280495378955948,-4.832924259541869,5.400209787823769,11.9873698871138,-2.593851084972357,2.602273861875574,5.714257884501876
1.024,-9.609690559891078,-5.106206909198818,-4.200902156105258,5.933154045826996,11.291260721748586,-4.944035912510799,2.065484178490351,1.9701035124344344
1.028,-11.826227575817484,-4.745447582279212,-3.8873981308101975,3.7757052457805003,9.884582989714318,-6.920464138973557,-0.6866381364272911,-3.4238746561129574
1.032,-14.034125147025406,-3.5960322056930636,-3.1714202518105594,0.3639382056881004,8.796659142110457,-7.951627232956071,-4.167264894338132,-9.156636845002822
1.036,-14.21540921691485,-1.1128614585188643,-1.2241988043715537,-2.3949976495232477,8.831314380415506,-7.67416472522973,-6.5903797811763525,-13.630069451411373
1.04,-11.108547985188125,2.856048673955229,2.4329335124307363,-3.0272789536356868,10.192094134481067,-6.152547925892122,-6.782829074993515,-15.662905311051986
1.044,-4.913067114515343,7.874104659112845,7.573161918435744,-1.185599759572142,12.367999641260667,-3.928645391205009,-4.7985112496992315,-15.073621531800654
1.048,2.7463424727548045,13.003153011510221,13.23200877272302,2.2400012871098625,14.368687258114733,-1.837998419061023,-1.88013123595465,-12.796216586006494
1.052,9.585300631958944,17.17545048947818,18.063300361591246,5.650397292385151,15.216166080526818,-0.6453350081155804,0.23254193653929178,-10.412807377166928
1.056,13.759084979596537,19.68442763185749,20.93052993409856,7.619877029583222,14.452266123037134,-0.670672989175273,0.2671331867779827,-9.315967472607781
1.06,14.680354499163059,20.49889802427424,21.403997166345107,7.626171209992663,12.370483370872535,-1.6223415705749176,-1.8951890987655133,-9.95848541198825
1.064,13.120489108983747,20.20655221776451,19.88198428097894,6.219232639756228,9.833834608186407,-2.753522116887325,-5.203054217358158,-11.623890676765313
1.068,10.576312249047987,19.60075553693423,17.259307666978202,4.556840455020392,7.7582777860789065,-3.2850549289082664,-8.086894910854198,-12.863799655078765
1.072,8.305679231456452,19.149996003193337,14.355446950662554,3.6212809995649877,6.57312834527238,-2.8608774598010314,-9.376275907119634,-12.353534545169396
1.076,6.645187208811876,18.70728909040963,11.478846573199007,3.624875971041547,5.999130743861315,-1.7731601128361945,-8.9169124155394,-9.671626763915356
1.08,5.0051750835446,17.652653266464768,8.397495265248835,3.9689553022008113,5.286196288726842,-0.8152863471646015,-7.550435337882391,-5.55808538000997
1.084,2.486084823553938,15.383737426949665,4.712952132214923,3.7557038971262955,3.7576055143408666,-0.8465683865365463,-6.495919979588962,-1.5126021831435992
1.088,-1.2985551371739348,11.857136981510848,0.38146212782703515,2.5156474431905735,1.3261083851475632,-2.3043994384215694,-6.549920076419085,1.0261801029353137
1.092,-5.744502183154509,7.810800710072726,-3.997474039751978,0.6613625644249623,-1.358889620051741,-4.94494869130358,-7.61151898781759,1.4368944237169217
1.096,-9.446633232004388,4.494901209908676,-7.354537852210342,-0.6418267457202091,-3.2447659307213144,-7.954083655215982,-8.803660689222852,0.1815177936693999
1.1,-10.962596120523813,3.0307667489873893,-8.72295871291226,-0.1339503092722225,-3.499784982820074,-10.357675652160651,-9.084928559780337,-1.5415450269158555
1.104,-9.686281969884476,3.7681055902908156,-7.866528999151342,2.7351266200175814,-2.0379740469643366,-11.496434895169386,-7.939475075624614,-2.5208332767342654
1.108,-6.293612648234557,6.0302387908905075,-5.550115143927542,7.345686122967891,0.38470563611053876,-11.310594592056987,-5.696288052612317,-2.192492427821662
1.112,-2.472186834005697,8.416287624734196,-3.243257716379958,12.080741169706926,2.5594814938167474,-10.298130430840047,-3.298539644572429,-0.8836098856204444
1.116,-0.06041074757285969,9.520395673109306,-2.367258092402153,15.061444959055734,3.4725208581521656,-9.204284155282949,-1.6867919828609956,0.462222859922349
1.12,-0.0869445850739794,8.663877343208242,-3.5018282298005943,15.041330008540172,2.8229269865705646,-8.637178306934857,-1.1966953921037202,0.8654743182521543
1.124,-2.2767175389517433,6.206063538596936,-6.030423570633502,11.952522667781523,1.094065492116897,-8.83169399628241,-1.384112893526435,-0.17760746964995633
1.1280000000000001,-5.293622571002743,3.2630212544659116,-8.452432745230908,6.827524185757284,-0.8413023705061278,-9.65648861667296,-1.3751721867183733,-2.520311381503916
1.1320000000000001,-7.568261922811871,1.015560663378892,-9.213928856520397,1.1744767048421636,-2.318014147425856,-10.811802329998955,-0.5143950484134621,-5.5758306670172715
1.1360000000000001,-8.198586082506154,0.03454655700033982,-7.588068026782821,-3.7989103177496872,-3.2886758919735257,-12.051052783530395,1.103890829563852,-8.716270369869335
1.1400000000000001,-7.389901409245795,0.02231357895561814,-4.102015910209957,-7.658835049243862,-4.285299199824294,-13.26635508706795,2.5810410097578824,-11.572247330482014
1.1440000000000001,-6.21414743002515,0.10403404143380612,-0.283864556628032,-10.6970823044594,-5.984783064928251,-14.41298081279092,2.6713356115046736,-14.06965342528838
1.1480000000000001,-5.855281808574546,-0.5347033164011918,2.134113267327848,-13.447468157501135,-8.664911338990805,-15.35801703594825,0.4907166577481803,-16.227841909264725
1.1520000000000001,-6.820193549144278,-2.082394210534858,2.114146067708134,-16.11572821851132,-11.91332947526962,-15.788847864181662,-3.9336777621556394,-17.91824187901716
1.156,-8.585098953031775,-3.947962168439517,-0.16988399129149911,-18.2900071734457,-14.77826221802934,-15.269365482243302,-9.578701769534291,-18.78558440574875
1.16,-9.87866179878256,-5.101219695842701,-3.4563104324115557,-19.10112263165047,-16.260605607792968,-13.431921303324998,-14.830907430723528,-18.396647763537658
1.164,-9.44913006996012,-4.7114642480746625,-6.077277008485908,-17.743816714953937,-15.851220862287846,-10.207191443576448,-18.17159450923873,-16.535801691728466
1.168,-6.83652490050099,-2.677048278404527,-6.801656647316122,-14.019104719206553,-13.776878490328272,-5.943999762879685,-18.78033681168381,-13.435177655751431
1.172,-2.701284836686682,0.2669599659329833,-5.401232477025587,-8.574145635539026,-10.825187265848399,-1.3530338075906911,-16.766362906189443,-9.783021961189206
1.176,1.4814324051631047,2.930044348766387,-2.6537533114269536,-2.6860972439335455,-7.870216058067854,2.7124050620514026,-12.965939813926525,-6.47756828802585
1.18,4.189811007484423,4.304392994850787,0.16910522667967598,2.2952300212891714,-5.400851407424852,5.53690276310499,-8.480490849717626,-4.249560103079148
1.184,4.644535760599865,4.079203945938389,1.992886694914887,5.5304858874305864,-3.339910080892878,6.74737933284905,-4.215327359205276,-3.36340531154201
1.188,3.169864622552268,2.736425768585832,2.4206399974809756,6.976510493007481,-1.2537784348096466,6.356927373664803,-0.6360139862704273,-3.5501821352368097
1.192,0.9520444849931664,1.2030797682873526,1.7822755668967147,7.248235121513062,1.2098304767323498,4.6659586258247145,2.2069378912087814,-4.185375502587249
1.196,-0.643375415023911,0.3030207097317543,0.7900660895629699,7.162172145590375,3.9473710067595675,2.100176679146898,4.476061788294828,-4.609251460775795
1.2,-0.7982640349800931,0.3387802861407181,0.06629090231945156,7.242755830569877,6.338264576302208,-0.9198882195241822,6.341336907758432,-4.4059655627534084
1.204,0.38392866418689664,1.0327326056685706,-0.16684682754384994,7.458277857100256,7.545163669009526,-4.035448081664072,7.885331320992464,-3.5258169934390935
1.208,2.014156190365611,1.803983656100172,-0.08564050039422,7.3020740262818435,6.996224862526105,-6.952491414039287,9.1174664834557,-2.2344368295903223
1.212,2.948312282047482,2.172540958888021,0.005389415367972106,6.15029324203897,4.771052471822259,-9.423137290007617,10.045014760503364,-0.9399920055611801
1.216,2.4084159771682607,2.0415558399754445,0.0008969006939878454,3.6887830122686864,1.6592967819597106,-11.237407658813936,10.726168887460972,-0.00629018494146294
1.22,0.3821844754875201,1.70910488750269,0.15696835158632894,0.18440448832916445,-1.1356062820195802,-12.24239941914766,11.26227288060636,0.36904692063217226
1.224,-2.391710199521185,1.6347918163028226,0.9691894829920784,-3.554664924948156,-2.506775175040275,-12.373339604344437,11.76013090654078,0.18167665362443586
1.228,-4.807949716203439,2.142623077927965,2.84961970999575,-6.495963661716814,-1.9019681758281877,-11.667907632099741,12.301025979118094,-0.4144445747760983
1.232,-5.900150109815513,3.2605247471838084,5.813967298479838,-7.800106016711652,0.49295911127046566,-10.247020777675061,12.943814367904452,-1.163958117519087
1.236,-5.224741417958285,4.77428183648135,9.384339516178443,-7.137856810601079,3.904328080283449,-8.277566355709496,13.744218050402196,-1.777792678311016
1.24,-2.956730490830523,6.43341290682838,12.78656382322879,-4.753875013266224,7.352616488670719,-5.92738324849779,14.772410891290747,-1.9987835542874564
1.244,0.2940826810463477,8.141011600784623,15.324885116548103,-1.2782095195270813,10.059092010537825,-3.3378509443709845,16.084817778422803,-1.6648445935556992
1.248,3.7850979997838294,9.966349722039013,16.695483412808244,2.5746844677796616,11.682235211088482,-0.6413563713349504,17.64184358995817,-0.7819272673923479
1.252,6.896967109076286,11.97486985188425,17.044906968176292,6.254180137239018,12.303982389437806,1.99749651053844,19.211666388168396,0.42464388739062997
1.256,9.24749048169906,14.012560014214614,16.75059796199639,9.459331281575942,12.22159939042831,4.352653560687941,20.34528613066186,1.52663256942742
1.26,10.653601007319594,15.605930171387627,16.07320333991629,12.053676476789406,11.694830707438086,6.1478035963918956,20.482979294140932,2.012266406897652
1.264,11.018046876906737,16.079370573788765,14.909519902939792,13.903558975660417,10.792030379270727,7.104357139221975,19.169522445604343,1.4793017505030548
1.268,10.250180408043889,14.86329624082282,12.831480739847393,14.78359507372079,9.413315438660902,7.02457452355884,16.305060811047042,-0.15509202312023262
1.272,8.292184575040665,11.833763515845021,9.416267238442742,14.442537939588874,7.468451309032389,5.883215857529649,12.31334644411163,-2.5108003078107686
1.276,5.241846610211724,7.495460787965385,4.674725594524716,12.801462264211295,5.088804824476938,3.8871686162574406,8.103874453411208,-4.773505475157435
1.28,1.4868488609245105,2.8800246220389454,-0.7033280293962889,10.152039323065765,2.7178816852865566,1.4725590792168077,4.803359028404884,-5.933476276781221
1.284,-2.262557669180751,-0.8173112453596332,-5.486621912372357,7.186955778008269,0.9920801719781593,-0.7796879429552064,3.3405761032140617,-5.180109399453158
1.288,-5.136231150056119,-2.7140912133463644,-8.410358305447517,4.76571428495663,0.44803581231462886,-2.3008517614862285,4.0382554483016975,-2.3022530433440807
1.292,-6.449390212479557,-2.629766556582581,-8.817315098565814,3.483119539267136,1.1860650695462027,-2.7304058879144577,6.407096852063205,2.0891509725347532
1.296,-6.072978466438144,-1.1864845141808473,-7.0653171535195725,3.2802212572241842,2.690879903047062,-2.0723166991720063,9.275716308278788,6.661043433006398
1.3,-4.625782634693678,0.4386509027899592,-4.429961045732853,3.353861510649949,3.95430616183603,-0.7367634114525572,11.25349489879045,9.799387811995075
1.304,-3.3272016593091394,1.020070626859706,-2.507325465365284,2.4787443875720783,3.8894861034950736,0.5719070736759022,11.346286184963901,10.247624072163944
1.308,-3.50413440342345,-0.16115403444837284,-2.3999216775719105,-0.3584800259905023,1.8745566838115337,1.1053619098165655,9.432251304878264,7.672343435810944
1.312,-5.935377706276995,-2.961958030068672,-4.115774707082892,-5.3206773003112176,-1.848712429189618,0.37233224333067483,6.34961981566903,2.875782568347404
1.316,-10.348170503661095,-6.3893825582581485,-6.52470501895732,-11.438481680912446,-6.159880851957496,-1.6354504241826362,3.506684146052976,-2.4901872630334765
1.32,-15.359729251711542,-9.000205048765565,-7.9232787034579815,-16.882685261554798,-9.491183950127379,-4.392737090010996,2.174680040934618,-6.615467694747167
1.324,-18.97429250651294,-9.538466639861326,-6.943711203286512,-19.720915654021155,-10.548871503897317,-7.012547119991723,2.810405671792978,-8.332098804795805
1.328,-19.45830360941727,-7.5374395778908365,-3.338401386037731,-18.804776840037448,-8.968667620192718,-8.582095462448706,4.757939575334603,-7.635024201420038
1.332,-16.17430427938598,-3.590480762290099,1.7940623128542939,-14.32733508212732,-5.55894849399192,-8.518552511570306,6.5344441798552,-5.65767330167364
1.336,-9.926342444623515,0.8771143290878172,6.487880721035253,-7.744366388396884,-1.9688461342720984,-6.786554527778208,6.5916978995992395,-4.095035952237595
1.34,-2.5975405595127086,4.25545553644406,8.866037481302556,-1.0752886331847549,0.09131419966615795,-3.8759048815372807,4.1708126570974855,-4.351440335662119
1.344,3.7599225456397107,5.521350684093704,8.085772758862731,4.051116948958224,-0.3015213752460113,-0.5608244044997264,-0.22297263820382796,-6.842236309630607
1.348,7.905005002821781,4.745317835961032,4.773759817975588,7.097370710773248,-2.8069406908834935,2.4357316899659054,-5.004226267988997,-10.798417057236293
1.352,9.929973099704512,3.0593262259690164,0.7172944945450581,8.704289591792985,-5.975604159018985,4.708212154406283,-8.268348504656387,-14.655149209507726
1.356,11.028760790173692,2.0684865753401027,-2.043383502663346,10.131792083235268,-7.984466593750767,6.244850451916136,-8.760829825852852,-16.828428121544675
1.36,12.653086633290513,2.9952400848087564,-2.2429415241604147,12.397292070016192,-7.57473971940999,7.304044301357862,-6.521723966862737,-16.46013245854556
1.364,15.55825735783219,6.017971933806621,0.0008659085051476723,15.62276608848515,-4.691901535796205,8.187527170819521,-2.8363464103968,-13.742159365906446
1.368,19.28774493394303,10.143524367756982,3.2918043838144513,18.933650101651438,-0.5044042270710634,9.035902971054384,0.47190336112180375,-9.696943064573134
1.372,22.404152317431,13.689399313563626,5.700404966770293,20.95133799282121,3.2076777869642683,9.748707527469378,2.002282974030095,-5.5764721915093105
1.3760000000000001,23.328313223697478,15.122081202389381,5.74751111409023,20.57883259232767,4.9461737455640105,10.064868595396547,1.456283217949931,-2.236711932205253
1.3800000000000001,21.28127074981603,13.799440135224359,3.113812042902282,17.61624204664804,4.193160736542268,9.739257379900664,-0.3334924152286476,0.17340329870330606
1.3840000000000001,16.768615329816384,10.233818412383698,-1.2775735656450706,12.865482303899626,1.562803392913338,8.696770488213588,-2.015993119288396,2.066252675906071
1.3880000000000001,11.306644452753972,5.743539463088382,-5.823929773727286,7.68054853898866,-1.6540646107168868,7.0783887623292685,-2.596663008858741,3.949785446002352
1.3920000000000001,6.57193557878054,1.7308036841495777,-9.102513000958425,3.2630992033009534,-4.243491549303144,5.171207715771743,-2.0436353084860457,5.958044213878566
1.3960000000000001,3.516939328983426,-0.975821798432662,-10.537885516248934,0.13435149292490678,-5.674831772397738,3.287097021680893,-1.2467121376139403,7.671130693503073
1.4000000000000001,1.9722582073409285,-2.360889643579867,-10.537421475994051,-1.936236913279572,-6.2320490885267645,1.6706255545577733,-1.3859451462067227,8.33044126051027
1.4040000000000001,0.9791979024303146,-2.943327991242768,-10.058494356177107,-3.5412435508878843,-6.621832794331567,0.47935479027546535,-3.102562589651825,7.312280427066071
1.408,-0.3882394328211376,-3.220754734276852,-9.895611981835827,-5.070921023398114,-7.343068145930374,-0.17090249692591897,-5.978868846365003,4.57528383232966
1.412,-2.271642667154083,-3.2355778635810566,-10.130664661010087,-6.3559267382806865,-8.22905416991307,-0.1669489110900031,-8.685706051002853,0.8110916833829833
1.416,-3.8326545504532987,-2.5450356236433436,-10.072144045301684,-6.740900220414915,-8.466858145287915,0.5774951717758086,-9.70067172148174,-2.799632209518677
1.42,-3.7476968973787734,-0.604388183730407,-8.708075002894475,-5.525767502887902,-7.093556801015438,2.045364256337052,-8.167578457115269,-5.098711673265825
1.424,-1.0947639853475266,2.7067437492860336,-5.40540702479484,-2.486410316454567,-3.670785879059622,4.035750441807977,-4.4067764322990115,-5.466732103508548
1.428,3.9191077781470085,6.7766977570609015,-0.4463492850700277,1.84832974058736,1.267359818566547,6.145932183733748,0.215462100411969,-4.092772923187113
1.432,9.863664667140256,10.397504249243866,4.9233685473045625,6.350409843693342,6.282189780702538,7.8588722410058836,3.97907818116164,-1.8769325197035869
1.436,14.720701138139702,12.308160495014818,8.994163062408916,9.799980447056441,9.619687664175217,8.718497672100057,5.657518212139621,-0.029881256874432438
1.44,16.895428593859833,11.829811061450528,10.38263663509133,11.457415197066439,10.021525339063373,8.519406802513913,5.039401984041433,0.43171991861345305
1.444,16.009568120935,9.207299727573627,8.68831386124657,11.367228156181227,7.326346129122612,7.398545481619294,2.8671208209807446,-0.931034751016341
1.448,13.024393870895437,5.454623510024248,4.6584526903352526,10.22955569981059,2.533052693335776,5.773724581278657,0.280636411102023,-3.860827781349144
1.452,9.641246167069767,1.8063922368583007,-0.21107273787492886,8.938272738952946,-2.692922333455499,4.168743771984737,-1.8683512120469459,-7.556345066961512
1.456,7.353733524738345,-0.88572747346916,-4.406505458409811,8.067806837279932,-6.798201859786786,3.009593194899935,-3.400082244999794,-10.994733766740865
1.46,6.711174716816458,-2.46205492689478,-7.069351670725155,7.601732868246472,-8.996000791777988,2.494466933218064,-4.710324154056252,-13.277990836162644
1.464,7.1674291153103695,-3.3422639774289564,-8.289688283104624,7.012350403467281,-9.495724104344845,2.5798498462063435,-6.312619230829114,-13.890243761347847
1.468,7.535282655320771,-4.118553633523334,-8.89820900502309,5.602643876503862,-9.232599278722773,3.053788414477822,-8.344501429135562,-12.795292601163965
1.472,6.7438787751270866,-5.135417152383525,-9.903831857431214,2.908647385051154,-9.277124685442686,3.642088443490138,-10.368936685497829,-10.37012589765618
1.476,4.426266894937726,-6.322960261501066,-11.901101387706149,-1.0676562204607762,-10.260525185232837,4.0868121510084165,-11.580348495580438,-7.225203650729782
1.48,1.029583454506792,-7.344798608977726,-14.742029367531359,-5.880070503037132,-12.096031544830112,4.184942223631879,-11.273459070878744,-3.978351559191651
1.484,-2.5445830496173585,-7.913229743451666,-17.61503188658753,-10.853091389471956,-14.097414067007776,3.8052475538261206,-9.27921596150918,-1.0732515344507192
1.488,-5.504247990145814,-8.030181047264705,-19.465405915318115,-15.34472208477382,-15.387261959322132,2.9165951277282147,-6.106998836015009,1.295276192291567
1.492,-7.557017981122044,-7.977247650833306,-19.505771956835815,-18.90604871585674,-15.347122903243871,1.6268430761756463,-2.7297656933697,3.1361739583244344
1.496,-8.912565942766378,-8.065503592981258,-17.55039807644789,-21.289147004099505,-13.87760658093066,0.20312092633503198,-0.13177936959073122,4.528000155954942
1.5,-9.941669996791461,-8.332532351545524,-14.032943229598459,-22.34497469631242,-11.367478781903628,-0.9608007233473472,1.1237940760111087,5.482899561574413
1.504,-10.749877367110457,-8.409823820074962,-9.741708990077314,-21.92196287582192,-8.425989971834497,-1.4504054342251038,1.1045070817281157,5.894569738660721
1.508,-10.971492115884757,-7.676596175690065,-5.45056212559939,-19.859681151476252,-5.557652810324726,-0.9885699038750317,0.41353247664483206,5.608261623798171
1.512,-9.924775972569478,-5.61791278457531,-1.6340837384632323,-16.08157058828874,-2.95311663177381,0.4377835204686562,-0.1237287752182965,4.576857821832164
1.516,-7.040887550312618,-2.172763739396032,1.6034568424438476,-10.729345188348816,-0.4986125300929416,2.5518169579281675,0.17023792730287823,2.993665857375163
1.52,-2.3099981324048713,2.138172491650039,4.387175893603853,-4.255374331089115,2.019641644985313,4.879446006183571,1.540721090952502,1.2938968817288696
1.524,3.525698214300064,6.37088758615937,6.823046474943112,2.5808229077010765,4.6358710357289965,6.906057333293575,3.6782402507906227,-0.03448325426052179
1.528,9.126992090656131,9.491072329690724,8.773458702617063,8.806304256471776,6.999596771569486,8.203384599044512,5.759025915737766,-0.7543311268700563
1.532,13.002571667093434,10.711225422533971,9.781713065098302,13.39832718758771,8.373696320395538,8.477816560582141,6.641294943502544,-1.1158759484005714
1.536,14.046853140986059,9.686609604223122,9.196739761078788,15.488412829312438,7.861535084341085,7.551215910552855,5.195346841315768,-1.8572915508320875
1.54,11.932036394850002,6.5284902800412965,6.453658156180609,14.573549416611058,4.779978677073814,5.345931222760555,0.719454706646502,-3.890129103236177
1.544,7.214651512102137,1.7195730883668148,1.4002475855995726,10.69786999282951,-0.963421595042746,1.938902010631864,-6.666102561236585,-7.77214723922134
1.548,1.1304317257890943,-3.9886333862014,-5.4771055775891,4.537811104226421,-8.657530026706809,-2.321580486397579,-15.814652990666218,-13.219259215212332
1.552,-4.835506255742075,-9.67278993916625,-13.051204709172453,-2.686849144556618,-16.868181248712062,-6.725650186628627,-24.6969047814855,-18.954663491056635
1.556,-9.424423727439716,-14.354448805504944,-19.808064216089406,-9.496402570544888,-23.823406940500718,-10.259414504675078,-30.93594659989685,-23.048264907516568
1.56,-11.955135221131059,-17.18723750022218,-24.292385911096062,-14.568378694864805,-27.97387252886074,-11.874993692530552,-32.60891919861206,-23.657339671378395
1.564,-12.455367220081826,-17.704866751326335,-25.586873540603847,-17.150264129188145,-28.513596344297184,-10.909226218540425,-28.99352604554224,-19.850346851882023
1.568,-11.553428508901561,-16.030689743838593,-23.631878873544338,-17.291846890351735,-25.64111704485913,-7.45055615950514,-20.93032682937701,-12.105951786596052
1.572,-10.177152967262373,-12.903804969668272,-19.23991584159012,-15.766143101758644,-20.442226828110506,-2.4279120835963113,-10.585700078758236,-2.211184053038778
1.576,-9.162239728892018,-9.426795946403217,-13.773185244826891,-13.676150877246982,-14.432038031340198,2.6874924750045466,-0.6570935442432528,7.426409625763881
1.58,-8.909979104802915,-6.606198237197532,-8.604271503121709,-11.911837528008618,-8.952510288254416,6.470682583338203,6.64372711694341,14.7439388940129
1.584,-9.23794705135515,-4.911050193080882,-4.605038264147879,-10.732591275536834,-4.709204087834223,8.144880877785909,10.380529359250431,18.802537752279022
1.588,-9.498086718707782,-4.093831524587586,-1.909549048898043,-9.698808725319395,-1.6528750550642144,7.879738785100926,11.101965135010687,20.006491595069747
1.592,-8.905670960321004,-3.3906106664326217,-0.044517486512631876,-7.987789660059207,0.7781612018552551,6.618760043920702,10.375627704499493,19.68095882509806
1.596,-6.940917404820539,-2.013647677075369,1.6550358603308268,-4.938431011902139,3.188027671048985,5.524442511399684,9.899164702223516,19.245051305781544
1.6,-3.6239969747120995,0.3459727457993722,3.5899305589919095,-0.5092120518247611,5.801842855955329,5.360549987989543,10.653632204777296,19.443760910474793
1.604,0.4786556234830641,3.307533437722668,5.658676434846711,4.618448990175239,8.332091566797317,6.152847418405145,12.507444170692906,20.04514918422865
1.608,4.491432005102979,5.987923678223524,7.352932101275655,9.337870814466442,10.181773044783768,7.301335823140107,14.425326215732639,20.131679291729597
1.612,7.589831186400261,7.4771154613554245,8.113051103675389,12.647755215042707,10.843908359300258,8.054439436720713,15.11100893542607,18.783719760367603
1.616,9.317091600787535,7.329038677722565,7.71187500747692,14.122031830916967,10.241786759324896,8.034861271131376,13.747014082611713,15.734792175209805
1.62,9.69571398205153,5.767213884551893,6.418349107287213,14.047369659772812,8.785142970435118,7.486226796241681,10.434660322243872,11.612756291552614
1.624,9.086517067367822,3.4808164489859337,4.824911849180353,13.148708321037702,7.101625065191911,7.080264226446161,6.102331692753978,7.633353473002899
1.6280000000000001,7.890423973542056,1.138449861899062,3.4277245925404713,12.070656047788361,5.593500227481854,7.408591507981328,1.976963794693802,4.926834001368661
1.6320000000000001,6.275237401216145,-1.0659199952951894,2.2298574890446616,10.940330991710653,4.106325553666466,8.49002761349584,-1.0658817656340034,3.908125330632174
1.6360000000000001,4.103950458782492,-3.5221066885933396,0.6551952118825284,9.294207741473656,1.9581486355073139,9.634444833049201,-2.9093631537252804,4.081345859218345
1.6400000000000001,1.1112415781972231,-6.8808185179004795,-2.129038386945467,6.4346280898025725,-1.6439803285393282,9.787392812562757,-4.148009069869659,4.393249794425174
1.6440000000000001,-2.792405882260937,-11.490886035990115,-6.633320053562784,1.997830940894346,-7.0114504678494995,8.157769106222986,-5.634272413983126,3.92378232261035
1.6480000000000001,-7.2690802832985355,-16.94331531939315,-12.547265565237467,-3.6125445121397206,-13.54887813447749,4.758980011742096,-7.883258790740001,2.4996455930140655
1.6520000000000001,-11.543082951488032,-22.04124094168401,-18.64263582003332,-9.22075582009711,-19.781502696194366,0.5192448113193677,-10.688413531634069,0.842792120831291
1.6560000000000001,-14.654344733971811,-25.25182227641926,-23.17597973100783,-13.335926647916494,-23.87906532965644,-3.1222492046545085,-13.156993329857869,0.15497102818426356
1.6600000000000001,-15.859153421446536,-25.4303705536895,-24.62943309964976,-14.844770926429192,-24.451787013851572,-4.912600554291203,-14.155003902666067,1.3660696427841685
1.6640000000000001,-14.982938780311088,-22.435700875445036,-22.419574319752428,-13.564935033849906,-21.21763114231544,-4.394241040388806,-12.918411051266958,4.479028283341904
1.668,-12.516384153503168,-17.27537643141659,-17.190473012116854,-10.335519864311209,-15.182100279380393,-2.077627955504795,-9.496005047923063,8.40719743819227
1.672,-9.4042528877726,-11.688695067579829,-10.537204086907877,-6.598106045163149,-8.21783188716654,0.892429539537261,-4.794971067283768,11.422397798830389
1.676,-6.621876110217272,-7.363843456083487,-4.299333767910866,-3.690261286617897,-2.2451011861376173,3.3608902261075855,-0.20517556611139298,11.989684526446581
1.68,-4.7541423971742915,-5.19521143433667,0.210084725444176,-2.236391144695517,1.5739481672098918,4.709394061428611,3.0013007460102017,9.532395176826867
1.684,-3.798646267649019,-4.962855610052429,2.6554274642076052,-1.957795490987337,3.2202126036427217,5.02511301850609,4.180515076751362,4.713233261516507
1.688,-3.2701869993798027,-5.570527652358578,3.624114964131877,-1.969490792536817,3.614727942569516,4.850463429696902,3.5049569360771784,-0.9023123104252591
1.692,-2.5528215065387485,-5.714131748836735,4.128433128047618,-1.3801912521157647,3.9675207239361043,4.7158276137997746,1.7618264637294487,-5.602980240953912
1.696,-1.2964718871844525,-4.607194528025502,4.967839202814503,0.15096978838482755,5.052284377292381,4.766791996711618,-0.09865951703613973,-8.301648287036187
1.7,0.36744632208137773,-2.3715027651360288,6.315457019194582,2.2246139326744014,6.799034109099011,4.725007335302507,-1.4117363372388354,-8.920289192951714
1.704,1.8964643519320816,0.08082189669949003,7.709846653888235,3.957394265962648,8.395978038999601,4.177131849932266,-2.0246391975197184,-8.227841216711568
1.708,2.6478529068081116,1.583214727252198,8.407870898809051,4.515712482876552,8.801738067164479,2.9706238747403404,-2.2260918322617727,-7.2836903878705925
1.712,2.2276659615272365,1.3342219946571277,7.841445785059477,3.5865282127306273,7.333123159221941,1.420869899689933,-2.496741889646728,-6.843902806236656
1.716,0.6860314872246818,-0.7340921902177797,5.9030232307814,1.519132673893182,4.002161862546927,0.17589578169645392,-3.2553547678644463,-7.052033035560271
1.72,-1.544142976130388,-4.014470102694759,2.9197100814453734,-0.9223691500374116,-0.5662773781186843,-0.1811094900513126,-4.741392279654065,-7.541975162095696
1.724,-3.8942476123738743,-7.619259525934467,-0.6040875086218875,-3.0115956268564332,-5.525545549366143,0.4755965843469312,-7.0306937147925055,-7.811004053157376
1.728,-5.940593229359365,-10.852944575332003,-4.2772937494228245,-4.433570358542056,-10.237581830049749,1.6891580592764512,-10.09473977235757,-7.595176052862371
1.732,-7.562559141584643,-13.49121307513633,-7.960111649794271,-5.366531433985074,-14.46369660056007,2.6507308181917324,-13.814693625770815,-7.009329824408269
1.736,-8.906152762207057,-15.728544027393582,-11.67845766494429,-6.250505388390593,-18.22977655829891,2.6447827981828596,-17.916626898169852,-6.393179222246545
1.74,-10.18910033260181,-17.86254303068563,-15.397519853708218,-7.405130534913042,-21.503956293177907,1.4517512002821604,-21.886071264686507,-6.0141257830136965
1.744,-11.478570233182836,-19.934161076002056,-18.81772440858913,-8.74051943325685,-23.922536984184262,-0.5264684045450849,-24.97624943298797,-5.838588286732374
1.748,-12.581658280054398,-21.56493352781763,-21.347536870052863,-9.745833173015853,-24.79269683196253,-2.4924109999483335,-26.378104311568677,-5.535515700487849
1.752,-13.117996697983472,-22.104075715482395,-22.29592784626584,-9.764914402156137,-23.40359023568635,-3.6901287960808986,-25.526383627890027,-4.706308206758877
1.756,-12.71744124273755,-20.987061798594368,-21.17000099863435,-8.382095575398125,-19.46012990358031,-3.7954731173686014,-22.39652591511367,-3.1752507669689294
1.76,-11.214195878943428,-18.070188842579228,-17.900658504826424,-5.677353168874106,-13.37004968695328,-3.041448080481132,-17.59975539171046,-1.1386475566941954
1.764,-8.732543972000713,-13.744499461603482,-12.880187259965169,-2.205820330804272,-6.193704845025422,-2.036724166404383,-12.191265028066482,0.9250067338116423
1.768,-5.639805239246925,-8.776377693997347,-6.813873296821839,1.265233015470585,0.7262767917600286,-1.4172414251333976,-7.2823527498239855,2.507274313538801
1.772,-2.4200980515124684,-3.9977425919514644,-0.4943395843874896,4.095142643371219,6.26404920540881,-1.5452518303372926,-3.6428054645630255,3.3178514390892815
1.776,0.44834048745178734,-0.037816680587638984,5.373235427567124,5.981487043216475,9.86948204928376,-2.416855899569782,-1.5062350967200473,3.3619815884376294
1.78,2.58050755871227,2.7835772459184227,10.241636582130013,6.958714525113464,11.621703368668022,-3.7645265823302907,-0.6513082335668514,2.818581377961891
1.784,3.7423820858020918,4.385975878140016,13.709022894272493,7.236006222199649,11.995148196310765,-5.2393756700184895,-0.6723984518384896,1.8352707556077803
1.788,3.9029827112062776,4.8025273799758,15.508222114436649,7.017408404422895,11.511560541022845,-6.540325904172278,-1.2626579465713803,0.40508107608548016
1.792,3.279409877883154,4.123488634930254,15.546987366738904,6.422098421364353,10.486326324029505,-7.431602963279147,-2.337114626095172,-1.571255846774875
1.796,2.3407671966378985,2.5620422315787437,13.992641208787973,5.543183646837861,8.995758712764655,-7.699680078247184,-3.927840014625872,-4.068036660135476
1.8,1.7081595749405096,0.5548055492381536,11.318663121572172,4.557839370954753,7.015051290891279,-7.139821694809143,-5.966969171702658,-6.7380690897607565
1.804,1.9220621009226306,-1.2586195855456026,8.202200359781273,3.7485235019958054,4.56335790652156,-5.636729042977095,-8.162534127862273,-8.923859780654311
1.808,3.164142714398622,-2.2504555598025036,5.289765164534401,3.3938931841184967,1.747257718921901,-3.2836678248149838,-10.05611127697739,-9.90872912622217
1.812,5.053780067351909,-2.1648160279000876,2.908853894099593,3.559806885481521,-1.3288907898149773,-0.44186650108895265,-11.254818925874133,-9.299663017618514
1.816,6.668575398147368,-1.4162696538805903,0.873559034360369,3.9314802192966454,-4.697053364176099,2.3363841512091312,-11.696258780801145,-7.322167241489296
1.82,6.8652843501186,-1.0778004572603095,-1.4550411138170602,3.8564348893414717,-8.556432072875396,4.532503742777408,-11.751142855821854,-4.812000349920709
1.824,4.796909975560993,-2.4653265798842767,-4.838397203844579,2.622742273098993,-13.130610700216494,5.907924780440226,-12.066483462127508,-2.8661191990768202
1.828,0.39804872038985195,-6.452998663768085,-9.693607176164733,-0.14891655157407513,-18.396502975096155,6.607790307365576,-13.193447018536062,-2.3217909232944294
1.832,-5.429829683867865,-12.86972211329703,-15.726964875073463,-4.219340081221162,-23.857490475245868,7.031059291806741,-15.20009661351287,-3.3332843718981167
1.836,-11.08106701404904,-20.337880673594555,-21.88179759198829,-8.743875211719569,-28.537874381403526,7.516194109850403,-17.514736874133632,-5.292204306649182
1.84,-14.862219463309884,-26.705789300594915,-26.65389597351168,-12.601848570635411,-31.259015384803206,8.041615906307925,-19.103773086295405,-7.15457449250971
1.844,-15.69923704212124,-29.917834274163397,-28.65294838841146,-14.893769468817482,-31.095173885201802,8.151597407944791,-18.91186701423976,-7.996836779615478
1.848,-13.593297141713265,-28.906797418959286,-27.158991256594163,-15.349786327678885,-27.798111907439306,7.178490667591177,-16.360113769763302,-7.5048385812478955
1.852,-9.607932531944243,-24.071210157397218,-22.42187544256376,-14.434420684068755,-21.97956761538626,4.6569717471065815,-11.653272963408199,-6.1341840812810915
1.856,-5.402019256809581,-17.090407036432225,-15.570572313221419,-13.096681206296125,-14.94508716668497,0.6879312267101341,-5.75348644137739,-4.858691443771022
1.86,-2.510220559548543,-10.153901811995638,-8.161441913707677,-12.279423132504235,-8.232636541941247,-3.9743224565318087,-0.02456045205144619,-4.639182393499141
1.864,-1.7172168326997053,-5.007978714939782,-1.5869758953813289,-12.45515242442707,-3.0645969265806343,-8.191752900787833,4.288644807023047,-5.904597011026453
1.868,-2.800383766045343,-2.287772439901346,3.3843742511580786,-13.42373144987505,0.0465585036581615,-10.93636385154241,6.5074444005495025,-8.322388670705095
1.872,-4.742013043138286,-1.4524404734529526,6.73539784854438,-14.470759489540796,1.3754348340535216,-11.744361859924538,6.7017990873655435,-10.973910903270735
1.8760000000000001,-6.282937140213107,-1.312946568146799,8.964526144081901,-14.792323343233875,1.72147967728597,-10.888144140302757,5.553644270416953,-12.83634639260481
1.8800000000000001,-6.52148596799816,-0.8077715050676488,10.65486820645856,-13.938127565115792,1.9544019608638337,-9.16873276428305,3.9978389349334975,-13.308080329865788
1.8840000000000001,-5.283432821232054,0.40181593579654873,12.07399233864271,-12.051572453439803,2.5731649763856694,-7.458327267047935,2.7995840091607533,-12.506668343975889
1.8880000000000001,-3.094130776489692,1.838692565119345,13.026293083676137,-9.77963975473358,3.486684187586434,-6.256376254443239,2.260693689917389,-11.177102236884366
1.8920000000000001,-0.8283053983595892,2.6042818056112083,13.001612634947378,-7.933749979500135,4.090562746140677,-5.51929829049368,2.162146055516132,-10.269234945273638
1.8960000000000001,0.7407063882346847,1.980111194858182,11.50696232651535,-7.106210909914807,3.585513713558612,-4.833872475281169,1.9371792390184055,-10.41144714443044
1.9000000000000001,1.2782416592490335,-0.11720108664212603,8.397740247999536,-7.425900948548588,1.3886255739307671,-3.801286235750922,0.9879450707139767,-11.560023975252989
1.9040000000000001,0.9584397576763877,-3.0762634165093914,4.02372619848029,-8.56358662927596,-2.541104552028628,-2.3873754707938133,-0.9990265680926314,-13.000285583613731
1.9080000000000001,0.26903217025028425,-5.928052714972182,-0.8816393425968272,-9.939733369608803,-7.611327588154381,-1.012712570716758,-3.867536404872226,-13.691126716868894
1.9120000000000001,-0.3141308269168803,-7.863550663914793,-5.507443596196026,-11.011995298398688,-12.788189184053408,-0.325966893414261,-7.019647191195418,-12.786250520992326
1.9160000000000001,-0.5785066108383035,-8.607838416674895,-9.283515159402668,-11.475428433783236,-16.97316377155039,-0.7932966492026026,-9.641724251152027,-10.062552235298426
1.92,-0.6097961831728753,-8.443371628524801,-12.033108138648458,-11.281896112906907,-19.396723059857322,-2.3499784671066664,-11.01400205522259,-6.040612783432152
1.924,-0.618472618094529,-7.902132043007441,-13.886476403429697,-10.512843107193476,-19.845321621060066,-4.336394038557046,-10.765542130043741,-1.7376210295497003
1.928,-0.6778645794711338,-7.343425427421607,-15.030585403525038,-9.221899038366246,-18.627306696769665,-5.764926270871911,-8.972926090602414,1.803575931638079
1.932,-0.5788389624667616,-6.7101067425801375,-15.482036121564306,-7.386453844566859,-16.32377312782046,-5.7937048752673945,-6.075013546818809,3.955748130170832
1.936,0.06323518043063814,-5.626684883354756,-15.048683090331906,-5.022024408483048,-13.481318947419823,-4.171917927262257,-2.6774084121975648,4.694763010197676
1.94,1.5179694447087968,-3.7489973670235486,-13.493230227990352,-2.3591788609446667,-10.40081970198844,-1.4080312356536524,0.6599212947971864,4.464309365223016
1.944,3.644940436928664,-1.1218090676311476,-10.790956445416668,0.06585043322047568,-7.1181678403172555,1.435544789001142,3.5631145289580672,3.8298109664460753
1.948,5.808959970208889,1.7125046777809985,-7.294414833653718,1.524247230914625,-3.565566619749916,3.22346419517271,5.86184320835082,3.136474935872684
1.952,7.105632700455317,3.9492674623879793,-3.672070712183995,1.4035062046732492,0.21431943622064864,3.263508706311768,7.527666964159835,2.3797791130559744
1.956,6.816654655189268,4.981494497644235,-0.6213046399825544,-0.434423136708574,3.951572284247959,1.599237543743584,8.595342961849838,1.3481414082621086
1.96,4.8500303301752865,4.806615158101522,1.4912859398646106,-3.4540752081211394,7.212048293757107,-1.0503012195540578,9.124136728722078,-0.08185773222248827
1.964,1.8818345337749633,4.10243892444214,2.8363538910707575,-6.561172953901405,9.597855453029297,-3.669230326729121,9.228960772565642,-1.712785984918355
1.968,-0.9079579615754483,3.8990587020962266,4.021853704351088,-8.525833364818027,10.951517632281139,-5.441939420203198,9.119485715481915,-3.0379322448084167
1.972,-2.4216518666871707,4.99320566604456,5.706500398175194,-8.544265203936448,11.417667574612096,-6.114643071392493,9.06499069520305,-3.522138294612887
1.976,-2.2389924408398656,7.434339232625462,8.12778300867285,-6.649536124581573,11.315859123674272,-6.051254689346024,9.263447321407966,-2.9787045719713205
1.98,-0.8611604454126791,10.399024034835747,10.830720091265903,-3.7316314940017037,10.899414206867732,-5.962501523987157,9.684412700861685,-1.787434399835547
1.984,0.5429259504217043,12.54002114452669,12.777992261871987,-1.138603531418994,10.148529478214186,-6.473400974774449,9.971237411808033,-0.7869439992041407
1.988,0.7789199670150992,12.655847599295157,12.822533381426183,-0.0331087228260003,8.753263186095865,-7.761782190656959,9.512708714107703,-0.8551249299266601
1.992,-0.7046703336000064,10.316604418742827,10.311129487672588,-0.8352797649604327,6.3170323309559535,-9.462914626533347,7.714666481901986,-2.396515457692658
1.996,-3.51211309379687,6.10192460781127,5.490358487910271,-3.0475889978861233,2.669664876480965,-10.888457211211062,4.359045300526304,-5.037879518979025
2.0,-6.513267395443108,1.3420532576119513,-0.4998218444343365,-5.532788068750051,-1.8924017654344425,-11.418243618699307,-0.13197191565632238,-7.728247725530764
2.004,-8.460236553009963,-2.507617627876243,-6.071197681497324,-7.098123432677312,-6.595858978925207,-10.85115294897605,-4.709986138971999,-9.2159262127293
2.008,-8.637792051204087,-4.514032868988579,-9.84794789152329,-7.064978490054273,-10.440406751631599,-9.508646799999042,-8.030243055537994,-8.65448916924015
2.012,-7.168191857512284,-4.596477238699663,-11.201721668423488,-5.519608371449067,-12.583367785780865,-8.025709388653013,-8.985304924348839,-5.990297759988607
2.016,-4.841528396781541,-3.4091245008212354,-10.42394582034558,-3.1593378256866345,-12.675142796844739,-6.968666786578979,-7.217896256183849,-1.9320639284742356
2.02,-2.6008975876347904,-1.884996988097555,-8.479625246450269,-0.8525842888702755,-10.975985773199682,-6.503798552120315,-3.333489419673697,2.4653053548672688
2.024,-1.0286344986643599,-0.7307111138079563,-6.496262556625879,0.8108426429716928,-8.196453716918768,-6.317606895955578,1.3153138139068687,6.34728046202963
2.028,-0.14429118825501064,-0.15054671798907293,-5.256880042121338,1.7295341122526224,-5.162859474159632,-5.837976043198978,5.198615766666535,9.418098168257075
2.032,0.3651067268792758,0.05543547626621148,-4.960014904289892,2.1483991043587594,-2.5071204258174475,-4.642377196878442,7.258839085343425,11.90429017845463
2.036,0.7060468072186268,0.15882125312691642,-5.290865808436138,2.3242277897943495,-0.4906711055646156,-2.7961688695540943,7.339539735859944,14.199675074222569
2.04,0.6875249156846621,0.18823279014168293,-5.695204601248406,2.2532966161134027,0.9774757740151472,-0.9024458026251523,6.1768438152894305,16.441965253973876
2.044,-0.19227436556047905,-0.15552832742832834,-5.680326043217974,1.6504715086066426,2.1697841108011744,0.18810010082779627,4.966353787729076,18.308710352817116
2.048,-2.29778079335847,-1.2818739150911824,-4.971151803174507,0.21216112506044738,3.343677293722976,-0.14370651926583378,4.738627507540059,19.16405715660835
2.052,-5.359295801015833,-3.360517200288541,-3.5036845481417913,-2.0284668068525207,4.613881024270086,-1.8826054305027355,5.858418557807909,18.456767237245685
2.056,-8.319300219600336,-6.084841694572333,-1.3354432745381928,-4.5245591766533835,5.924847952974687,-4.299595168028645,7.88669928020181,16.108454640672562
2.06,-9.696231641852137,-8.719402197607906,1.4073287137380248,-6.365053904869455,7.095270999195236,-6.263022429142893,9.853556660697677,12.625639193980078
2.064,-8.339983455263791,-10.433015989291562,4.490738912286361,-6.705152276466833,7.885286132616784,-6.7778240594270756,10.792362566804968,8.869133309396375
2.068,-4.139132311069261,-10.713259506595932,7.502183467281611,-5.228177509909983,8.056576562597911,-5.4743263238151485,10.2256630656766,5.627529206365807
2.072,1.7538004090583854,-9.628662152503239,9.836157948089749,-2.3675202716167405,7.418257819986593,-2.7883729439513445,8.349131609770666,3.2623883937562823
2.076,7.358339263011658,-7.782623878192226,10.815509480746186,0.8558828020968576,5.877446623414471,0.25375512254004207,5.842103973276153,1.638842560074636
2.08,10.785877160446034,-5.977670808414132,9.95197410286437,3.3177072840117035,3.50258675395753,2.541745073433958,3.447878740598526,0.371954208283114
2.084,11.157280189210724,-4.795598842182244,7.215732074388143,4.324773885461582,0.564784361110469,3.4104031335418767,1.5733306854720013,-0.7964932489173862
2.088,9.010083837188176,-4.339729479919242,3.157686359154468,3.908693308452712,-2.4779321582700504,2.9190786613180535,0.13655075383485382,-1.7523047169891015
2.092,5.955219601768476,-4.283409564028716,-1.226997133749137,2.709931446648625,-5.079969094819262,1.7611595677758487,-1.2610679825254465,-2.0638968519299397
2.096,3.7705704034724477,-4.173899537332545,-4.864828033505546,1.5375261550689174,-6.770738000678648,0.86548737316798,-2.9618866280643488,-1.2950264973123922
2.1,3.4446858709907247,-3.786175216013362,-7.028258954867852,0.8828360071256611,-7.315033411945933,0.9127610780392388,-4.925810031946412,0.6384979607323658
2.104,4.695579797546998,-3.3018670822598324,-7.61352680175969,0.6668403386365753,-6.7923109300172655,2.0221852415361354,-6.6497290207662445,3.3206474516371145
2.108,6.21112304147664,-3.2049850531238917,-7.134393935720254,0.3636570300977837,-5.558300253983816,3.741764582380256,-7.394221563710971,6.001565426336356
2.112,6.451353800142897,-3.9641476671531564,-6.428795986611476,-0.5908947150819586,-4.098351273347362,5.322659603018565,-6.598451464335312,7.992603698127141
2.116,4.5504995047194825,-5.6900176411077155,-6.227374033314845,-2.371155207409174,-2.842408406306731,6.115638237803978,-4.240161950167931,9.050851753602956
2.12,0.8257672766931137,-7.971679960205165,-6.792052713887642,-4.567372095050814,-2.022547294731339,5.891942252834724,-0.92406705140138,9.51475233424344
2.124,-3.38253767425158,-10.006701700331632,-7.809647665000739,-6.3538435524542365,-1.6298830278255991,4.932036100836285,2.3643619125914483,10.097871387540863
2.128,-6.4217042036816565,-10.949112579535267,-8.578704107362682,-6.918858434341018,-1.4780957878597292,3.854305129390923,4.7113656058384095,11.45722341481678
2.132,-7.18069544570244,-10.300642177049667,-8.377811745717736,-5.903546128497055,-1.3324676370789348,3.2924341587959134,5.70682826514394,13.78943887029368
2.136,-5.610424663683261,-8.133996888112506,-6.8295694106559495,-3.5953251206615278,-1.032001803782805,3.5878071339147937,5.624974332020429,16.6788439798313
2.14,-2.6495069697680265,-5.036418861675429,-4.07694236493262,-0.7692567726639936,-0.5537880538986428,4.6330842790753195,5.250640787284965,19.269897493130657
2.144,0.35459552201973565,-1.8232185704632684,-0.7032108552398313,1.7141514099448614,-0.006107880083618511,5.9290052470646515,5.439098151976168,20.648586959689965
2.148,2.387015489149235,0.8278828555080509,2.541374630033715,3.3293085718673865,0.4340243961446504,6.824368084291564,6.650255391084102,20.22958338522426
2.152,3.2618751205909575,2.6411288617741775,5.060326230894134,4.097758346613318,0.6157895954652304,6.822170230352185,8.704083725680903,17.971436486637458
2.156,3.607412298726558,3.7743603390363205,6.612848950978332,4.4803650650974305,0.49564645465761714,5.80223940052656,10.87870504086095,14.341862715155571
2.16,4.364983306328213,4.6059087623366395,7.291932695356991,5.016067931908765,0.1455480008360155,4.060601100176427,12.265263474688936,10.074991716466798
2.164,6.124456059191743,5.418976626620179,7.324595040834993,5.939580483474856,-0.30088422889343747,2.1665825794402735,12.198886669091053,5.8738477448359845
2.168,8.695162694328246,6.174069283647668,6.842317153042131,7.001329305931904,-0.7430252370779726,0.7098561924969999,10.542368868396238,2.1974783524933628
2.172,11.1485757310611,6.491389850874839,5.763866377876184,7.58494200919813,-1.201152485062721,0.06724641448568036,7.686697314233015,-0.8015309176252003
2.176,12.329339709725446,5.8774987848241835,3.8845931803471103,7.07598512074901,-1.8212021303022539,0.2957627065429733,4.320599780760972,-3.1925596524574757
2.18,11.562791501574793,4.099105651437185,1.1391190189074223,5.291194802094651,-2.762786839006594,1.200747655555233,1.1408631582256703,-5.086507607950466
2.184,9.135797334816743,1.4790336515247873,-2.133915294662984,2.712069919636633,-4.023244843344173,2.5142696318132494,-1.3375229236135056,-6.458944055765073
2.188,6.268022508273134,-1.0758582653143094,-5.112247047935853,0.37948937557484896,-5.290295442376646,4.069760302958457,-2.791039624385121,-7.057384106287941
2.192,4.534727620259673,-2.4013875051041396,-6.718745707823928,-0.5421233661400038,-5.9453232776841105,5.852621735287357,-2.9806696770876897,-6.458322395291248
2.196,5.027661162239383,-1.6375148759027525,-6.098418814279739,0.6664835015326389,-5.273204829052247,7.899760985671492,-1.6887002561943518,-4.280638670676581
2.2,7.71119083917165,1.2531573960600326,-3.112010065597133,3.8584697758733455,-2.8177551714120455,10.117120446766421,1.1723656400024538,-0.4891599104865918
2.204,11.32447014972604,5.29019176239467,1.4179522966742297,7.961864458947275,1.266726747634948,12.132482185166737,5.306818360133434,4.346572967391467
2.208,13.927502125588035,8.7769761160921,5.905416598509873,11.349208989390718,6.081767389333436,13.317985957087785,9.814978072438862,9.011419463694438
2.212,13.846854862700638,10.015748264677313,8.61256104050699,12.49862839907155,10.209084012914445,13.013844779142346,13.2292454051194,11.92726046272253
2.216,10.539213018745613,8.112535621140069,8.417713853282294,10.663420363451223,12.251702279654637,10.86563753304381,13.93201920688125,11.715213815139123
2.22,4.926085860403873,3.472977347564438,5.374770948652213,6.242437543921596,11.469411439593841,7.092762738488545,10.855951725595332,7.827936891663967
2.224,-0.9891025530309889,-2.2871063734578456,0.7658842625796751,0.6657664937097252,8.195033150404242,2.5251993944975766,4.129946649891963,0.9405305902148484
2.228,-5.018705132789819,-7.0000146877597444,-3.3997746234572332,-4.149578239888115,3.7974132405392993,-1.6306174878009188,-4.687420842443089,-7.133520064360482
2.232,-5.769384542469425,-8.89364833191621,-5.247283669791841,-6.557505112486069,0.14056903589744252,-4.22237672852043,-13.023363634869611,-14.050418824604776
2.236,-3.2125343999377947,-7.362722567137553,-3.852303134860449,-5.819189074248243,-1.2230443271987497,-4.577842800411418,-18.250025195774583,-17.83095015321703
2.24,1.4317252919429393,-3.181477421727095,0.3940955778539319,-2.3241725102911914,0.2646681302326215,-2.723816429002227,-18.764472664482355,-17.625486830312866
2.244,6.385689046407606,1.9273965804952695,6.030960428729486,2.674605097303811,3.9451643493835036,0.6949458274218614,-14.664684446646561,-13.982618504188736
2.248,10.191660234384926,6.13138594856207,11.233055470475847,7.661260972426135,8.285388911115092,4.736699566442212,-7.678674369379962,-8.503928855826132
2.2520000000000002,12.298739302629883,8.282952182414306,14.606327615050077,11.48956018002741,11.61343620540947,8.540226486257438,-0.3741596455867011,-3.072812951801552
2.2560000000000002,13.095825652171243,8.299826174235022,15.694090885624064,13.75639059888249,12.892049771108532,11.57359784849541,4.9829082521619625,0.9505280133639076
2.2600000000000002,13.459075804778195,7.000485533568963,14.985955344903687,14.785570760538803,12.15660609095471,13.669814310490437,7.3417640563069995,3.1701738966839343
2.2640000000000002,14.12860497465681,5.553113796106118,13.500481943601699,15.284603407371378,10.417726999430442,14.884228888195935,7.125037906628904,4.058231014582134
2.2680000000000002,15.30726507859481,4.889488996166051,12.22301413462992,15.903769857270618,9.105983574141533,15.310017202117592,5.754816952987767,4.461296714013031
2.2720000000000002,16.65636150894079,5.365375304541203,11.683745042285636,16.91352371181688,9.341101058245727,14.98176484801013,4.756071655906737,5.033316152038992
2.2760000000000002,17.61378027384876,6.7724644975538695,11.84902023442146,18.130633706535946,11.382388690821244,13.920801398847516,4.955551046150845,5.920298062728762
2.2800000000000002,17.78567400430495,8.601436402891068,12.304899768600194,19.086125006985867,14.501411923797036,12.264627897367632,6.180003613064059,6.835762635859112
2.2840000000000003,17.128642954397833,10.32730690472573,12.555674459912552,19.28941117448278,17.320319041654102,10.363774225121915,7.550956527619292,7.410967305579845
2.2880000000000003,15.854595256973084,11.568697467030574,12.25488871960647,18.448949574495032,18.440249209473677,8.752199292224418,8.13417357907963,7.537676342415267
2.2920000000000003,14.176672333194347,12.094464300239508,11.285387608077826,16.564478936787168,17.077804218349797,7.968870488851735,7.5280896072099495,7.48162679410504
2.2960000000000003,12.106363024267466,11.759567105613826,9.716796637811854,13.885539103273004,13.433777787584631,8.30866623139417,6.04895928655813,7.701176608657107
2.3000000000000003,9.488731264955732,10.501947974139739,7.745326865025959,10.818388248147926,8.6498087980832,9.652328091827087,4.442379971489089,8.516012446628167
2.3040000000000003,6.263681637564332,8.44055202205783,5.69079061659329,7.853787018491403,4.38963389940983,11.48386468117235,3.375476871730797,9.87670461665357
2.308,2.745863734528484,5.978241635635015,4.017144841323784,5.517872410490099,2.209864106474413,13.092225421591081,3.048203760265494,11.39770020586522
2.312,-0.3317596425578131,3.7633265908055478,3.2653226566188778,4.294381919445641,2.946464008399971,13.865357284700849,3.1604321760407004,12.618921665712975
2.316,-2.09721509963515,2.4728799860410504,3.861159942823406,4.4971524823762365,6.371079264907394,13.539833185117686,3.219889260941045,13.314122366585451
2.32,-2.005658185976017,2.509108973672653,5.864601396493299,6.124557752089345,11.261694000986495,12.28761872410405,2.9604519911756597,13.634701833825005
2.324,-0.22777735967019908,3.7629358240703255,8.797066742536458,8.76288656138479,15.860048457245739,10.608141275195294,2.575111296888565,13.98018134018372
2.328,2.3181163368411717,5.6121484817809915,11.709206901897687,11.63248036387597,18.54299219022721,9.091475633875461,2.5983611523448644,14.674249342463213
2.332,4.357450399054528,7.180289127297897,13.524549209880433,13.810153031084269,18.443896850288866,8.169496237913336,3.505506946751666,15.66149161474192
2.336,4.877643506374852,7.721902443125714,13.51896999004805,14.551118015483098,15.755108550277669,7.956787564188858,5.303388095466005,16.42815229519499
2.34,3.6439853843371566,6.93579275237596,11.687419092563118,13.575292018157825,11.580894819187733,8.251445811467647,7.386225195890518,16.219801443214237
2.344,1.3108337760158975,5.043045853651847,8.770216806152803,11.169287758446217,7.405805088600687,8.664093499121577,8.763805102155459,14.438294329747748
2.348,-0.9222258117449655,2.6297661866268527,5.909671022255679,8.055596033017082,4.439707849590377,8.806546138610997,8.553317248949043,11.003800700246643
2.352,-1.9208782130572217,0.368427993538603,4.105343907760243,5.0988046176760236,3.1622421726270886,8.448976578742418,6.464033134978024,6.487090760008186
2.356,-1.1793778209519132,-1.2265193961867453,3.74581039770419,2.9745372723550645,3.2530151135304095,7.57530697348011,2.986754583528807,1.9193961692885182
2.36,0.952206393602637,-1.9161462232282247,4.459915487638909,1.9431978657796662,3.896758616654324,6.33411338238659,-0.8216574954411158,-1.6327600890202234
2.364,3.4693460235509974,-1.7278575196112342,5.362717754743699,1.8179103434888475,4.28264325321436,4.927351399110876,-3.8245552612359006,-3.4924800790273025
2.368,5.213292347498509,-0.8789458699311581,5.559722801617227,2.1217444945909847,4.023883925486643,3.513392231182138,-5.303930025885791,-3.5919428078769897
2.372,5.393480730968349,0.2877141550231954,4.610683946948939,2.3323189949117022,3.285065748421971,2.1810678793299303,-5.20953923275863,-2.389702701722399
2.376,3.892386554395671,1.364954099749525,2.727116413590693,2.1045991242540367,2.5989928285094948,0.9968233958770725,-4.047103892669952,-0.545066250344405
2.38,1.2434229674558992,1.9763314564600023,0.6248772233507225,1.3886714037589627,2.514498817293088,0.08483592104653326,-2.507483659754712,1.457045331060442
2.384,-1.661528939579739,1.9104755366823838,-0.8686855694818405,0.4101873701868044,3.283241359450926,-0.332937590903839,-1.0720020495705853,3.5237608507206915
2.388,-3.957811181585157,1.254875718532844,-1.2197164314716247,-0.4533652407358204,4.746249859705131,0.00555850732575891,0.18165851083489315,5.89315268898298
2.392,-5.130727224373459,0.4111990879107452,-0.41074785269961467,-0.8444064350796907,6.4394978861655545,1.2542260291186267,1.4812679442253511,8.848173219724686
2.396,-5.158413086478959,-0.06792347231100848,1.1036527545759327,-0.5714934317725238,7.8229729486168935,3.2963106158789515,3.0866761757746417,12.384432683405237
2.4,-4.441404656259692,0.22758712174288576,2.6509504770124295,0.32818506832677485,8.492813207469794,5.680991275228166,5.027739222738717,16.035584703978543
2.404,-3.5808091472883916,1.2936247836329358,3.6487571890306754,1.624349290176042,8.290680108892957,7.731193392098362,7.023055418825891,18.979519340685556
2.408,-3.0924285545740986,2.664550648452405,3.834936352299337,3.02605743761751,7.316081745614383,8.811014166727773,8.653528091590545,20.401657753464917
2.412,-3.166211219831439,3.655516203632942,3.3329793738218996,4.343846303560895,5.881387830671088,8.629640071754807,9.650777774968276,19.9156282588811
2.416,-3.574141575896874,3.786269883790169,2.556930398609211,5.584080280476428,4.4442134907492346,7.411265109098963,10.10638416774043,17.80266523671719
2.42,-3.766575206835796,3.1413187820803614,2.0297256603189453,6.924322468845958,3.5127551689612346,5.820580541192044,10.462538797828188,14.911960315433646
2.424,-3.1346043246487625,2.41256116435261,2.1818978460944436,8.56413339759024,3.5090548064564473,4.635763232444788,11.261541535482138,12.254543774647061
2.428,-1.3523393820764795,2.5429426978245147,3.1805191466153246,10.511899940341664,4.576564482898675,4.324972885596253,12.781198980645286,10.483223665742742
2.432,1.3782791177122817,4.1571100413355,4.841922161568846,12.446533426876158,6.418992995109988,4.7637459509521705,14.782673601983447,9.551195572762026
2.436,4.323904171978029,7.106738032368867,6.6595842346448535,13.765126237125514,8.29288369880237,5.26407274412054,16.5337498941891,8.754203413706819
2.44,6.511677553314712,10.431750855320388,7.960742885652735,13.839549132617549,9.22315933976165,4.938306502277783,17.11236951799833,7.1538717246126
2.444,7.198479309326103,12.799370655542248,8.153022770731013,12.36662384452029,8.40729739035146,3.215480242387457,15.842411302917526,4.161942283659187
2.448,6.273273150281284,13.18283915659606,6.967826381516943,9.607291537570745,5.625032312123494,0.22671827381668663,12.624535146517019,-0.05095309523017022
2.452,4.358818463958187,11.394109663143695,4.591190039217963,6.351868161032826,1.4354675782558388,-3.1679472179441746,8.006212444139805,-4.550182674726216
2.456,2.5224787722831934,8.168456254321654,1.6093856719980977,3.587806073213642,-2.9873464520010202,-5.750267610301307,2.963013374291222,-8.049293263040681
2.46,1.7093252245708754,4.747380400453835,-1.234609766796666,2.0168182624304336,-6.3539244213041,-6.5297481103471,-1.4887491873934096,-9.523104163811126
2.464,2.1853044834131197,2.1974935005198404,-3.3828451581432546,1.6748825218508046,-7.860308593096988,-5.240645616616803,-4.650531230061574,-8.683192636617946
2.468,3.3260190139310453,0.8696613756446823,-4.730627299823709,1.889938925033448,-7.579811185633844,-2.477271482707465,-6.3107305894823185,-6.064854065104896
2.472,3.888815662322486,0.2884271714883653,-5.683010792432697,1.6244173648130982,-6.44146081167446,0.6068631615767117,-6.682389045772993,-2.7020772720023842
2.476,2.6537102077099917,-0.4887100557039048,-6.9565450787517875,0.03251660105979681,-5.794810995788566,2.8611833766628934,-6.196100619330764,0.39759258886442694
2.48,-0.8938310484777503,-2.2752860602404326,-9.208093655719722,-3.0511333709118844,-6.770526152316506,3.664365526859001,-5.2757360068653725,2.6798189114928164
2.484,-6.194013980943964,-5.258358793991192,-12.64933636692399,-6.9471143762789325,-9.72348627002907,3.152430388431185,-4.196861387216131,4.166528074041025
2.488,-11.773877593486759,-8.861938752132573,-16.841946876639213,-10.395707203114398,-14.024843712062648,2.0441670353334302,-3.0670664836918604,5.2504107191792855
2.492,-15.86116971616957,-12.007959528130186,-20.77207948240948,-12.106472667843263,-18.275665205508858,1.2002346817769194,-1.8728338043508757,6.335267598507585
2.496,-17.141140626348715,-13.592287531004104,-23.176808316755796,-11.318464625599972,-20.823373656243803,1.160746555283822,-0.5370688611941432,7.562975209148249
2.5,-15.28080731199043,-12.922988358393468,-22.99023758609428,-8.105497434954032,-20.36024728973848,1.9096226668261806,1.036663648620447,8.77410116246108
2.504,-10.997664746933424,-9.941860262467117,-19.73608199191858,-3.3068485669955408,-16.374673825858054,2.950883398982569,2.920809243757617,9.677966546120729
2.508,-5.672970703807096,-5.177340088106575,-13.707067852174987,1.8508168568182555,-9.308460802663603,3.6212430730358847,5.11554453482006,10.083687482972891
2.512,-0.7452726517626616,0.47222072657018543,-5.879315269242397,6.233508619242912,-0.41383431058852693,3.440029477392727,7.50264296365458,10.022447402209878
2.516,2.808128116865646,5.998198866603161,2.3886496393884045,9.160583190237958,8.614997312778087,2.312147074538416,9.816471442433112,9.684044349594274
2.52,4.699720948843606,10.50614502673261,9.755735014059155,10.529950350964555,16.119730357285107,0.5243639841949062,11.693575264467881,9.249108554448867
2.524,5.2438145736223305,13.390065313190917,15.257937807051803,10.71927004630561,20.928860729391772,-1.4177079822468386,12.800331255029278,8.756601292374853
2.528,5.08161224445621,14.466541500353742,18.510925127649898,10.36058375870698,22.64789430673045,-2.9931990175682586,12.967706065723178,8.111405679672316
2.532,4.902332816209309,14.048052110746312,19.717386287440604,10.104135221159595,21.708465205176026,-3.807899406777551,12.268427301815791,7.234276771497207
2.536,5.269568499134039,12.904980403881154,19.50255530575896,10.433528186914373,19.160360480571626,-3.6424197542507954,10.998918342408501,6.238399784907301
2.54,6.548405968681436,12.059511879331467,18.642023299113134,11.54614488222478,16.263042886823314,-2.4403853696042006,9.56318567867288,5.484115719088095
2.544,8.855209160736194,12.414198238371455,17.772353547984494,13.29002368408419,14.013156917677406,-0.3008200079909784,8.315181895179535,5.448018296778173
2.548,11.986755443387665,14.351048100932303,17.18573051083058,15.174285714383586,12.79813477484322,2.5150300864868314,7.464450767247854,6.471343343034846
2.552,15.353474331469442,17.481468421693307,16.76631048901254,16.475876302471534,12.31283795792865,5.584608510500402,7.065827485580257,8.524076550461814
2.556,18.0250249116757,20.702166668095515,16.085321947268312,16.45869861370602,11.777033547982683,8.372850970448326,7.061873681572706,11.131375628650062
2.56,18.979174153811982,22.593115068405723,14.624752352927771,14.669306813137155,10.35449770453738,10.361814022231556,7.329210274813136,13.523999947877542
2.564,17.503092708896475,22.006577899988088,12.045388875783374,11.188732710300883,7.573899950353734,11.219446981155897,7.680173822162146,14.939215133248922
2.568,13.596484564663115,18.597931008975365,8.402503211944804,6.7191038918372215,3.5717198632994496,10.931915025516673,7.837248161111347,14.925182066789944
2.572,8.14048797734631,13.043963383099253,4.211740252852451,2.42051621304563,-0.9394379165669307,9.828107181009955,7.460328948257825,13.507404016836517
2.576,2.678129338351482,6.838186012181495,0.32636481674217066,-0.4796572577211009,-4.941674347291837,8.470833964809799,6.282896132707492,11.154471081363795
2.58,-1.1495955192699512,1.740107913571137,-2.337378464038011,-1.1544191979660354,-7.486574205490342,7.4542874494356965,4.332804763363242,8.576371134450142
2.584,-2.286767543050246,-0.8958246341121594,-3.1392956652666726,0.4683002258830129,-8.014150645540894,7.180328155534653,2.0759890515108737,6.447855096402918
2.588,-0.7188431861541176,-0.6106552779901904,-1.9715243682499022,3.640637953058558,-6.510226109575342,7.712536556086434,0.3508091575668004,5.184388226712713
2.592,2.531022695647607,2.03780123567617,0.670995073818176,7.06217903356719,-3.4867481753169614,8.76631045840577,0.04689540259255409,4.837020111703168
2.596,5.893501218978145,5.769872296448511,3.8613545432781393,9.389120493136488,0.19539546504006466,9.84330640153621,1.6338867523293175,5.133762413552063
2.6,8.002584480517271,9.159144400654895,6.597118958791725,9.77870084225242,3.5952994994056553,10.451189401782813,4.796487974356069,5.636209414673658
2.604,8.298931209635612,11.206379400483229,8.173777919725126,8.220776630040291,5.963747072274828,10.312595468370091,8.426715173105322,5.940918498686528
2.608,7.1959611423085335,11.676335110468926,8.419445071337577,5.519041217468384,6.9512241694737895,9.487535484389355,11.052578523431066,5.847835109417815
2.612,5.748539870091463,11.072879374448576,7.695043956643985,2.9360260410230694,6.704269887110968,8.356140721373322,11.532583980533673,5.442215318840454
2.616,5.006489745172985,10.277462243715036,6.6475768745649475,1.6285611106331999,5.787122875846762,7.446448683009294,9.648955209592259,5.041674504329308
2.62,5.432605078743109,10.057484137594429,5.8642347538529975,2.138811486061968,4.94671431460074,7.18494878120373,6.272837944905859,5.040095059041732
2.624,6.711274820646395,10.704174865261848,5.613587764242311,4.171361904645892,4.801826538503519,7.688840326786703,2.9872206384538913,5.717729847581722
2.628,8.0175345016537,11.96350232523696,5.79447896387137,6.74989742775324,5.578826023572219,8.697315959663683,1.333122825867349,7.103389878236612
2.632,8.575956009355195,13.276232176430995,6.107290554368319,8.694513047170858,7.0333302363778785,9.690636242642086,2.0785943964735907,8.966919662218743
2.636,8.153157508359527,14.164953422924782,6.307340192430274,9.18136303088204,8.59656869808623,10.149899322177589,4.884546911220923,10.937012877662028
2.64,7.193767575621678,14.537278587298033,6.375645587067538,8.128134127335215,9.68282436895015,9.836377496803834,8.526634013099738,12.683474159334082
2.644,6.513410183697033,14.707150537698453,6.480577963906853,6.206585614995674,9.990548781532198,8.93641437212591,11.531009597049206,14.056597849483751
2.648,6.738155346814892,15.119336568585823,6.761618335984622,4.4779365176787,9.62275617465275,7.959634858506888,12.857367388271086,15.097677489876105
2.652,7.851774164797007,15.9486227493976,7.093707974696827,3.847552526718573,8.950802300371834,7.435174240319611,12.280020539949874,15.921061526995572
2.656,9.132775361878885,16.838498303039614,7.023684881280587,4.619598166429114,8.31982652280476,7.570683071158328,10.31643277021385,16.553786745503203
2.66,9.557020871116947,16.995173003117998,5.9897820926235,6.4043994409321385,7.80982105214116,8.092856450869022,7.830061286147611,16.857569857990256
2.664,8.441998599134422,15.625580219684707,3.726938711918592,8.410311405440552,7.217661211421728,8.379422508557582,5.584943235280207,16.600394159060443
2.668,5.95942239258693,12.499148298931686,0.6225925345470387,9.945041028941887,6.2906566562837725,7.831781269407202,4.001628855220588,15.6397914429715
2.672,3.18843340782405,8.289966838482542,-2.2297194955895066,10.829147295577059,5.05803776797984,6.289178468427508,3.178699398113622,14.100661817187074
2.676,1.6361624685105198,4.437677966010597,-3.403185580700665,11.452921715623233,4.001895944750686,4.214211076925039,3.0731895391948,12.39479556029005
2.68,2.4578300405582922,2.531415071180163,-1.8057438937175903,12.436832085183596,3.891787665251286,2.5020420328924047,3.642692670107408,11.032243128983964
2.684,5.792011461535367,3.509828560720507,2.6902106021798318,14.107202009063258,5.331753954991655,1.985044344099606,4.833622270929482,10.322466313029736
2.688,10.588211187025081,7.113727747807388,9.014680351508105,16.12687398082926,8.273356051995506,2.912197163061137,6.4569421292203515,10.139832026784461
2.692,15.061508726572356,11.923561818459802,15.247810207201837,17.556723337462245,11.827883419217414,4.72860166298824,8.10167539327881,9.931192662594412
2.696,17.554469254928335,16.002346262811443,19.42243778705688,17.357530848394163,14.568731891360585,6.318495534548674,9.211811680864685,9.004043015248953
2.7,17.365618650557735,17.83595753677855,20.390692117247454,15.05966357115176,15.217583422775533,6.611646904230383,9.342193522872321,6.9519124077810375
2.704,15.087913050057068,17.055527890308895,18.304617152438368,11.179097835244647,13.346411999996235,5.22435261773353,8.427658304085526,3.9761848019586523
2.708,12.258984949605292,14.536779465596283,14.449325003657577,7.070389388296462,9.666762210659726,2.749476601284641,6.875061038226022,0.8808128779764957
2.712,10.503686996676151,11.821324793810618,10.51386185375668,4.24405182729879,5.685516224044477,0.501305433651396,5.380549089862825,-1.2855761323098704
2.716,10.613215370663056,10.186122383066504,7.691013066441883,3.498116114960794,2.8737503975403342,-0.18075079096115587,4.539845019796758,-1.7693637267989288
2.72,12.061388633111164,9.888781508612738,6.09280434001721,4.379992856664103,1.802316785894618,1.309533757553254,4.48873361219853,-0.5381275598344928
2.724,13.22733845660241,10.023041751959227,4.794600730861021,5.333564561825369,1.7551442252515699,4.45395778763168,4.80538483395344,1.6643489996131393
2.728,12.254396582246954,9.103985715934414,2.497900504125937,4.531072685627805,1.1050637296993955,7.824969006220272,4.767232820124036,3.695376300821181
2.732,8.11841563715825,6.058745559663748,-1.563410129917429,0.9671777653311437,-1.7099599196881172,9.80440951107812,3.825385952919305,4.621041642364844
2.736,1.3226184151772031,1.0364330179668286,-7.003132072800781,-4.80652008534571,-7.146357473183798,9.40982529312032,2.0083878280324825,4.204749876018013
2.74,-6.166414493795401,-4.4478766088966495,-12.300827203595418,-10.75364099817898,-14.049406250884658,6.785678715135873,0.0022055264944356168,2.993992311975717
2.744,-11.752478277915998,-8.17442740147817,-15.491743938005584,-14.267223773530986,-20.03041987550114,3.0947649505137633,-1.1806956695888857,1.9362230977758372
2.748,-13.39431231691151,-8.33735375940796,-15.150106339375725,-13.455815658026495,-22.557866550442213,-0.09327172612529466,-0.7711377598450326,1.7567494504576189
2.7520000000000002,-10.53787904776891,-4.51657099853287,-11.125723704536085,-8.112663212859843,-20.20073819265599,-1.5662890356120442,1.2831946169744697,2.4740001736881823
2.7560000000000002,-4.346404827786046,2.016698593213505,-4.661862192651824,0.132325850381676,-13.387023319872242,-0.9883150836799359,4.200781291348903,3.338408813115393
2.7600000000000002,2.8790640594538672,8.84363877645751,2.170200854419363,8.562402239825133,-4.259684546538665,1.0747073904267381,6.681573799098487,3.2495451804657023
2.7640000000000002,8.775025863543306,13.502952287013613,7.410267370218662,14.61472090866937,4.293299682326051,3.5619722528008424,7.49663161709509,1.4200723718529389
2.7680000000000002,11.934699865611492,14.590663627949198,10.028909068874327,16.959752422682413,9.926043487817878,5.493380328393869,6.054284830431698,-2.093188371451788
2.7720000000000002,12.363128887415769,12.28532920619864,10.210874844380669,15.87603111376984,11.774207397194004,6.384342950303562,2.646274743248796,-6.319330961621063
2.7760000000000002,11.1906471979064,8.077069834268059,9.01479679809745,12.801971145324387,10.615454085817419,6.318431764889738,-1.7319319484893185,-9.811724760433208
2.7800000000000002,9.874611710235058,3.9092187122300857,7.663225173382216,9.403142054192813,8.239791281286216,5.725375412499034,-5.841856097288428,-11.352183188350637
2.7840000000000003,9.353066809158008,1.219966433748823,6.878586013993299,6.6976839086237305,6.418777612282611,5.060090815800777,-8.705061103604521,-10.5415429395091
2.7880000000000003,9.59614309682047,0.3637300378152304,6.603669375830123,4.683775603061349,6.014998070958427,4.574994581098963,-9.920156234286424,-7.9739185387174984
2.7920000000000003,9.74742888299943,0.6483904985279878,6.1970621070695415,2.5891829608372063,6.657946797762179,4.285909135920065,-9.693197322451397,-4.913012486352272
2.7960000000000003,8.700090564158472,0.872461759203361,4.915604641634673,-0.5026338362613387,7.080895990193767,4.079582745527659,-8.620295039271241,-2.6628924243127585
2.8000000000000003,5.739928296116432,-0.0004371318891571718,2.3589044269174337,-5.0727960013177835,5.862920262007265,3.8299784255877967,-7.391115183353804,-1.9904915338870524
2.8040000000000003,0.8971849039371591,-2.390796128890088,-1.3633939910337176,-10.93594618842053,2.1768894642877967,3.438588239098408,-6.553290309284193,-2.8799566267248338
2.8080000000000003,-5.114905208900836,-6.039818044956974,-5.767479538247699,-17.388239584920484,-3.8021425152965094,2.8070895271830523,-6.387316616869384,-4.693749470203102
2.8120000000000003,-11.239616256855697,-10.237922901230604,-10.245560102857326,-23.522701130998485,-10.934394490279374,1.8313493152372757,-6.879163767414411,-6.576795619907671
2.816,-16.455565653548092,-14.143940863115176,-14.243120229832584,-28.47447398086615,-17.521225954637885,0.469744816290131,-7.749601034052148,-7.855948080174812
2.82,-19.9954051594259,-17.008258301968,-17.26845848634366,-31.489942717983467,-21.872029319223202,-1.1404792490670843,-8.530236352254633,-8.244514320083681
2.824,-21.363550034800483,-18.247873776366987,-18.79931887753719,-31.8944819133917,-22.798549292381267,-2.6198023457641284,-8.685959425604779,-7.802923895823483
2.828,-20.27500311952008,-17.460624220960426,-18.265609619356837,-29.145243746187134,-19.919808441988607,-3.43258843916783,-7.788587776069335,-6.768162509876561
2.832,-16.663301399424654,-14.483875042837099,-15.224929002777571,-23.056415444690174,-13.72663932407545,-3.1243864559928625,-5.710081435396205,-5.405357885358853
2.836,-10.800403380974785,-9.51783184708529,-9.674763191810598,-14.096076735246697,-5.4111181495518395,-1.592603827896255,-2.734335772610166,-3.9558634176812575
2.84,-3.4252828174426213,-3.213780200365136,-2.29175096709605,-3.5121263257487954,3.487502088378278,0.7919841916664154,0.4945129953541709,-2.6514224011593797
2.844,4.2934684800457035,3.4056442937866223,5.616978474722487,6.902256144780722,11.530112807524006,3.3175034263314274,3.198553891049926,-1.7121905372165998
2.848,11.034909831337018,9.233594356042545,12.50676802134626,15.373581583694886,17.764361756200174,5.25369564250127,4.786281512396613,-1.2820234716227787
2.852,15.7428641138913,13.46404298165794,17.169387204347004,20.772265539538694,21.912935332562938,6.1883586647245465,5.095564893188907,-1.3347711932767652
2.856,17.9639685918969,15.863214497429908,19.180534636590437,22.93706882562492,24.272212513040813,6.158702682847434,4.414206788621755,-1.6465970348268684
2.86,17.90759104848894,16.76341674495643,18.96890055829681,22.50713765823957,25.371061271896224,5.50352497587005,3.2756419379759336,-1.8919323324100787
2.864,16.18225436701323,16.764278601817068,17.462592887176925,20.365216461819273,25.568575338831124,4.549229526171757,2.147106030069267,-1.831404048179138
2.868,13.409529910884885,16.338006429660254,15.545887331476024,17.07860166263663,24.843315783954495,3.3644569030984712,1.2143311945727646,-1.4605359320451043
2.872,9.963185609900393,15.580401278283034,13.646708862448577,12.713636550327465,22.90752287506507,1.7705942726524881,0.3933340677101569,-0.9931373513654762
2.876,5.985615963483724,14.257988969069174,11.677243208419895,7.132449743666257,19.570651728221264,-0.3893990702385963,-0.4432440737514298,-0.6595734849495329
2.88,1.6594593074305521,12.12400732283254,9.329397032954603,0.560079265456352,15.12363898383137,-2.9148869173955063,-1.203559477494423,-0.4341122534688111
2.884,-2.5459705222847333,9.242125828340932,6.45967989069095,-6.055666776844646,10.427583469225283,-5.135975669722484,-1.4993992588753144,0.08645820714434649
2.888,-5.91323689654655,6.066744830925472,3.256246417406146,-11.25808809965929,6.554376673242132,-6.185368570951823,-0.8639591473427117,1.5025514968333482
2.892,-7.8640245990350195,3.1821516479240017,0.04838038000571032,-13.847105368086886,4.119866692747337,-5.544155594389167,0.8175080239569752,4.176769897371173
2.896,-8.485464442767807,0.847577545150898,-3.1000311177681397,-13.77004499831446,2.7081536365890315,-3.5362814815630372,2.947522405916402,7.789734707708817
2.9,-8.78005060630494,-1.312814878344625,-6.667847478539898,-12.50119889967391,0.8131993629538101,-1.4024685730009878,4.226749543897768,11.206200285939758
2.904,-10.35933557638873,-4.219829273598862,-11.543747875159625,-12.53708603069208,-3.5358658660979927,-0.8073854803769791,3.1360901065088456,12.820643360165718
2.908,-14.619244608786175,-8.807869787609661,-18.446744008227597,-16.13929662773444,-11.681147166608753,-2.9823585246640505,-1.2762083345878636,11.283302720367146
2.912,-21.791359014475802,-15.320620554622792,-27.206220961085364,-23.956741508215828,-23.3256776125761,-7.9647507519541705,-8.725573115135376,6.243907459636375
2.916,-30.46652869278887,-22.870696272228088,-36.37828564443157,-34.34512611620539,-36.20439109162862,-14.405946643527614,-17.543836570058602,-1.3245697981731155
2.92,-37.94563356298909,-29.561803929493863,-43.52319668764994,-43.84474334791639,-46.71793894909388,-20.1027912549132,-25.21146537489915,-9.446134289857355
2.924,-41.36143871548961,-33.209381456006895,-46.130555555719184,-48.67493323616145,-51.32183451756691,-23.01278805880861,-29.386394575626127,-15.986780652062748
2.928,-39.04065900407136,-32.3212629002561,-42.76047156842469,-46.50373754664702,-48.03506939565773,-22.218159658155173,-28.93473305174507,-19.59304154441884
2.932,-31.38528028246992,-26.83535200064921,-33.804910167779326,-37.57120339972107,-37.337417501616756,-18.31169693869333,-24.438118441713755,-20.226540279775804
2.936,-20.77858724754242,-18.219070218474144,-21.44672937408086,-24.589350400403873,-22.017378291657224,-13.006800706530157,-17.908509523679868,-19.015267212832555
2.94,-10.529842748027704,-8.863689472929082,-8.805386489886814,-11.483872558450685,-6.049601093015099,-8.207861360435345,-11.842081132078647,-17.520197700092126
2.944,-3.398998487603876,-1.0853033586093943,1.3081837199242727,-1.66084026086196,6.942527742665106,-5.085799553839024,-8.088066234558596,-16.846448084247243
2.948,-0.46483109966607117,3.769115496048812,7.406295450563221,3.3138726988586313,14.923822691960936,-3.6674288148221876,-7.102730152113281,-17.095456036946302
2.952,-0.8921399318057865,5.685667798841223,9.633493801833083,4.0111078711104255,17.86814238688703,-3.1166592710339955,-7.940088305853465,-17.447578561830483
2.956,-2.648706106899681,5.695386995464332,9.299449914578418,2.3929073657782283,17.289796340316798,-2.475208090999331,-8.924384317114459,-16.78831051628174
2.96,-3.71621888251525,5.154921443960802,7.9771579821908745,0.5527074280414581,15.242657077416425,-1.3651762409351704,-8.611655196380468,-14.482009759835705
2.964,-3.1116794090933126,5.015108740741198,6.695331372201281,-0.3328211745006229,13.346919649413167,-0.2114510948872521,-6.520230646492394,-10.829854679981622
2.968,-1.202652625463088,5.447257581534473,5.618340441135615,-0.33846464166981605,12.259195041623116,0.12450587685452774,-3.2589314469879582,-6.9597594218983545
2.972,0.7372696260081284,5.94605234151436,4.278228755799319,-0.3850600215448594,11.698948619567318,-0.9761528714933547,-0.07512883243236956,-4.2390882758209045
2.976,1.3722772181461096,5.7624168424540585,2.103490656222675,-1.4797793236984944,10.857101098539033,-3.3663620376871677,1.8747652210489605,-3.5606662494161014
2.98,0.03661003727188472,4.388357762474129,-1.11942535889375,-4.0973614766885476,8.893487446619929,-6.109800736732041,2.1150260323765906,-4.896474253274334
2.984,-3.0481878673087976,1.8144786184429904,-5.124613358573242,-8.030586136178954,5.282422827399387,-7.988684142803095,0.9991684858397889,-7.344432683026298
2.988,-7.082202397094079,-1.5256798897289627,-9.38511105408611,-12.674901689901162,-0.055699718386449604,-8.21805977294673,-0.6101910610457253,-9.600257875136833
2.992,-11.218715365157095,-5.0147703405175434,-13.430589420065644,-17.44027571818083,-6.746333966672523,-6.907488693321852,-1.8765267022000103,-10.561757700943645
2.996,-14.952620658727255,-8.121313775124236,-17.02259989460117,-21.978432439065955,-13.996104452993336,-4.989005375847796,-2.4075924607141133,-9.766537324039916
3.0,-18.14792900134148,-10.533863015478005,-20.083916286616386,-26.101418091535834,-20.66976641006727,-3.6574613212133045,-2.3518435437733842,-7.4909801390484745
3.004,-20.771421161754006,-12.135469893936147,-22.479701627019722,-29.517491306875627,-25.459308798477082,-3.667757990085647,-2.173621285802426,-4.530385651855283
