Timestamp,O1,Oz,O2,PO3,PO4,TP7,TP8,Fz
0.0,-1.4779288903810084e-12,2.9558577807620168e-12,-3.524291969370097e-12,8.29913915367797e-12,3.410605131648481e-13,0.0,7.673861546209082e-13,-2.4868995751603507e-14
0.004,-11.448481695910004,-12.264262282731181,-5.747977947720642,-10.282990559492077,-5.355816928581817,-12.17806438180122,-12.52908755176415,3.704221350028572
0.008,-19.98466131720477,-21.377831944223942,-10.094540903080656,-18.28758863729513,-9.294813322730533,-21.490895711603116,-22.32943619683607,5.954359967915717
0.012,-24.028403077338908,-25.536978986788654,-12.306761084043842,-22.72920897703864,-11.091193276089712,-26.229776773875017,-27.922419277897717,6.011385189922228
0.016,-23.97270808719668,-24.952291555359807,-12.622143281813237,-23.802394189119582,-11.00619315985557,-26.46142280470974,-29.63278543090405,4.186038308858044
0.02,-21.82433618373659,-21.548864710603993,-12.037249528723464,-22.93477683966762,-10.04767384014633,-23.839044040494684,-29.188534767581956,1.6092472416615013
0.024,-20.05197225032896,-17.86992019656668,-11.698072850529002,-21.950860381835014,-9.319334228929051,-20.711771369004964,-28.607888777860637,-0.4067987969003042
0.028,-20.2816432666001,-15.804473204121734,-12.243592160443313,-22.10303472960163,-9.35931033535627,-18.988374512620453,-29.05320334328121,-1.0262781436057757
0.032,-22.53697915160342,-15.80890592151195,-13.469404923055436,-23.48298726053804,-9.852091310362368,-19.314545534364242,-30.312990833859914,-0.20521680660559838
0.036000000000000004,-25.401538259209815,-16.979061242955424,-14.498105789909118,-25.11146483100117,-9.881554955973456,-20.94662171205772,-31.182964025305665,1.4594520817904737
0.04,-26.945995539269234,-17.83894276954362,-14.349730960549891,-25.608538447339697,-8.57353038635057,-22.33189021597434,-30.457070622627583,3.1963735056172844
0.044,-25.85939182131051,-17.308754590130718,-12.578390086678723,-24.040696936369272,-5.7235980414650385,-22.05629261493084,-27.853942099592018,4.495269460955591
0.048,-22.17170228391933,-15.31969747411165,-9.617806980182195,-20.483705060485363,-2.0474447310692767,-19.652613013049404,-24.323078047030407,5.251787065977948
0.052000000000000005,-17.223227846811596,-12.788482587673684,-6.648843190828757,-16.023045647254094,1.0947772801648625,-15.864339398725747,-21.574888364721488,5.588712629135612
0.056,-12.964382222984796,-11.038639541152861,-5.059159995706409,-12.230373347074874,2.3534951042163925,-12.263577568477103,-21.138340867596014,5.559235659189611
0.06,-10.995016508147273,-11.059697931539574,-5.770911850302241,-10.40778647889772,1.068425981052144,-10.43362185963997,-23.51908020793215,5.004737194207159
0.064,-11.830504815245149,-12.988494884732631,-8.769042438936935,-10.987127890664397,-2.3700798274197723,-11.140136949455268,-27.901968198252774,3.680829578855781
0.068,-14.743269583347228,-16.078909116189095,-13.070028642067882,-13.380875042942876,-6.685290053657184,-13.925908383204899,-32.551184009254825,1.5598079534588916
0.07200000000000001,-18.2025194554285,-19.123467694942235,-17.145219382960704,-16.332355718888152,-10.307584421589922,-17.33392575977996,-35.66899501873456,-0.9301796163057654
0.076,-20.639361210735274,-21.060004314193236,-19.589697750721598,-18.562859237208386,-12.091994857970064,-19.642159918250456,-36.2368743419305,-2.967140770270822
0.08,-21.143348309981775,-21.452139552756194,-19.722221280737187,-19.375409511458315,-11.814530301228615,-19.717146180684722,-34.43061286735244,-3.7268548716714474
0.084,-19.76697096457417,-20.59717968887287,-17.833981297246396,-18.916108063743536,-10.193977865302713,-17.545075180827723,-31.413566147323195,-2.896653647241944
0.088,-17.360285253709208,-19.280731261223025,-14.993337009705215,-18.000940256330637,-8.475226893966294,-14.182084911137167,-28.6964733643955,-0.9825936246662108
0.092,-15.091500518915211,-18.35984693816914,-12.523728703104382,-17.638043318380767,-7.8014484207707255,-11.162509605471314,-27.436283271804825,0.8321526383391191
0.096,-13.926089418427011,-18.402041754486845,-11.415641560939434,-18.512622710404855,-8.693197377752313,-9.699679223020212,-28.011237337100056,1.256680417508794
0.1,-14.290184911292442,-19.526170120552422,-11.934551885075678,-20.680656954404185,-10.882006226206784,-10.097003452947376,-30.020827584418953,-0.4075155135904822
0.10400000000000001,-16.002879417189718,-21.430148662720825,-13.575945602930517,-23.58310268131521,-13.523901308470613,-11.656908623726508,-32.587607472955796,-3.8529519586009
0.108,-18.454844718075208,-23.561996950528282,-15.368552454351175,-26.340878818057945,-15.668443003414268,-13.114883249487661,-34.77066840251324,-7.891334739667522
0.112,-20.92041178813821,-25.350013384040153,-16.375169775417362,-28.17022999917009,-16.74441708681354,-13.359993341048892,-35.91987627701616,-11.059031420859228
0.116,-22.84568531252455,-26.396524182048154,-16.13693916016001,-28.699768924296563,-16.80386892077945,-12.043028832052784,-35.84607697640628,-12.359919165716965
0.12,-24.005638957156805,-26.59553090584444,-14.866517939865389,-28.052934401630864,-16.43443862670557,-9.744965186790125,-34.813823004482046,-11.728698312695993
0.124,-24.480540908219382,-26.115597578946932,-13.301636783732931,-26.678194552355592,-16.3832931689426,-7.622924971823068,-33.36485204179981,-9.983359544478725
0.128,-24.509656229253437,-25.29006793589565,-12.31793228581472,-25.05618790214487,-17.11809295395085,-6.750820718189402,-32.08339353945364,-8.332455030475248
0.132,-24.322499017205416,-24.468927498022907,-12.499603667060967,-23.464251746601235,-18.55684783080528,-7.53920032109113,-31.395130669206395,-7.729772319605274
0.136,-24.04459031651521,-23.89792081597031,-13.888930210842943,-21.929794383841795,-20.109246061926342,-9.558409325147181,-31.466747622358795,-8.447988808609399
0.14,-23.70734118683606,-23.67552715374876,-16.02712300393057,-20.36907090666466,-21.018428637436443,-11.835206530909716,-32.22799213576074,-10.085862102148424
0.14400000000000002,-23.306666478351588,-23.754642128990213,-18.222137166389643,-18.78136634876853,-20.77531293150969,-13.426596069157199,-33.4439226433023,-11.94820226632521
0.148,-22.86067605452149,-23.993185783490105,-19.896653262554366,-17.35935407939212,-19.38702868883138,-13.929293340928098,-34.81234318712801,-13.517864401481951
0.152,-22.420247430914856,-24.221299756121084,-20.81929755869311,-16.43123463910547,-17.350547624665637,-13.636886345986909,-36.04791057187157,-14.70757321696135
0.156,-22.032698554494573,-24.300620248199266,-21.118137313330294,-16.275009858440626,-15.359900727914237,-13.290460479732587,-36.93877039432175,-15.768456937050274
0.16,-21.70197848972998,-24.175406192208015,-21.110474488361547,-16.937678131630946,-13.94683351818935,-13.597410469986471,-37.387996684942834,-16.969592589186163
0.164,-21.36979160141584,-23.86570685500061,-21.058651781150957,-18.17266941626758,-13.240113189711678,-14.808252417959295,-37.40121509807517,-18.30675850082851
0.168,-20.94414830995015,-23.438622070522342,-21.010603108721625,-19.54690442640367,-12.994464823828139,-16.5875408306469,-37.06169736164972,-19.449833536695888
0.17200000000000001,-20.38403712136335,-23.001715453964493,-20.827642239909096,-20.671290231853845,-12.87147704912877,-18.249648768078714,-36.522872506269294,-19.962917045542937
0.176,-19.778117137756,-22.701983520036606,-20.360385186685335,-21.406822838428184,-12.763452722585043,-19.19184446126468,-35.99084939067191,-19.629659459643037
0.18,-19.341627548585848,-22.70937998759581,-19.636680535982805,-21.895873348776718,-12.936669187196003,-19.236342086397826,-35.688277625223805,-18.638077076644223
0.184,-19.300202002430638,-23.132726032995947,-18.90470798146771,-22.38624869883631,-13.84779684038108,-18.687479218311523,-35.73664196436894,-17.491628113167522
0.188,-19.725125755999102,-23.909529613750294,-18.495781891106844,-22.964871607799523,-15.743611993412628,-18.0894264901998,-36.02200717325948,-16.683194559377377
0.192,-20.436926733987775,-24.751076484869714,-18.59154942330406,-23.395207115101357,-18.306471131538842,-17.873418958449065,-36.15595281834118,-16.339859443920297
0.196,-21.065625401796183,-25.203069055105516,-19.049617628328747,-23.19891196744902,-20.6060774074773,-18.121971417234022,-35.59533089593705,-16.076240079461535
0.2,-21.257245494321523,-24.84031073818676,-19.42476067509756,-21.962546113869962,-21.46491085455375,-18.582004093748424,-33.902218649614156,-15.170083320986624
0.20400000000000001,-20.894231259005778,-23.47225124699196,-19.177033592797898,-19.66682148528662,-20.043016065536335,-18.878756803114925,-30.977338823693657,-12.975730062467122
0.20800000000000002,-20.19215493638785,-21.264559672737846,-17.96205015429973,-16.81694176220185,-16.335365292751362,-18.760719600867333,-27.14760362905028,-9.33740531992143
0.212,-19.607868973410632,-18.711588542815775,-15.845865471023444,-14.266346235185438,-11.288724228541696,-18.220112360875873,-23.062542527465496,-4.7597262694656095
0.216,-19.587134314692094,-16.435725485722855,-13.305649308609645,-12.800642183217178,-6.41958788613681,-17.436842597195437,-19.429416722634016,-0.224775379746756
0.22,-20.279177038353282,-14.912961612668141,-11.000032472998896,-12.702544922602783,-3.1198412234351736,-16.604290380354087,-16.729592072701735,3.2508532562124106
0.224,-21.3795472682948,-14.23783057992614,-9.430200387141213,-13.55634237464028,-2.004385186614286,-15.779677960308277,-15.039328325084284,5.062444542826806
0.228,-22.224235195005576,-14.079584778880076,-8.689834131362659,-14.440418071644899,-2.6717307678817406,-14.877482699540792,-14.062976316908305,5.2428138347908035
0.232,-22.116124169048362,-13.87175338646523,-8.4529722075888,-14.427721684408425,-4.0069358841011535,-13.806714208302651,-13.358621054770765,4.373133219598949
0.23600000000000002,-20.692949573776332,-13.10808942130177,-8.189106491031453,-13.099620627939885,-4.831912763091395,-12.62293516664306,-12.587910146274226,3.256073004314934
0.24,-18.14498117471112,-11.617124704543471,-7.490504554922609,-10.782635365889973,-4.5512409713084025,-11.566111493443827,-11.671864771077082,2.5462905862410574
0.244,-15.158946957243188,-9.659265876457766,-6.3168392304796726,-8.374433482958466,-3.4207147335450827,-10.93756301924816,-10.762748327757322,2.515337575646954
0.248,-12.610815137630198,-7.8035577623790005,-5.027183183839725,-6.8522792624901285,-2.3197416018615513,-10.886903527970958,-10.078866469413583,3.0253246700037524
0.252,-11.148865291993616,-6.637754964344367,-4.173647669526417,-6.728152417230831,-2.1726464585797203,-11.250856579759443,-9.714981032800097,3.67581968244765
0.256,-10.886565566847366,-6.452823329246257,-4.166182971584703,-7.754231455016225,-3.3592489759934097,-11.574513267806196,-9.543087376662925,4.027887480416195
0.26,-11.387225758001478,-7.102486523781863,-5.020363381609286,-9.056490780349122,-5.4825891049493976,-11.34583580210301,-9.29166210504593,3.805462766155001
0.264,-11.944501340184388,-8.094725737802946,-6.332007030764771,-9.62002907986539,-7.607811648473216,-10.320029052194059,-8.73192162814189,2.994428769958616
0.268,-11.98145566652488,-8.844904327890163,-7.476979364187628,-8.830993650459959,-8.799854670048262,-8.723849579805005,-7.818866331239008,1.8460828407970284
0.272,-11.341778741244752,-8.94411340864201,-7.923902065925631,-6.783082975751313,-8.640164532868766,-7.19563981648821,-6.685830798014194,0.788434054579298
0.276,-10.334044396930722,-8.311828405158394,-7.49348198802727,-4.2119101398848215,-7.422680916400623,-6.483712419673793,-5.505488669314786,0.2644941143639432
0.28,-9.528500132767931,-7.2004607368529605,-6.432911002574201,-2.12169117602366,-5.950279019510617,-7.062271542271674,-4.355309264363427,0.5628658264142565
0.28400000000000003,-9.430288181335072,-6.056679550990339,-5.268991252666638,-1.325605207875924,-5.05465220500605,-8.875189228395357,-3.1774558828851696,1.684677877280687
0.28800000000000003,-10.205363592688173,-5.317601130951971,-4.533214413723954,-2.134661452011187,-5.1327511897768545,-11.344779743199979,-1.8544648637555383,3.294832371222806
0.292,-11.607625601106747,-5.240086948618,-4.509368686229209,-4.321636114303828,-5.96715944520156,-13.635825198905877,-0.34395209165131746,4.788849512701827
0.296,-13.131166478094201,-5.826591407724436,-5.125855588099284,-7.325943693694626,-6.907425472115847,-15.02786153580746,1.2295579144380895,5.486186944857487
0.3,-14.305118724305657,-6.890673318936479,-6.047387523732596,-10.559505448661412,-7.303578899979357,-15.223383562150957,2.5813555500598113,4.906873675821672
0.304,-14.959081045701396,-8.19214288417777,-6.8890981118183845,-13.63572152971392,-6.911540922423683,-14.442861956826846,3.3898678896397882,3.0083474961659924
0.308,-15.290142199513411,-9.548431394297268,-7.411723229003655,-16.412617273200794,-6.028455919113867,-13.267144867427305,3.4794915282973875,0.2592725168767771
0.312,-15.707559121422491,-10.866609953595344,-7.5995423041767936,-18.884700534921194,-5.296000499459069,-12.334916983113771,2.9501245000416247,-2.5185025108244723
0.316,-16.549042080913978,-12.090234253478911,-7.5945001211134695,-21.029679106580716,-5.28995391554281,-12.04889763720439,2.178474581075534,-4.479967491061286
0.32,-17.834931304247448,-13.133674549135776,-7.550310276442815,-22.720905936267627,-6.156240359252706,-12.427624763028689,1.6524621478682207,-5.090664027230163
0.324,-19.206524349277515,-13.84752426819341,-7.506442199756066,-23.753645604476787,-7.493132300024399,-13.153257304450335,1.7435342209596456,-4.314946058326189
0.328,-20.085057515137123,-14.050029433570899,-7.37299410376545,-23.945339239631494,-8.557704544636863,-13.761684804654124,2.5355770912156004,-2.5757981955947855
0.332,-19.948102901600578,-13.60148171745368,-7.018092379325481,-23.221389309711867,-8.669240727050692,-13.860918531144534,3.8040658290531155,-0.518862317297172
0.336,-18.58497006525613,-12.485361971135035,-6.399579982671639,-21.644337818703434,-7.588187312692753,-13.283188533786415,5.146501598634416,1.2749111965627922
0.34,-16.209747967468957,-10.869231681908104,-5.654445456731537,-19.383361009282908,-5.683304621999014,-12.122107281890749,6.158069258859484,2.5007244963143442
0.34400000000000003,-13.376614253643993,-9.095622479341046,-5.077919091653939,-16.662328528760554,-3.7869866726271084,-10.66234419997636,6.566317062438429,3.1700775271552333
0.34800000000000003,-10.742913461087483,-7.598257448843469,-5.001164708583701,-13.720848997327266,-2.823985951634995,-9.249876113233654,6.280553982045262,3.4832030113762382
0.352,-8.800523562715625,-6.762984637787213,-5.63376342109018,-10.799226294412165,-3.3986540043836158,-8.155446141347056,5.365480620724895,3.628989943523232
0.356,-7.695064662466848,-6.775261595117627,-6.944958688359975,-8.128344474187998,-5.5170953518036185,-7.481367316455817,4.000251035871656,3.651327474285605
0.36,-7.2294873289533825,-7.558143714393509,-8.666285217786026,-5.915496769633592,-8.59644944499496,-7.157486009565218,2.4167840626461157,3.4531501434171474
0.364,-7.039697820282981,-8.822279579373571,-10.406233372237693,-4.3272273598618085,-11.7253557522547,-7.025328170510647,0.8554614780759948,2.918177467086119
0.368,-6.826442148399565,-10.193893699771479,-11.805619642209422,-3.464593841241822,-14.037007655358593,-6.946978471216653,-0.45047460117712035,2.0640369793912097
0.372,-6.519161673209055,-11.350906634835837,-12.645650698574627,-3.352412107719829,-15.015999390682964,-6.877340194859471,-1.2712372551051203,1.112217967914269
0.376,-6.296260024162166,-12.101339706594445,-12.858352770924057,-3.9496735176139737,-14.608671824863222,-6.867854225100928,-1.3727254410215437,0.43101253347415547
0.38,-6.475881838926398,-12.40771955608352,-12.47036317845459,-5.182525466064362,-13.13725198920747,-7.006509182169111,-0.5625401888147508,0.38152319952694214
0.384,-7.339152929562715,-12.346874845282855,-11.527047870701608,-6.9749022427540694,-11.082924558963896,-7.333943783444283,1.2372737458562142,1.136998174761974
0.388,-8.953835720830284,-12.024863627505056,-10.044190664564212,-9.226905003059983,-8.850685541475741,-7.793336643222801,3.9215846943491215,2.5781266877999265
0.392,-11.074136661855391,-11.492135096286802,-8.017565114158515,-11.744839190007951,-6.621414050347312,-8.242957847603066,7.1742194620082955,4.315829984131469
0.396,-13.162210307803889,-10.697520399030736,-5.469624103836395,-14.177687838133807,-4.339375989448399,-8.527041186018323,10.510758328590555,5.834211590215558
0.4,-14.54068992170778,-9.529246232667674,-2.509417434785064,-16.032300726718404,-1.8356646930792522,-8.565371156937545,13.355511647630124,6.705742804201373
0.404,-14.628221344421036,-7.909102619304576,0.6337837626374494,-16.800681682917002,0.993953168568396,-8.398266693682217,15.150991545407237,6.778495872574393
0.40800000000000003,-13.159673310473408,-5.884533918562738,3.6229739211398737,-16.152236681956765,4.0475670639193595,-8.133878329623712,15.489458298367936,6.248149371718668
0.41200000000000003,-10.293188584914787,-3.6604288223161348,6.0746169154854215,-14.09204995318396,6.982711916472908,-7.818257026779747,14.244373321123476,5.577387597714875
0.41600000000000004,-6.563323538683562,-1.5489360234487322,7.636371531566965,-10.999566894892723,9.300820390630633,-7.324350441017714,11.650620067812838,5.286403842847125
0.42,-2.708633241565167,0.11110472730069887,8.041329679142564,-7.52289604833004,10.48638565075521,-6.355346857073755,8.2498479004297,5.7135490114214225
0.424,0.5670991698639227,1.048509663599134,7.148937826596921,-4.359579261298677,10.164583703093967,-4.594801630295706,4.719408423576056,6.858284754500351
0.428,2.8053718962128187,1.127713785660717,4.9752318047926565,-2.0242951629625168,8.217863314975602,-1.9358485170828317,1.6396274828513242,8.37367991480447
0.432,3.8952121475635977,0.3686127361791023,1.715155882905492,-0.7089808015639392,4.827855830069893,1.3431977260900112,-0.6894920293643736,9.708761015508497
0.436,4.040006701725815,-1.0676629087859055,-2.243670683531491,-0.2890458025931366,0.45826744266651076,4.589538590771781,-2.292805032606907,10.335176539241136
0.44,3.6061424987847204,-2.938429976099542,-6.350552690170844,-0.4631317196758573,-4.232805829807148,7.007073707208292,-3.4302770154752125,9.965696361505755
0.444,2.9442943167641715,-4.9780999519375655,-9.97323977979704,-0.9309645785233442,-8.508119503661419,8.011543446461474,-4.400624500587924,8.660088415442404
0.448,2.276408367914428,-6.9363317606148485,-12.521167780777887,-1.5052013887352587,-11.674362256655968,7.524932049001109,-5.335365686625437,6.775084922537385
0.452,1.7023432461369339,-8.583254251278731,-13.569192970008771,-2.105238961203213,-13.191397730826338,6.05022553474555,-6.089530424983764,4.789122695305638
0.456,1.291097201269622,-9.68321811256692,-12.932422112685344,-2.6647967810022237,-12.745950193153021,4.466687913689611,-6.273650022300103,3.0991602580760933
0.46,1.1507759057976727,-10.013768168834986,-10.687181663754018,-3.058785118027572,-10.319807286849027,3.630043632708748,-5.445730789907088,1.9063182865747201
0.464,1.4084370001573916,-9.43589880079412,-7.13054159792091,-3.125340679270721,-6.224359172242885,3.9745486508497834,-3.366902824604722,1.2199468029859482
0.468,2.109813172586655,-7.985493271797168,-2.6994707047933844,-2.775969359051487,-1.0892281828707837,5.334193153025581,-0.1854997068259081,0.9522117964005794
0.47200000000000003,3.120647230791292,-5.923924880528602,2.1246953273534928,-2.1071951182375415,4.229947760646155,7.079498830240709,3.5560290286325653,1.0267695505589423
0.47600000000000003,4.113879918034854,-3.697710201901373,6.889449206716108,-1.428818575380319,8.82775018694565,8.476056037136686,7.098524491132139,1.4028924966918517
0.48,4.6832466710975496,-1.8191982830805955,11.2084043666041,-1.1571604204100367,11.953530866320989,9.063842062747199,9.719152296403195,2.0191647159041395
0.484,4.537916812777439,-0.6958521789108545,14.773143703415826,-1.6181323225737287,13.19191717198214,8.849040478976349,10.95750282566371,2.7120831100654286
0.488,3.6757263806875926,-0.4735002819224974,17.352699240294896,-2.8596513331490314,12.544303831330126,8.22760946257722,10.727658397914979,3.185593950890251
0.492,2.4212719847942026,-0.9754061145426931,18.799296470079753,-4.585958381011096,10.380498185519627,7.712977472216608,9.293380929870182,3.084174168597679
0.496,1.2831891508767512,-1.7741128573782134,19.065260954398582,-6.269494451261835,7.282795504486103,7.632177671058571,7.154452839999635,2.1458457019938244
0.5,0.6879861415773121,-2.3975049295122517,18.20901318755432,-7.394836851694436,3.8176669089941697,7.960984294215223,4.876538740953947,0.36225527572362815
0.504,0.7514458844348155,-2.547641586068039,16.401209039051537,-7.691714709068947,0.36888593036678685,8.386072781334406,2.9506830341532577,-1.9419991125195644
0.508,1.237256641938984,-2.2223692411689626,13.922146831907412,-7.21700162681509,-2.8952273672259707,8.54392719460543,1.706993284664236,-4.177578649147307
0.512,1.7395032364615872,-1.6727831973598768,11.14826485184949,-6.236751973336595,-5.919575370625807,8.281325184333582,1.2951510971438438,-5.691357949013076
0.516,1.9801517911050723,-1.2059444148158036,8.516521285655926,-4.994212093356509,-8.58284701986372,7.781923062563692,1.7101958798409669,-6.011764234708853
0.52,2.0248774766569113,-0.9741653341311576,6.444384422959047,-3.5281052098248438,-10.586646701390919,7.482929886615011,2.799129692290876,-5.019220048734233
0.524,2.2700458980461917,-0.8735635658613319,5.226061885391118,-1.6629233690146066,-11.488041756617122,7.825987823606056,4.269031524454022,-2.9700939941603366
0.528,3.2034591791225466,-0.6044805431301938,4.950061480656586,0.8190116265395773,-10.873514506866286,8.985404685211051,5.734517302250765,-0.37888946689396974
0.532,5.087365851009054,0.14775478281580945,5.488568653356197,3.942376931439412,-8.581187342892463,10.72549309584656,6.839551632474922,2.1741736822273907
0.536,7.766281665448332,1.5370673414342946,6.593189539124069,7.409766541215049,-4.811319125332375,12.463984870968261,7.439402366744275,4.2183513436288
0.54,10.712309839161207,3.4659263471453414,8.046590656697845,10.66860542620634,-0.07428147159907894,13.50294685391259,7.725325075062642,5.49374215365054
0.544,13.28147571065847,5.641518380621619,9.80048130719706,13.146171281626266,5.014537365959313,13.319392724652289,8.21086997631744,5.964101566237307
0.548,15.021885389841373,7.732512169473694,12.006775246850339,14.504793860094196,9.968898215587615,11.787118220611546,9.543010698032163,5.760228422690531
0.552,15.842659458521211,9.517336125493784,14.895197733754003,14.753106955115527,14.548495421870257,9.23704497653739,12.185755540573723,5.091387075969632
0.556,15.939293624117226,10.935016505166459,18.539194029184273,14.133926686606628,18.694226887481136,6.331893523706867,16.118077867843567,4.15442965254968
0.56,15.532466044185185,11.986455432370803,22.626105159861936,12.857508587622306,22.305465288553933,3.8159871608377216,20.678786971139516,3.0723360902449492
0.5640000000000001,14.622317755094173,12.593417967066216,26.399582859122575,10.88056224394586,25.052708528077346,2.239229794323137,24.6957273331642,1.8856444057117194
0.5680000000000001,12.952355007610322,12.543240979475513,28.85709727196945,7.915846315818044,26.387257630990234,1.774530240205877,26.896136389286312,0.5962834205772758
0.5720000000000001,10.233156292764534,11.590552764865606,29.15194142179962,3.7042645159310723,25.78559616757957,2.200305454262434,26.444635713118146,-0.7641532082109208
0.5760000000000001,6.5000720656207704,9.6873787694376,27.023481882071792,-1.6011762058976728,23.12310602712455,3.04399021818449,23.363374184254155,-2.076681088415249
0.58,2.3454766077366003,7.160421910010427,23.007617698857757,-7.210550336600136,18.920790438608947,3.8073720641286855,18.574773746402002,-3.115293774820362
0.584,-1.1803069287266226,4.6844793429809215,18.273964066635017,-11.839054009164556,14.257166647006443,4.1586856136655115,13.507548794407626,-3.6091031684602655
0.588,-2.999015712884784,3.0104249790106223,14.130651493962205,-14.210298580523613,10.3141790491145,4.012446074348645,9.428495594428512,-3.3869964119524703
0.592,-2.5568853587753892,2.5541025247889593,11.415008378129869,-13.68863440322707,7.756995517190717,3.4725439119408748,6.815913448284391,-2.5472401294924083
0.596,-0.18839284291038894,3.093782345411114,10.086128560439647,-10.685548333788574,6.299729083097873,2.687642331745792,5.123534650206295,-1.5532067247643546
0.6,2.9312200293622936,3.7551342663673495,9.234890243064001,-6.594345273240606,4.724420337529864,1.7035439871226572,3.0572658408147504,-1.164306731145139
0.604,5.254190749667259,3.348243615072988,7.533642427198629,-3.246057606677141,1.4250204445756935,0.39696111219313934,-0.7385982432832066,-2.192095743503696
0.608,5.544047103460116,0.9402957859576873,3.9329697680509526,-2.1227024958175207,-4.732968615378013,-1.4423281845104157,-6.890397711423077,-5.149057038409147
0.612,3.4440322375075993,-3.6122674457075163,-1.7287619458795689,-3.7117260182205882,-13.65494545852016,-3.9195214723038134,-14.785487649067647,-9.939116983576152
0.616,-0.35754249617775713,-9.450576244885497,-8.50508547747495,-7.325273033067106,-23.760198777639516,-6.8432765839954754,-22.60862817356474,-15.75583246670822
0.62,-4.452417995537644,-14.974433344193585,-14.639502485687444,-11.466950316053726,-32.4312581209133,-9.664167170520159,-27.969122676358154,-21.264248323545033
0.624,-7.356744744647131,-18.466094545726946,-18.244647538816707,-14.542160491336517,-36.99282332598932,-11.608083138960183,-28.844513861419387,-25.02498810219234
0.628,-8.146470361277125,-18.780169179582003,-18.0473462338839,-15.53904724368499,-35.77993237687156,-11.964048242921535,-24.410140655004454,-25.98387142902527
0.632,-6.789787023355757,-15.781793072499681,-13.87606899444836,-14.360845865023293,-28.81905918622465,-10.399322869806724,-15.384015138639427,-23.82875227709954
0.636,-4.061385759482619,-10.345568980412395,-6.704293033090153,-11.708284324165334,-17.817921368587122,-7.158846710445232,-3.7559035431282837,-19.085049785067795
0.64,-1.125235228880456,-3.9586907372246287,1.7392721861394875,-8.637417173755466,-5.4961178195017055,-3.0331980675457544,7.943737939725338,-12.898318297758344
0.644,0.9840191625353327,1.8714654352487514,9.60294742560177,-6.059439852553396,5.438837113976206,0.910355682690124,17.50842175109466,-6.608264101346798
0.648,1.747522240501894,6.134223270565258,15.516331480801682,-4.41543687381909,13.214422171568685,3.7268128388909645,23.696706291587077,-1.2910306542267023
0.652,1.2702272013248148,8.538975132515702,18.928647150540883,-3.637893278781121,17.42265369542281,4.956671128214566,26.416334802624192,2.5380193750512277
0.656,0.11338035573680827,9.418198247963801,20.094109049561666,-3.337327320854456,18.842660381460746,4.783907079857272,26.466064813324238,4.952800676307891
0.66,-1.0378459211717654,9.395940458157725,19.75164123376453,-3.0686275447055777,18.7860692974009,3.902643310108715,24.995410325963917,6.408655523660695
0.664,-1.7063430201126266,9.012799203633108,18.6689501181354,-2.541411984403112,18.326172484855988,3.156029038066663,22.956664256714078,7.417442301157131
0.668,-1.8163488700242851,8.478354646769958,17.257456691985453,-1.7121048733342832,17.771129603787585,3.1157703792040365,20.780019800541766,8.261252063078974
0.672,-1.6845423570259754,7.642704279687678,15.423946252440146,-0.7640076935351772,16.604822332052436,3.8051165822795383,18.368653051443573,8.876437262160554
0.676,-1.8307451637183476,6.176020596474473,12.716722328873175,-0.01976307396557786,13.903508189000036,4.698410658217199,15.368461930681065,8.941884925269925
0.68,-2.6991945501360988,3.8327491105792433,8.684455220755126,0.1836174323943851,8.978628465107136,5.011101864205557,11.525911195806714,8.130267068271738
0.684,-4.418849216073568,0.6706677960058869,3.275200213294056,-0.36745930307620256,1.9257805537703234,4.135740621318405,6.9459244090762695,6.383828021196898
0.6880000000000001,-6.700284374471266,-2.863756122148402,-2.9283745695920516,-1.6353858207651228,-6.193192335016988,2.005008227009057,2.1501900984081317,4.0708177933039025
0.6920000000000001,-8.91525818433297,-6.024407835019588,-8.781327263266803,-3.260127920506193,-13.638011763496024,-0.8044369889043992,-2.0775493828000435,1.9262291032065022
0.6960000000000001,-10.346547070132829,-7.994404381838422,-12.962309191038003,-4.615860205199169,-18.621424427418333,-3.302571111492739,-4.97690838511636,0.7783727651100136
0.7000000000000001,-10.504777505123002,-8.183050615908087,-14.516212750828117,-5.022553463475106,-20.020644795947874,-4.547546664158972,-6.102622677191675,1.1941454313423776
0.704,-9.36516892043619,-6.464762985856055,-13.290256571210875,-4.04838648953023,-17.82092652367737,-4.112151665688998,-5.479879886327581,3.208347146883362
0.708,-7.408129287594875,-3.2622543001392614,-10.042552321481821,-1.7653503084986824,-13.083643687949461,-2.3125999148169285,-3.5614209889978383,6.263131847263708
0.712,-5.416498564226458,0.582792762762324,-6.124246449736688,1.212990647522929,-7.442943681252473,-0.06310297220431949,-0.9939412649552537,9.418019358311266
0.716,-4.11282668318222,4.130351352402499,-2.8646316751313634,3.9759341090314138,-2.360212831972831,1.5796652260512474,1.699440422147802,11.735530405909525
0.72,-3.81915206339454,6.699095711938526,-0.9703138501761259,5.739293865976606,1.4856820725765374,1.942501867647934,4.335526885528793,12.663945914079793
0.724,-4.32034518327805,8.104844447900291,-0.23915463189882757,6.22880137706602,4.384907922671232,1.0521757110362842,7.073762289885337,12.238365903914854
0.728,-5.013504590139291,8.664240833119152,0.2435221275660524,5.794912370286966,7.258878917053721,-0.4316098053074029,10.193893125309103,10.9974525108139
0.732,-5.267651638256325,8.966509276583338,1.5200376744585355,5.1781692294855475,10.979432235456557,-1.6258978825792383,13.761593326837897,9.66474669275695
0.736,-4.793031391122895,9.546054542532602,4.1167077674959955,5.04795248355947,15.732948711639324,-1.9462950758119177,17.39488294420846,8.762884945020446
0.74,-3.8255702503839757,10.593705324887537,7.682958262956049,5.572865439589691,20.7527715911001,-1.4443068347007966,20.266860760616908,8.36491897154939
0.744,-3.0104649125145215,11.866178784445879,11.127739001517284,6.293307102692097,24.599859357398827,-0.7689798198612152,21.395487942959022,8.10895738658511
0.748,-3.039691194790066,12.836539224212629,13.185491696675967,6.392524938507222,25.85768646650638,-0.7713866925754473,20.109264654450158,7.4572591936096195
0.752,-4.244201328422946,12.99358003417126,13.091954811906135,5.220117500125866,23.868434758501508,-1.9704671942686218,16.447419309838494,6.04397791655456
0.756,-6.366659362765404,12.136314188708525,10.997584770109256,2.7565199233627027,19.12553738864949,-4.197274953448755,11.279976592421434,3.9041081752936613
0.76,-8.666377466980066,10.475842504657749,7.864805756343117,-0.2852884577765735,13.07291411519293,-6.636557363890802,6.0182539791781835,1.462924786424768
0.764,-10.305846068692404,8.497630792509312,4.911757206666948,-2.805035100478335,7.415581880020113,-8.251324736561628,2.0176679966861286,-0.7065912834513277
0.768,-10.792713156268633,6.688550248029742,2.928697202281228,-3.9100831757465357,3.3103045330525447,-8.345277474738168,-0.029453773233854008,-2.207584509299185
0.772,-10.232184195144782,5.286969618485557,1.8531389243848935,-3.4136507838152284,0.8524745100156679,-6.944789509974385,-0.40369245609565496,-3.0358757568743258
0.776,-9.238802937097375,4.227217807662782,0.8589713899627895,-1.9329936539577375,-0.8534620981715761,-4.785344472310726,-0.18983460219436665,-3.5637798253951694
0.78,-8.563498868298666,3.285236061513615,-1.1009174547102702,-0.5269238295353489,-3.1009303552350502,-2.9177867566652367,-0.7110710841863579,-4.297035418504665
0.784,-8.653078866524538,2.329830694925022,-4.6063486175692105,-0.08062267132538636,-6.78130577894126,-2.156442445371681,-2.837677503972145,-5.554387323210177
0.788,-9.386527677099025,1.5109519974730006,-9.321508424650574,-0.7964144760308045,-11.804749376021618,-2.6807802729595096,-6.511719149101509,-7.246872062414287
0.792,-10.14346499988892,1.235658226191788,-14.053640948611815,-2.1005598190176897,-17.059641384564316,-4.009611282755486,-10.736655128098363,-8.883589563853427
0.796,-10.171995198909372,1.9241038630961498,-17.29471780129768,-3.0262964245672492,-20.917044538945333,-5.341767755538285,-14.030710919654155,-9.816298667771282
0.8,-9.039488695354976,3.6755640970042123,-17.947935282155072,-2.8381329624054388,-22.01698134273215,-6.0367899173114665,-15.130383178669291,-9.574468008063835
0.804,-6.920981319893144,6.0505718940917745,-15.857478506438383,-1.5320786333149954,-19.927615798010038,-5.957307919024856,-13.59368611548544,-8.124207166733973
0.808,-4.56235294774865,8.133320508883173,-11.872845762389602,0.09013169361048767,-15.343507538651124,-5.49174319875857,-10.011509949281503,-5.914824021025709
0.812,-2.9204588289233016,8.90328275493232,-7.421668546505202,0.8378622386035204,-9.73850785930631,-5.2622800429113,-5.725700029864527,-3.682854321285877
0.8160000000000001,-2.674708060650687,7.765410792924968,-3.8297457206839454,-0.19589535967247684,-4.667916525377109,-5.715919764408966,-2.189296392915992,-2.13182660598385
0.8200000000000001,-3.8716332550535526,4.947187665413651,-1.7459747101440826,-3.0881769193127866,-1.1049350298858371,-6.852686954636283,-0.30922086260957826,-1.630269796242569
0.8240000000000001,-5.882471801373526,1.5320155529029762,-0.944163310644285,-6.971691909843344,0.8831165458537953,-8.242332507726019,-0.0781068691760538,-2.0629937926882675
0.8280000000000001,-7.6975939702347205,-0.9448797775057756,-0.5746472862958854,-10.426440909180883,1.9852593713292208,-9.299805844902949,-0.6598461145809438,-2.8929695515039846
0.8320000000000001,-8.404449710572862,-1.1857894700549991,0.2978865669080051,-12.166890473679246,3.1375933533994385,-9.636777824247815,-0.8794786873046121,-3.392807544542883
0.836,-7.605567841228549,1.2323116071568734,2.167389421489247,-11.653646647903201,4.958618827393082,-9.277272179319993,0.1536867060946463,-2.9459145395905697
0.84,-5.588179273006517,5.561994782272222,4.810557783516629,-9.32596259352431,7.388760922318625,-8.614308626450509,2.565296137502088,-1.2941251879159665
0.844,-3.1754044642179906,10.11706388833744,7.3825888423938295,-6.346649215544744,9.706176623147826,-8.153935979310859,5.6109314255204765,1.367281080504391
0.848,-1.3399257504739808,12.959898494140646,8.80861163450902,-4.010954732535765,10.879931104504976,-8.212912766046202,7.9842644991077805,4.467458142743206
0.852,-0.7690465362791201,12.733364839798071,8.267855248113506,-3.1307981118256976,10.056682558954265,-8.742554659689176,8.384650562087444,7.272603072841159
0.856,-1.5705249523415432,9.268318183049814,5.561583717703684,-3.6905088466365896,6.968518601158337,-9.370939268588643,6.102068799504849,9.148534197089223
0.86,-3.242475735180733,3.6641565384660453,1.2098288999195574,-4.924437904105048,2.0764392026988503,-9.62111094860461,1.3369342458499034,9.778336950699497
0.864,-4.910838162457935,-2.193277120481298,-3.743955360233599,-5.752857341745084,-3.5826083023824253,-9.16991089675571,-4.8656177078967175,9.245517072830554
0.868,-5.718743192123611,-6.444165112777455,-8.113985904897845,-5.333975241546227,-8.746019221429663,-8.005327874483953,-11.016712712645074,7.957974047393664
0.872,-5.192193754763821,-8.015176263472256,-10.981386028661632,-3.455330896782584,-12.325677049393107,-6.411661887672608,-15.741674668082254,6.445264188216328
0.876,-3.429622826894729,-6.966604329720326,-11.966973837345563,-0.5935491657739931,-13.692118186413609,-4.8161033565643265,-18.224723586755232,5.1129637673943975
0.88,-1.0410386414682762,-4.3105917608375535,-11.278603554837105,2.358737700519441,-12.775282819720985,-3.5935012491020757,-18.380756023082455,4.0778580301964045
0.884,1.132236555326017,-1.4144498124941833,-9.526368309320446,4.537459178833728,-9.970403895765457,-2.9249560953284686,-16.7133618371021,3.170058836881278
0.888,2.3844975626861356,0.6741264809428458,-7.40870168810136,5.489601736941495,-5.926144285226087,-2.7652981494784967,-13.978334666097936,2.090051295800391
0.892,2.441303546641393,1.6308747501894345,-5.406535398683161,5.317356154814206,-1.314718647202028,-2.9089406283625863,-10.829837849679478,0.6496063001327954
0.896,1.5674664034709167,1.8416892492232364,-3.5988746554889985,4.548533599074858,3.3648569805023385,-3.1081800694998947,-7.597815370204273,-1.0342699159608877
0.9,0.4334770752379882,2.0211967483710396,-1.6866409833027092,3.8196050661879326,7.868572516112977,-3.1826034017045117,-4.294643179359781,-2.5100226053245667
0.904,-0.20557170856773155,2.7169878021589966,0.7907450415677886,3.544894398846168,12.165809380094572,-3.089519651932278,-0.7954077778906026,-3.1570901374477076
0.908,0.13580338765314082,3.9940587000809273,4.152779431020008,3.7390176892769205,16.301089474070068,-2.948542079608103,2.9379450236116327,-2.479752179521034
0.912,1.4507591278518248,5.448412086873418,8.334525735372608,4.070160939658308,20.22326015369549,-3.0086876638962394,6.713164880235411,-0.3826636947632025
0.916,3.2606879505495954,6.523025768432603,12.83057086009444,4.104211635955949,23.68472885324536,-3.5560811953588427,10.134999174663221,2.7247587895574643
0.92,4.863722306576847,6.890377743957629,16.853510560942368,3.5877333584222697,26.251202591318133,-4.785190687204022,12.7516004831067,6.0554222524559265
0.924,5.683321297131556,6.666564555133846,19.64185298382222,2.6157079526128655,27.441414500395695,-6.6713256496387885,14.24006849516934,8.757175196227799
0.928,5.548190008582196,6.340095849770137,20.779539196526798,1.599327476466442,26.95066154837832,-8.900744398332108,14.530263773737033,10.268122449342567
0.932,4.7587885676312,6.465120189617096,20.36361712989401,1.0517700193368,24.836424884243797,-10.90200376876669,13.802465816924041,10.541807738976448
0.936,3.911351103090965,7.326108259160833,18.94481689867439,1.322874176044479,21.583243953207102,-11.997080380613966,12.394543071293128,10.031228127997597
0.9400000000000001,3.5671225778510234,8.753785781817442,17.25233134961286,2.415197554428687,17.960433007289794,-11.641121227115718,10.655728855010523,9.442195586284333
0.9440000000000001,3.938704099646202,10.195062128541963,15.828746828373596,3.9687821895333855,14.706000848689655,-9.654139238988364,8.825429867248033,9.375467011632082
0.9480000000000001,4.7608344961354305,10.980480098668636,14.753457636615849,5.41772105736095,12.17293044538178,-6.332701680170885,6.985284583363125,10.03434245868983
0.9520000000000001,5.41352832312532,10.618249478434791,13.594278415002918,6.228713231786969,10.111725217004391,-2.381820519408393,5.0794156046137005,11.143287043114718
0.9560000000000001,5.244807962254754,8.984413478698798,11.639435793281564,6.112833431663148,7.757879579880637,1.3214911751420004,3.00915531447248,12.114662767698665
0.96,3.923185749424192,6.3307241622786705,8.303188056127965,5.116621517772046,4.21004635851682,4.040222477287216,0.7345757728774629,12.36646981224191
0.964,1.6366451262947521,3.158076751893759,3.520741850364402,3.5700244244308124,-1.0384061060383374,5.42570011502653,-1.6506264154058954,11.623924076536632
0.968,-0.9606568705617065,0.052925891107634015,-2.0596244381763427,1.9480630412854225,-7.663999069526653,5.598878249514655,-3.897310432683639,10.058040200214382
0.972,-3.0272755322303055,-2.4392222621501105,-7.2097937108196675,0.7118192587968224,-14.431181238761383,5.042134156165503,-5.661210193506065,8.185486860206417
0.976,-3.890670294046231,-3.861501894787125,-10.529913138348093,0.19327141120720626,-19.5355426786291,4.3630446054951335,-6.602141847524592,6.584324738078671
0.98,-3.3132469179379314,-3.884108468476029,-10.975811634121328,0.536173943785343,-21.281457108185123,4.037299843885194,-6.508947809465951,5.58383278447738
0.984,-1.5546679240449066,-2.3760481373453786,-8.277342028316752,1.679814272463318,-18.791592473101446,4.2313543905329425,-5.4066061454078636,5.09062716945348
0.988,0.7794546878394613,0.5017824468036451,-3.0582200060966898,3.373384915045335,-12.416735027655932,4.7748599144129,-3.585160684552193,4.653916787946365
0.992,3.015669782806526,4.251284074008709,3.410301630554386,5.226288553655195,-3.63895387311959,5.2821110474633315,-1.5232355168861886,3.748003163509729
0.996,4.68224378290779,8.136476920810537,9.717061077117933,6.8063592300750315,5.522646554331459,5.352123838227726,0.2988384691564079,2.128629744557326
1.0,5.643961853645578,11.413149341918142,14.834262890250102,7.768712661931659,13.307401670678018,4.760331063727335,1.6008243527660397,0.06766348226956609
1.004,6.056706813787059,13.602801208169012,18.40905891242187,7.96203593465998,18.82223497533232,3.563550116073202,2.409876477876196,-1.6938666048638957
1.008,6.200288474461104,14.679006136725548,20.709360585368813,7.461300781364116,22.187818438338127,2.0850402245159785,3.0199757468478765,-2.2622961153308196
1.012,6.290262203171551,15.037289214249085,22.27179453887038,6.49284190164235,24.17219366659765,0.7897121881196654,3.7985809590143162,-1.036623751078647
1.016,6.356701734880517,15.255981905232602,23.458826789940304,5.271876320351112,25.549975130622897,0.09336505592909816,4.942228576029038,1.925158077740047
1.02,6.247196723220441,15.76728943052035,24.182619647850515,3.8531781843148565,26.55397763213614,0.19337312199104417,6.316648957398229,5.836403478631638
1.024,5.741675784597646,16.62682329016343,23.955017979425975,2.104369544160363,26.743748974936352,0.9879125849383854,7.485974469389703,9.476656425497453
1.028,4.703680193841137,17.50499078167377,22.226935548409074,-0.1620919190954737,25.338340357337984,2.1149211426200054,7.929267246723725,11.726872538198165
1.032,3.192131273013729,17.891927433441424,18.80264442687485,-2.9580052650521793,21.77841366844723,3.09979267057588,7.327542267081299,12.091257810071049
1.036,1.4820412101516922,17.39885637021439,14.076762989816416,-5.931810466733168,16.182761718217307,3.5552916623530564,5.77853675563415,10.93697616050163
1.04,-0.022677964872855227,15.953457302380684,8.920479776838874,-8.379812549987946,9.388061137632349,3.349980669705019,3.779028068335492,9.316319843929826
1.044,-0.949850591878203,13.781563985294952,4.267522098717109,-9.505248735074929,2.55271896031536,2.663225619849527,1.9802640154757682,8.450161467939822
1.048,-1.126525552286239,11.199995432791866,0.6289191481387206,-8.82513653054184,-3.428713092092039,1.891777351580913,0.8342392079488263,9.112740831291
1.052,-0.6733363219036619,8.36915757136262,-2.168196946030548,-6.4987119178072135,-8.337883043648162,1.4590079252725445,0.3291846293989238,11.23206114503457
1.056,0.03880415694129624,5.217889946263995,-4.821669357343126,-3.3568276293535746,-12.576161325582689,1.6172060941335076,0.005906122841452088,13.909738770976212
1.06,0.5540136442950825,1.5873854226881576,-8.051006352027343,-0.5718680210461571,-16.681679058135614,2.3295531554895206,-0.7598209927591597,15.857181704104725
1.064,0.5449601406430702,-2.4962381675568395,-12.030096327393494,0.8826051975515838,-20.729894781216444,3.2864037616864152,-2.3558482311012767,16.01472285756431
1.068,-0.0177701534089465,-6.60164374251417,-16.088775141200585,0.70560750608729,-24.010370701078045,4.046408395606704,-4.638519646382747,14.040229115376555
1.072,-0.8259227534499587,-9.907686916855937,-18.88955284927033,-0.5826984263958366,-25.23550933983961,4.238276946606675,-6.934278186600295,10.439012469522723
1.076,-1.341295823546261,-11.464624950234338,-19.0046800075188,-1.900543598740569,-23.172748637947734,3.7352087667309206,-8.32586880925328,6.292637516162159
1.08,-1.0269921091689866,-10.609875942411236,-15.621179823565853,-2.1492990796773483,-17.3772253312286,2.7168278714721055,-8.10141195117501,2.744810346794317
1.084,0.4000294481970741,-7.3085648966634835,-8.993890247174932,-0.7533952041153498,-8.575457329057826,1.5976379357116457,-6.114276739617139,0.52630538615999
1.088,2.8166964351307797,-2.220382035455259,-0.39769063950461714,2.0920235981475344,1.5467568089907218,0.8635411827467578,-2.8550144893349625,-0.25730676086670456
1.092,5.708350564509601,3.528851644523911,8.374242096969738,5.565807654060336,11.023000154741567,0.881600699439332,0.7814003661021616,-0.010000143782370685
1.096,8.347571581619377,8.760936884236344,15.698987024697544,8.642115002962782,18.392649944071763,1.7583265478929206,3.9026788564717663,0.6722790005190831
1.1,10.06525049512311,12.631432286008021,20.659472566047498,10.543964908981252,23.16003339598865,3.298850908872282,5.9744746528112955,1.3229669726473716
1.104,10.501775375438228,14.825616882171744,23.19449002456895,10.997323297226103,25.71458258243956,5.072506881451773,6.952129960961656,1.7611451682005423
1.108,9.733078556819237,15.511442066662312,23.858075757995266,10.200015151041043,26.832510878217363,6.5593864704774205,7.151547979971838,2.0410602495999797
1.112,8.224215155481943,15.11748840074597,23.385878295654948,8.59327791754913,27.102925126608625,7.327149824196113,6.9643977449443355,2.287816526415071
1.116,6.64099170028021,14.098084305988323,22.338373860589854,6.619220903916357,26.648267426824532,7.17722565791064,6.615824626234144,2.55451902827825
1.12,5.593121474622421,12.775687031708912,20.9668138819452,4.600158734215256,25.24281739138587,6.2095166847702785,6.079503678727633,2.793175174292358
1.124,5.403307086075074,11.289547280658098,19.285631395146993,2.752588727404145,22.67195196122975,4.776343798094786,5.174579270412323,2.9294156270946345
1.1280000000000001,5.983715867522733,9.615634350272103,17.21435736607509,1.2462780847408794,19.026781294313423,3.3446638689752035,3.7347957063273043,2.954043811507894
1.1320000000000001,6.866030038054305,7.600733295256305,14.648200616615213,0.20565044841896452,14.696149735410927,2.3264607500145758,1.7266927040939208,2.9551021885574187
1.1360000000000001,7.3894746834721445,5.027451120636215,11.444514498849458,-0.361652736493852,10.100226295876382,1.9479389393063684,-0.7243802773623429,3.060773439703496
1.1400000000000001,6.979042224726072,1.7082712288256516,7.40297685790938,-0.6344920353667476,5.38581624056178,2.211765206066957,-3.3964985421814617,3.3523077983610676
1.1440000000000001,5.396397410094323,-2.38807507645879,2.3344511642180805,-0.9522705711760864,0.3528856638895377,2.9550185970933853,-6.047720289351446,3.8254317656903396
1.1480000000000001,2.8606785275205766,-7.017998670198722,-3.7537370971476776,-1.6541628205150118,-5.280030869198981,3.95607358050529,-8.447165195712842,4.434852192202925
1.1520000000000001,-0.024054633492596622,-11.648365003253275,-10.46117578569556,-2.855216375030068,-11.448657806038682,5.031020223614178,-10.367814528634426,5.181684672242341
1.156,-2.520669141324106,-15.578746564275662,-16.945234798095044,-4.314371189230769,-17.46575618260249,6.067947238031593,-11.567687106056155,6.145873219594449
1.16,-4.081932797162153,-18.19103872108917,-22.13046051693982,-5.515982223479114,-22.16266531562451,6.994485206101672,-11.826215734781044,7.413475175682578
1.164,-4.587773045356698,-19.20539180323476,-25.113808842574144,-5.946073871549743,-24.421760262919634,7.726164721933856,-11.034938775325827,8.928996640120573
1.168,-4.371740989958198,-18.792653325120227,-25.5527015004227,-5.406503880097262,-23.79122668473974,8.154660411340956,-9.286166824384054,10.38198513816512
1.172,-4.0116521662685045,-17.464116602334343,-23.806212289395262,-4.159147925431171,-20.797431980427064,8.203037905426754,-6.881037753758164,11.246687183928259
1.176,-3.975815898103974,-15.759046863436197,-20.709155013010786,-2.776155280515013,-16.689189494327366,7.924616074828009,-4.206836544162115,10.997002320535728
1.18,-4.3136384317140255,-13.91941659231179,-17.093666225876404,-1.7684576445981293,-12.745509242056869,7.570816549985466,-1.5506185241788444,9.40685325581228
1.184,-4.582500489341328,-11.764133039553599,-13.343767533927348,-1.231410682963542,-9.564564563183922,7.543802822390717,1.0280242969354276,6.746660486944421
1.188,-4.086122820366654,-8.871666119007386,-9.276291578495147,-0.7580066663613252,-6.791461381651061,8.215366835143868,3.6590486481609332,3.7194868531222056
1.192,-2.309952051109576,-4.988917435466647,-4.433479178620473,0.29456478383053764,-3.485349167939603,9.692062956247355,6.455858814216299,1.1423642165616315
1.196,0.6885262511223118,-0.3968580076375474,1.38780836172009,2.329999902569398,1.0984963515129493,11.669719578147124,9.28525593495192,-0.4650350468081399
1.2,4.16944011047417,4.014762757048629,7.706671216925315,5.128119841834632,6.795863022413869,13.49140659197019,11.678108941501023,-1.1358720003395462
1.204,6.978734420392357,7.071541745508512,13.34052762797728,7.816185347620376,12.373089870428885,14.412800725084708,12.99232982601302,-1.3917186544991722
1.208,8.069453996240554,7.883343894389327,16.846145125919065,9.247054452537668,16.050884845043583,13.948488593978254,12.754358398618706,-1.88606343255708
1.212,7.012403726700541,6.335616526603189,17.198227553893958,8.588826273205996,16.415644585506016,12.129358100904938,10.971594784407898,-2.9651954875645288
1.216,4.223098683399257,3.220938971364376,14.333796469952176,5.793070991359855,13.205794985400644,9.525751049031896,8.230248983892125,-4.425572827950916
1.22,0.7680105272183937,-0.11519546666113456,9.232764982551998,1.6588773199946445,7.4847281231304805,7.007615027033353,5.461899272158462,-5.621027281246498
1.224,-2.1563663081624327,-2.435265408846135,3.4736866318471584,-2.5568038060009712,1.0989304046379402,5.353409313824159,3.4740933384900927,-5.86073551747414
1.228,-3.7903906848941915,-3.2106625684782557,-1.4885094665596625,-5.75410938958521,-4.240965451679585,4.919962604825741,2.5198949195878413,-4.853134230428054
1.232,-4.115683001780781,-2.825913668474641,-4.9263900876158,-7.470034460502575,-7.723747078181987,5.544020835337506,2.1665643710516633,-2.9063830610960366
1.236,-3.743208557575599,-2.255562838306105,-7.008290856232634,-7.96235939692815,-9.605589276652609,6.699865686329758,1.574808648886119,-0.7633231738645918
1.24,-3.4722043864167063,-2.425214745345329,-8.492536483148797,-7.879534602059721,-10.762735252406856,7.805872835511764,0.030038874658202985,0.825485091873432
1.244,-3.7822336643566814,-3.6307494445663906,-10.158707605668496,-7.742853847397782,-11.954771992715905,8.498973112898966,-2.5860407869531628,1.5175645309013248
1.248,-4.550877798694273,-5.356409354226344,-12.3205227338658,-7.578294232131157,-13.280960316224991,8.736947195128778,-5.665221177433068,1.520101966328511
1.252,-5.152555461321754,-6.606058349288105,-14.692236491294352,-6.9189182290738245,-14.170570438141112,8.702931367937708,-8.18544192621448,1.3843733921297456
1.256,-4.846964678890799,-6.509000330700474,-16.615201193222674,-5.145946572014509,-13.834010102952561,8.61524837901743,-9.254530675896149,1.6034156879673276
1.26,-3.2272366648212483,-4.843452544365391,-17.4708124848421,-1.9508623003548564,-11.85795401219275,8.578120955362465,-8.576276133343526,2.2831287432132683
1.264,-0.46991948179311294,-2.1597963794620227,-17.00451527291989,2.3742903100101103,-8.533646912713266,8.56214357324643,-6.56554192006206,3.1052040185978456
1.268,2.743527418544545,0.55726252569184,-15.39215583202531,6.988858709522901,-4.710240399180293,8.49614351391665,-4.062852806611772,3.5857374420161676
1.272,5.552989136656834,2.441594331316992,-13.082023583472619,10.843818459212343,-1.3137906861138617,8.36678684670187,-1.8631155215953186,3.42953370239033
1.276,7.291266503161751,3.1788777065066824,-10.560745167387722,13.10049673193862,1.145944384813447,8.227349915995546,-0.359175600976414,2.7107907086596015
1.28,7.6978399860199715,3.0516132197763,-8.218680066014713,13.393538010896009,2.7385345085431254,8.103420850780822,0.47342148426650965,1.7419773453889036
1.284,6.88462488598816,2.5928010068710137,-6.3725151425132935,11.826047820773965,3.8638617977867398,7.872105573066619,0.7872135706024892,0.7176967524982558
1.288,5.1246927731426695,2.094743313939034,-5.3645607662292605,8.75238194648955,4.7913010049242075,7.227320715081987,0.5066630093874664,-0.598790102148314
1.292,2.6388276331672387,1.310963820870711,-5.588093799062335,4.534254897978826,5.323759941483331,5.808469805699133,-0.7977524539569458,-2.863318222616158
1.296,-0.46453369566006586,-0.4094140118031646,-7.334307809704114,-0.5570239966054942,4.857967468053175,3.45400886821335,-3.635108967899214,-6.750268488846984
1.3,-4.073470581020956,-3.6357159445651632,-10.535249026972451,-6.252895119014283,2.8065707348105207,0.4279275248518388,-8.078780386452308,-12.362541286098846
1.304,-7.879601110707881,-8.312641004020406,-14.571601329784244,-12.111465412388497,-0.8822330621833316,-2.5391559022646106,-13.352161639810674,-18.815316614720857
1.308,-11.275913692115864,-13.516620528244857,-18.331344093739972,-17.4232502716859,-5.4633514967526935,-4.45902169256442,-17.85316138470671,-24.313367373535897
1.312,-13.465914366655852,-17.72415243397336,-20.577710979701806,-21.319106391798414,-9.610130249883696,-4.47658596267047,-19.736847997376117,-26.77496575162752
1.316,-13.760300789133908,-19.474593105459462,-20.478480680056236,-23.05893672055936,-12.01037783501215,-2.261175320439179,-17.801440228969113,-24.749639346793828
1.32,-11.917014735998237,-18.094763506360323,-18.041433161197347,-22.35988621862998,-12.030801612198957,1.801537208884838,-12.22052986559629,-18.177947966956708
1.324,-8.333662053239095,-14.0873177761423,-14.19763423211407,-19.574184152335874,-10.072334335171945,6.715908155601937,-4.6805701274561216,-8.585407263259242
1.328,-3.9718350004332024,-8.955540628056042,-10.45464672466187,-15.607774907139174,-7.410876896274203,11.229232745223271,2.2204633118421953,1.4136475822480747
1.332,-0.018748624803265557,-4.550803712279958,-8.264947631068935,-11.593754828909368,-5.604691090311462,14.276049528777548,6.0588533916197775,9.093708478836902
1.336,2.578168723941417,-2.2473525945351867,-8.395451579561268,-8.459434606142167,-5.745454864929343,15.322548132722659,5.657270539281399,12.63853150087644
1.34,3.4879265170311555,-2.3623787294563954,-10.597650529096427,-6.587891244198545,-7.928291741920475,14.479923900866197,1.60800926957927,11.75238241306073
1.344,3.106671058360007,-4.097094871188347,-13.728947309649811,-5.728431775192803,-11.188829569005975,12.374007946224083,-4.022782482490129,7.6195127558037825
1.348,2.354292361824264,-5.99098311664693,-16.24792070904732,-5.180377856882842,-13.90244374955364,9.860300631466089,-8.64913823114739,2.2902685967126217
1.352,2.2424912258247787,-6.6594026781385764,-16.852987173149813,-4.163483551423269,-14.46889008063772,7.71011707164871,-10.315462238429063,-2.192936035458274
1.356,3.4185214297940547,-5.420571273788482,-14.965269951100709,-2.1959098008046567,-11.952766571610482,6.386997373347185,-8.467387570415667,-4.541711005141451
1.36,5.879696017933384,-2.5430888973132824,-10.87073821714148,0.6847168968306505,-6.436724211447654,5.969030516087514,-4.027815796597679,-4.560382643503402
1.364,8.9811550859813,0.967990851227114,-5.503948338147893,3.943101168162684,1.0259686641711596,6.211640801433532,1.19821167314376,-3.0043086225215916
1.368,11.735593557117681,3.9130548986258873,-0.0028803847162635066,6.800347792961475,8.822547388463136,6.7121590264869155,5.449712895799621,-1.086604514555063
1.372,13.258748687603656,5.4604385208886015,4.730602624820676,8.584336168161826,15.345799729897408,7.109012721999534,7.773837865263431,0.10582165049322612
1.3760000000000001,13.152694104288457,5.474178213857158,8.27496469808466,9.005038275938205,19.506543090927153,7.243803462235519,8.288922648126118,0.030331751591063494
1.3800000000000001,11.648768472718075,4.461576612897261,10.661795682999582,8.22950433549886,20.999713910325227,7.222362872136728,7.8875004274955245,-1.1973597980207842
1.3840000000000001,9.452863053165856,3.20696875280737,12.13986436214691,6.7260815217687195,20.250089341072453,7.339289407385877,7.597894239072048,-2.99683871469216
1.3880000000000001,7.377648466854225,2.3145673840481322,12.891530967292056,4.969361830688285,18.106321154453326,7.894173894848791,7.98779185107378,-4.689526529840634
1.3920000000000001,5.942388661458608,1.884207052070451,12.860161631346273,3.1637079400788934,15.412998547590178,8.979360482722768,8.893762688645893,-5.857538693900011
1.3960000000000001,5.151079345418111,1.495415898383726,11.78981488181671,1.157474301800903,12.685017444520781,10.35374654356383,9.590068093149512,-6.5404609763050985
1.4000000000000001,4.560511290299473,0.48953790281302645,9.444827018225624,-1.3939949067334965,10.01960343907922,11.492533370221281,9.259819319328926,-7.176947845994505
1.4040000000000001,3.5948426922841463,-1.6095173331650585,5.876227120666954,-4.7049470851816295,7.258835606315188,11.814617960651958,7.475018422434005,-8.336745135054429
1.408,1.928139095318329,-4.759310159073721,1.5739928874663747,-8.566086066937714,4.29001086538301,10.975042277921602,4.4406557057100144,-10.384320468077732
1.412,-0.27499209182497,-8.344681981274334,-2.601477258500381,-12.269556781284336,1.2844480484473024,9.064594088813465,0.8872302054382999,-13.236786287377242
1.416,-2.395924387201376,-11.418967542052997,-5.702180003600006,-14.830255082752046,-1.2658573914122826,6.5957305824795185,-2.2847719634851273,-16.351051110236
1.42,-3.661342180286738,-13.123461572442466,-7.06258470820103,-15.418582164289546,-2.7619842259991856,4.26228315640401,-4.4121907307662696,-18.9541455318614
1.424,-3.5356520244531566,-13.064098152482984,-6.566164773181299,-13.77409117147181,-2.8357197709101456,2.6011402187032218,-5.31676178016005,-20.39964678120569
1.428,-1.992291400245449,-11.449364202311699,-4.672952358907423,-10.365069939252862,-1.5943463594139757,1.7400755732742255,-5.289661629798502,-20.473865097424436
1.432,0.4835946116181731,-8.933584088914358,-2.190703807023965,-6.18686819577124,0.3812373634555115,1.382846616439565,-4.869515917789613,-19.487861569876742
1.436,3.1582429324298573,-6.243906567227896,0.09805586926449905,-2.294379864124494,2.321292156528216,1.0402909928561712,-4.541883629121912,-18.11980592825543
1.44,5.418459119493491,-3.8203682200819458,1.755564248878727,0.6785342209295777,3.66534637462064,0.3594027999552054,-4.52574575716244,-17.09049973310772
1.444,7.03408726500129,-1.6695114588710567,2.796138010275172,2.74674302002677,4.344555408024462,-0.6560883919937623,-4.736928199808062,-16.833774518907177
1.448,8.16835423797238,0.5012463936636777,3.5373280615731346,4.417439932061825,4.7750613542284555,-1.678396066681671,-4.903334190975329,-17.333760855498667
1.452,9.138956982780655,2.9440981404513877,4.290224617598142,6.237647186790127,5.531548339902656,-2.322733187058475,-4.755911613978242,-18.195177778952882
1.456,10.089463176980644,5.556097928300005,5.078177678338761,8.31279426423498,6.895777916102816,-2.4695929163372057,-4.179052041892646,-18.895943300771677
1.46,10.793374464657973,7.792897324054138,5.556700541950704,10.099240306601132,8.554079683937744,-2.414762496950061,-3.2600672642483914,-19.073898538716094
1.464,10.716679665965785,8.880101324983116,5.186228137772559,10.612243981391657,9.647982441532804,-2.728344459201253,-2.237101539003561,-18.689405654894387
1.468,9.303649574918381,8.212892132998604,3.5533020852053596,8.945119359355886,9.17927872517248,-3.8999315877044864,-1.398525500141659,-18.00340797820448
1.472,6.312951255677035,5.694440182045582,0.6387075457059836,4.809676458753529,6.539509530275609,-5.987550776655553,-1.0172779473077753,-17.40465238045141
1.476,2.018216923548607,1.8400761122320546,-3.105861153337173,-1.1966107569969608,1.9024624697976833,-8.500547144656593,-1.3043814356333314,-17.19612282887806
1.48,-2.8439204461210466,-2.425501367813922,-6.922083264609682,-7.753635705841589,-3.753127700641926,-10.610593343952132,-2.3705508399661994,-17.4583728319557
1.484,-7.351196800038451,-6.158598153728235,-10.057886824983143,-13.334581973202148,-9.014672173898362,-11.577614000187168,-4.1875279431906165,-18.049413398290625
1.488,-10.746024874948489,-8.74727096704737,-12.05557530304577,-16.806855355607695,-12.608645971518854,-11.146311018408596,-6.538136864596709,-18.71993625444634
1.492,-12.679983922036627,-10.0586618845864,-12.882429187706293,-17.82389794896153,-13.902450016919829,-9.683161826522337,-9.01820667515858,-19.266794133978408
1.496,-13.239373887234251,-10.311718303519228,-12.841264310882252,-16.830426363980223,-13.0775822893429,-7.970039394997002,-11.098978630905549,-19.642474743713024
1.5,-12.774908936640713,-9.796051967039602,-12.337648396889563,-14.725789142990834,-10.931576305800263,-6.778144405225248,-12.266421456895841,-19.967560984579052
1.504,-11.674289470851363,-8.645526391415842,-11.657573146578216,-12.400776324957405,-8.442265301478983,-6.496346469752098,-12.210492761929345,-20.44762328322946
1.508,-10.211673710364266,-6.804764758040619,-10.85967045731013,-10.386628700896836,-6.316257176298677,-7.026199484269455,-10.960756343057255,-21.236910569446252
1.512,-8.534842884302634,-4.203356030255236,-9.825118475484487,-8.76502201630501,-4.745073757949285,-7.963781155687684,-8.896068470062346,-22.312411848153147
1.516,-6.750895564680832,-0.9810756102106097,-8.408528908094013,-7.320511676778551,-3.4403854440570285,-8.929980767594316,-6.601531825829625,-23.42080730767671
1.52,-5.008752536075917,2.4094742043271253,-6.587368162039638,-5.787849261043448,-1.8971731850215292,-9.814485886572584,-4.633166079741386,-24.127317778597103
1.524,-3.4930215963322553,5.31669354429323,-4.5272420735200285,-4.033521037144965,0.2768422054032271,-10.773611667636942,-3.310798242155215,-23.952746486476826
1.528,-2.3397481304236862,7.171239658722698,-2.543553531242651,-2.0995933711674297,3.1269398390650167,-12.007887439434853,-2.635902261159572,-22.559594184308764
1.532,-1.5604155143992102,7.739935544181208,-1.0084196126117604,-0.15012421042774804,6.278199028454765,-13.503269185368481,-2.4065554288254134,-19.926439262000656
1.536,-1.0446439311745053,7.2107551803019305,-0.2432081035367446,1.6079951952633564,9.056481393587092,-14.92950644240409,-2.4228209650300414,-16.428625931257614
1.54,-0.6698644025636895,6.040393310639047,-0.44376309519429924,2.952670415459579,10.722716486727222,-15.78248969483684,-2.6548031899201305,-12.771108776483288
1.544,-0.4490334427682683,4.6597222862492345,-1.6387950095850101,3.6311004188319203,10.731001765525434,-15.680767113570255,-3.2593448293710026,-9.76816124220528
1.548,-0.5972325048023777,3.2327791290972527,-3.668812410076498,3.3664842096768552,8.93065957771978,-14.611985651825307,-4.416981406050581,-8.045509727218018
1.552,-1.4429393480459112,1.605800752320647,-6.199560936034686,1.9421852012928866,5.620678808511002,-12.948466953834213,-6.106818905611362,-7.7892942242708045
1.556,-3.1941531938500702,-0.4998385761227837,-8.767910972193931,-0.6376670730933256,1.459780168515863,-11.20530386037899,-7.96177287523733,-8.669196589617172
1.56,-5.687046141280007,-3.181746890759314,-10.877146979964891,-3.997787088253972,-2.7465498542860587,-9.69610379983169,-9.334199847483433,-9.98400318219035
1.564,-8.289000192300591,-6.148181767259302,-12.133722605969524,-7.375762283150834,-6.307661943250423,-8.33628576387855,-9.591780852598276,-10.981278950445358
1.568,-10.062070813262835,-8.746804663989678,-12.381973044834012,-9.814558783593384,-8.853340278141332,-6.734502139886899,-8.48846833749667,-11.21112186155898
1.572,-10.144082783564954,-10.240975253978831,-11.763479586457834,-10.5117104441415,-10.406101874497836,-4.525651958372691,-6.404445454678353,-10.729218656940759
1.576,-8.160699730808119,-10.164481473086198,-10.648530899256002,-9.158865342364152,-11.261031896243367,-1.7336193644041487,-4.273758217945215,-10.040892774710926
1.58,-4.447150567368226,-8.547810573585593,-9.449089204601478,-6.0922518633524305,-11.729536566414026,1.0970500116673065,-3.1896895163436056,-9.803006557079527
1.584,0.04568716775247594,-5.898680311453063,-8.404419029302517,-2.171903980328352,-11.893401800785796,3.1050390994132613,-3.8818186683693057,-10.449924015969259
1.588,4.12864861235721,-2.9395105721923755,-7.454415294567298,1.5664220067774295,-11.505447272917081,3.5562578225508332,-6.32711757877496,-11.945079889696103
1.592,6.833025959629595,-0.2805732408523909,-6.300737667326757,4.29795878756704,-10.1307867958094,2.259849836374997,-9.73819476650533,-13.794814962818265
1.596,7.744091670439957,1.8107877666884633,-4.61191680578122,5.664606242527043,-7.439907824678812,-0.2908655841847576,-12.930730883578235,-15.317578946992867
1.6,7.066996730301071,3.435208242301087,-2.260698355000386,5.803493513021749,-3.5003712140369316,-3.1382334952922974,-14.887623404327542,-16.00007773358014
1.604,5.418503242250154,4.8860140578635765,0.5335691520231194,5.157043941773736,1.106966865274444,-5.325822772278116,-15.220521596593244,-15.734825923697713
1.608,3.4948963243914477,6.408851275995403,3.255152681045729,4.2034731247404125,5.4526829996211745,-6.333923293102998,-14.278761732940438,-14.799976291031442
1.612,1.7957172841088322,8.023639714474484,5.307638665835839,3.25783005465928,8.616582054619357,-6.256230825565581,-12.876099577307286,-13.603530803636716
1.616,0.5205210834756144,9.504944193566189,6.279804497051373,2.4258744875041884,10.069862760858086,-5.6339326293964405,-11.786228925202522,-12.364477220385027
1.62,-0.36804889175255084,10.488703240347604,6.09918060144264,1.677619459671405,9.853370764722058,-5.0775898260853864,-11.322743280123177,-10.955375433976656
1.624,-1.0087610232658335,10.625139731029776,4.987089652899158,0.9484377973458322,8.450418879676363,-4.918764257985458,-11.250077542330473,-9.025573324961528
1.6280000000000001,-1.5463754270203935,9.704360746974999,3.262717702462396,0.18358843975511263,6.438666920168544,-5.081023869233832,-11.04933608663032,-6.33923700694524
1.6320000000000001,-2.1285416941536823,7.698381801681535,1.1208282425650395,-0.6959255978508736,4.11177021889489,-5.212637653481579,-10.36906813526548,-3.1058517988010124
1.6360000000000001,-2.9476411895957426,4.759619765060052,-1.4576549832308956,-1.8473683329611958,1.3303728608880192,-4.971639738119848,-9.344560735999949,-0.07315446194684228
1.6400000000000001,-4.236855265942722,1.210095968326641,-4.5933711722937005,-3.4948737995218835,-2.301049419103947,-4.259467494695855,-8.564509125794757,1.730727063465622
1.6440000000000001,-6.169444592400396,-2.4697495411001,-8.261025601739675,-5.814952453096339,-7.0252276483151945,-3.267675345945463,-8.693302668090837,1.5007191276106937
1.6480000000000001,-8.692994013395946,-5.669482254506875,-12.065129157545016,-8.76805844039336,-12.523904675999802,-2.340438771989284,-9.966677106668612,-0.8795939721205741
1.6520000000000001,-11.4015422664379,-7.749376299922005,-15.210369849904964,-11.97980092466969,-17.792087773739695,-1.7622980778505735,-11.896129196311449,-4.6823954154606895
1.6560000000000001,-13.559351957403123,-8.197176424841018,-16.729108813917264,-14.76995554608584,-21.407942193516647,-1.6116946944966912,-13.383495101606059,-8.624238672978635
1.6600000000000001,-14.323478398044244,-6.80749152063072,-15.885639732154232,-16.361029285872064,-22.10859502684798,-1.7505298692558426,-13.238373852954282,-11.473163688674845
1.6640000000000001,-13.096510598563327,-3.8007328932599194,-12.562003560269659,-16.186107495472243,-19.392078140263038,-1.9390938726937748,-10.829681696527587,-12.645173730142147
1.668,-9.840786400585785,0.21372000491101062,-7.413835346818814,-14.150113195490121,-13.819876695728453,-1.998608062745916,-6.504973145910299,-12.460522405730387
1.672,-5.198816693737172,4.415833482093149,-1.713577983671712,-10.721450990458834,-6.870178630666487,-1.9247276936785056,-1.5561046168695611,-11.911552452901901
1.676,-0.3296635512197099,8.048291568607965,3.0802807508844126,-6.797467585824052,-0.3777779746960732,-1.898682448114414,2.2943610885304224,-12.066951084257084
1.68,3.493668082443037,10.662337148958613,5.843213309592102,-3.39574587912648,4.177757639217816,-2.209908443157474,3.642956782076908,-13.439624008130039
1.684,5.352654262103897,12.218073490734241,6.162400511424494,-1.3064229910560243,6.1974724428400805,-3.1282475478910783,2.0209414652881605,-15.671997234328984
1.688,5.0145028268234455,13.016502921662322,4.42590882263903,-0.8476361965149408,6.086894438034506,-4.765260115817,-1.9037180877885476,-17.711853192173066
1.692,2.9764685413756524,13.484648604617178,1.5925932428035594,-1.8239448064996395,4.923196582651144,-6.963883273761894,-6.630607779099591,-18.36567035599481
1.696,0.19773128617089242,13.925787509271686,-1.2430528170116304,-3.6912710566903115,3.8631889027274156,-9.271075865302919,-10.467575702429713,-16.925572491457842
1.7,-2.3456548829162784,14.355527000712755,-3.2944829505795497,-5.825564944512735,3.591058766704009,-11.021683044698875,-12.19615350120148,-13.524780582323302
1.704,-4.080502840857662,14.490266010177947,-4.3482222297170665,-7.777667080921674,4.056677786866203,-11.550418124274074,-11.482781398739462,-9.045437448506192
1.708,-5.037079836762132,13.902632605701001,-4.750127501803945,-9.40439507055271,4.616255944561999,-10.481378027649043,-8.883767547631578,-4.6534293074806214
1.712,-5.742265031556599,12.250698640807968,-5.146039696166554,-10.83519269930548,4.452863574088042,-7.970380198703424,-5.514031924453775,-1.2358737260685189
1.716,-6.860443494897481,9.493391745203553,-6.099111065672332,-12.312653603770741,3.0674198652977793,-4.753910626241122,-2.5492709988011484,0.9482456877569234
1.72,-8.769154522145982,5.986919142600527,-7.772319919713482,-14.000728818176867,0.5875496203570947,-1.9239674580639985,-0.773192866032332,2.2356756550312866
1.724,-11.282643156780978,2.421609797695055,-9.812199946820328,-15.851622166170273,-2.2504468842525966,-0.47169536313776916,-0.3496501853069276,3.211323560518565
1.728,-13.654772633224638,-0.36343290064905887,-11.472129920002772,-17.58121666355146,-4.407508073893041,-0.7970903557979909,-0.8433770222318344,4.2796518070910565
1.732,-14.881504125070933,-1.6511896062493179,-11.936052028620907,-18.76519977622229,-5.006368307316734,-2.4584207722837164,-1.4755437449257442,5.409790247597584
1.736,-14.15520141815432,-1.0830676882287662,-10.682215395965613,-18.997524211230484,-3.7118044467570144,-4.3269217245961045,-1.4741336052265979,6.184406675147102
1.74,-11.244751323552919,1.2230649332268513,-7.721916534921547,-18.031931649526086,-0.8661936649332347,-5.112178723898978,-0.3841243412689437,6.091423943788641
1.744,-6.625870386324095,4.705181098344838,-3.615875806513941,-15.856323379524838,2.657326338136045,-4.018184436896263,1.7514312996363515,4.849686287218532
1.748,-1.2915546016665758,8.543850244534042,0.7438098807397182,-12.675580842565978,5.823012326352909,-1.1766539186737646,4.418348952634005,2.579291086278488
1.752,3.654397414149571,11.91257576652606,4.478737707644541,-8.835925942308677,7.833935548418594,2.391079043783975,6.830647124924326,-0.2673055460265914
1.756,7.39729173973501,14.206443783195937,7.0272374991254765,-4.750273192697932,8.403153959652627,5.272465992075013,8.229176314618599,-3.1576298739198876
1.76,9.624256632923789,15.184842812281204,8.285839384527208,-0.8417303725036618,7.803800464405867,6.366289866662555,8.173018046536527,-5.725848725621887
1.764,10.463195979989905,14.975451653983328,8.534071745612891,2.4817359587359533,6.690971816005913,5.4078645032095665,6.695719875508075,-7.86673006668164
1.768,10.231890982242476,13.980274335261129,8.221781204398212,4.8561621745320735,5.813363887686137,3.03817419725965,4.292234849797751,-9.637366776101572
1.772,9.169714964818922,12.713265552092707,7.740031574472596,6.019812062011624,5.720696545795363,0.4031881251867162,1.725968709029985,-11.04756498536159
1.776,7.321401814939236,11.629159054249612,7.286470844352152,5.89218353650358,6.585437768517295,-1.4733185973291256,-0.2594092792714946,-11.907842988159246
1.78,4.644658834225993,10.99520458047482,6.866121387482053,4.644084117466264,8.180341514847896,-2.171143865234626,-1.2086408288514576,-11.852898381404799
1.784,1.240141834019596,10.818350973495399,6.3811321566918195,2.6939934641595755,9.97932829479032,-1.9490161024550616,-1.1101044479810298,-10.539735561855082
1.788,-2.4748367628999404,10.856644364117528,5.728349621484085,0.5983250624085485,11.335100406289712,-1.4200559358159808,-0.3694967657070265,-7.917096847086896
1.792,-5.808014555634145,10.696722245569617,4.830463352924198,-1.143374459228653,11.657581942579782,-1.0719452624671248,0.34718870457527373,-4.391955978449829
1.796,-8.051158532509362,9.910328834230313,3.6212974346690316,-2.2720823718991596,10.582153583271065,-0.9443779654502578,0.3678981542220754,-0.7617620385284454
1.8,-8.809229343220068,8.25893255219853,2.0407950273529423,-2.84337717103881,8.095847322689224,-0.6468616647907766,-0.725824030619151,2.0798613122749146
1.804,-8.208232346787554,5.860051558066516,0.08476898742264893,-3.1506562874819792,4.5840352366358275,0.31961285843135556,-2.9187126236029144,3.520327771333484
1.808,-6.835227146068064,3.2438411277926207,-2.093678365019514,-3.526437392576554,0.7864731709287298,2.164364417303659,-5.7151521674463766,3.4930964241699485
1.812,-5.426511894962459,1.2219820043374057,-4.105347448663451,-4.132108934249118,-2.3673708380229073,4.611186719908801,-8.281016607193123,2.492169599228191
1.816,-4.479001928884827,0.5951404783336329,-5.359211680653971,-4.862711389694596,-4.0191992989111895,7.016142424912687,-9.734415645466925,1.3038671378128583
1.82,-4.016481767206642,1.799189059600394,-5.263207206324296,-5.425981165686608,-3.6725222375043813,8.713371463458316,-9.497857407690844,0.5823733948777772
1.824,-3.6500480234608403,4.646296853205968,-3.521804376710861,-5.548785682603921,-1.4062237225734862,9.359412314996007,-7.5825088750207215,0.49294798380032034
1.828,-2.8822657723540033,8.326091761700809,-0.3631422985417885,-5.175368070626064,2.1192856650704925,9.063768009948035,-4.64646888122661,0.6110752486087563
1.832,-1.461809446762345,11.685892230224454,3.456265761184113,-4.527937590752117,5.883805026052869,8.24670691186111,-1.7783869631616653,0.1556928679238183
1.836,0.4355613138213812,13.698218336718128,6.932119162647723,-3.9793385184493673,8.893424422483804,7.341766446988913,-0.05367557244608179,-1.560370043646003
1.84,2.3113085258828505,13.899758049130469,9.253518194076605,-3.8117961244497565,10.56388169308957,6.5503823134986305,-0.06008477336808937,-4.6983959447698
1.844,3.6559158204472624,12.576440123928478,10.173811709888469,-4.013813109631883,10.916172154738888,5.80418143469069,-1.6219946354640342,-8.709321049577937
1.848,4.258928169339924,10.603361608771593,10.092124722130393,-4.260000985537772,10.498217916030626,4.933476211310335,-3.874005591481364,-12.519792395442437
1.852,4.3046882936760085,8.995940753155082,9.77596083282151,-4.109264437342063,10.046753528900808,3.898678308345552,-5.69621566519163,-15.003361099945806
1.856,4.199990975228502,8.414819054115469,9.885978321199218,-3.3070107805979205,10.082732884782672,2.904422719573631,-6.283369998381204,-15.495986009044799
1.86,4.260859578234886,8.880936470594861,10.580964587907147,-1.9990937837210367,10.653168362036013,2.3119385899117333,-5.5386617164854215,-14.083715608329868
1.864,4.472041017343145,9.836328233393942,11.441122023505159,-0.7118685954628745,11.3401430977774,2.4051413887091257,-4.087990038517091,-11.50843271109261
1.868,4.486498912850948,10.503597781297685,11.757173270059866,-0.09885352264791436,11.519122808082102,3.164502169093794,-2.9020750933495947,-8.761533043584478
1.872,3.8766793256600067,10.318922541363463,11.00507832564108,-0.5869732735736761,10.703297111849679,4.219029418575701,-2.750943651520174,-6.570623788307245
1.8760000000000001,2.47355981112014,9.213685750206423,9.210637852107538,-2.1285800689438474,8.787990143265233,5.014594560359001,-3.798805398609602,-5.0641213827384775
1.8800000000000001,0.5531830022737267,7.585111167943978,6.943043038339965,-4.2289508684916655,6.045881179103162,5.10332250798092,-5.5783198360304596,-3.8063433580853143
1.8840000000000001,-1.2655710227718373,5.9924456429153,4.931693996159083,-6.236867789411917,2.8914548602870127,4.3909717826882115,-7.351690180045807,-2.1561649835746834
1.8880000000000001,-2.3579385178818484,4.797597044308532,3.5570633776751492,-7.7199037725476956,-0.4021436407301735,3.1965626725932452,-8.601588343933145,0.2777617966203536
1.8920000000000001,-2.4711913660248683,3.9446342643223034,2.5397896822451003,-8.704646982760096,-3.8583882051352703,2.08287638969432,-9.357931479495164,3.355666527327287
1.8960000000000001,-1.9077756462174875,3.0092849910461155,1.0546404008509853,-9.637074579091859,-7.713568566109643,1.5510112857709828,-10.149787465217287,6.444592978557409
1.9000000000000001,-1.3804927325636527,1.4865842753933975,-1.7587433061089541,-11.068090590571956,-12.145400938067723,1.7787618826750986,-11.615050482612332,8.740321601042638
1.9040000000000001,-1.613913337532722,-0.8717601981497864,-6.186611287546839,-13.244793824223962,-16.98554170416537,2.5430065771752197,-14.044354519013268,9.662738666897198
1.9080000000000001,-2.9014948448766518,-3.8412074322877743,-11.587856965070387,-15.83075776541773,-21.578046665634247,3.3667778930630448,-17.140447769427738,9.089056810341006
1.9120000000000001,-4.880863878359378,-6.770879552873339,-16.547882627033687,-17.93353674582613,-24.915656407580173,3.7974340423988906,-20.17499014232908,7.314768023874862
1.9160000000000001,-6.653972072583201,-8.849888329841633,-19.480843238097805,-18.444311719089455,-25.988257677259753,3.6546623310441646,-22.427986532772593,4.803425040741985
1.92,-7.180775745260689,-9.443072644219683,-19.355017940499238,-16.520182747275612,-24.169583618040633,3.1171408350537604,-23.61494853853219,1.92155658012598
1.924,-5.743629280343157,-8.33793521356256,-16.14732490790084,-11.978861043238794,-19.467285053946398,2.6082373285544236,-24.019609490704624,-1.1529572191890196
1.928,-2.260162967741053,-5.795983829432771,-10.801245905338874,-5.438731770193044,-12.53474232802455,2.5380601145407127,-24.235063842009822,-4.3282785317107795
1.932,2.675668504765781,-2.436926691350891,-4.745816236207247,1.843264629242185,-4.490709972226796,3.033813072551311,-24.70169585272197,-7.4083872552661205
1.936,8.013498666507076,0.9688512586453726,0.7378222021197871,8.36091360248065,3.3698945699661635,3.810241523449804,-25.360530522775207,-9.994643206929965
1.94,12.610259741379195,3.7134575285563187,4.958721352066277,12.817057897991617,9.859152495440867,4.273813014235202,-25.659788801736795,-11.590523835256306
1.944,15.577027253764754,5.299632183485301,7.872893620445211,14.484293052830253,14.09969502900367,3.825174868774411,-24.93615137572715,-11.85673944091188
1.948,16.496862290343415,5.528143812323833,9.802162306785249,13.36241143004554,15.653608850767341,2.2102433019135788,-22.91573629395816,-10.835063265968884
1.952,15.476712694313392,4.512091611966753,11.048887133106291,10.109969515800913,14.574256357688682,-0.2625701073820892,-20.00609500962082,-8.951704893058576
1.956,13.050055700829034,2.633827687007397,11.663146455812239,5.785774969182967,11.385454456527441,-2.768932299921289,-17.161026669302373,-6.77073897109851
1.96,9.96526907547377,0.4224437570810551,11.453074945732624,1.4681790074810124,6.935284932464128,-4.309498854931917,-15.389914066397978,-4.6595840588992985
1.964,6.920991625434908,-1.648426535960425,10.168959410777461,-2.128975349785833,2.1093873825202536,-4.2066049699278665,-15.216981519200544,-2.6051101217918813
1.968,4.326734426947041,-3.369470465257109,7.695695759673072,-4.9055419476117095,-2.505684714360541,-2.515162583546953,-16.428649814352866,-0.3506113828922395
1.972,2.152886969667634,-4.944136555570367,4.091580441765473,-7.398076865591975,-6.894274146090538,-0.12667918092301989,-18.302941790930163,2.1941581612270227
1.976,-0.05853362195466616,-6.9638664299609445,-0.5270635209435568,-10.541046789322536,-11.643010050370322,1.5257803503445757,-20.174312570726215,4.533976027448929
1.98,-2.967727015527089,-10.152012010659746,-6.1035436463862425,-15.202108951346418,-17.630585432099906,1.0829490612186419,-21.948821110933523,5.50070287681325
1.984,-7.046602416116002,-14.94282886650035,-12.598611961931965,-21.65482709297703,-25.452730694643833,-2.070749453355347,-24.205893314976038,3.67519715180174
1.988,-12.177785088449127,-21.063061222364922,-19.749281931355654,-29.222105705841386,-34.82564271293904,-7.412278981113559,-27.756429454655063,-1.831246666735808
1.992,-17.452940863346157,-27.36397158086902,-26.773361732349258,-36.28049231556906,-44.30968654551543,-13.374530114177105,-32.90470956241734,-10.636613535416686
1.996,-21.334634780427223,-32.045061110458846,-32.26642130290384,-40.69542758400985,-51.56345056862574,-17.923493948389478,-38.8750053485237,-20.854477206141652
2.0,-22.175858337485806,-33.232389127198076,-34.47468566241059,-40.55596338051873,-54.111733749836276,-19.366078901437504,-43.803250689546985,-29.59925338055981
2.004,-18.90500226545555,-29.708737144619136,-31.914038234050167,-34.91942957802348,-50.332175250092405,-17.021703960753257,-45.40330378876524,-34.06122854508261
2.008,-11.570253827517263,-21.46622110903172,-24.07471033174079,-24.25052790945574,-40.19510795905262,-11.461635125739122,-42.00930107442514,-32.66428537060286
2.012,-1.4746446704211849,-9.839091565512263,-11.863000244246905,-10.358761459231573,-25.421615942091194,-4.214055350370472,-33.48023286842704,-25.72073791403598
2.016,9.203130663394404,2.8791241520434596,2.5065533017759662,4.1559216646919594,-8.947162955820204,2.9093877032564706,-21.457292784713445,-15.25141156844063
2.02,18.169959864269913,14.19083501345176,16.186072973809132,16.73025444924133,6.090154164225169,8.528835600373895,-8.794526386331881,-4.065627721248234
2.024,23.83487313158821,22.20370548665187,26.665280982703734,25.60882971348292,17.38753465487389,12.126028498495543,1.5791848323342492,5.4404595863056215
2.028,25.815685979445334,26.1754697057072,32.611326934650606,30.257190609900135,24.10641941128597,14.033608475965593,7.841570945646936,12.1649287312991
2.032,24.91332427470934,26.56730574489893,34.188831559103164,31.284591875770275,26.836279721783285,15.048468451536792,9.913821209367597,16.467816130912226
2.036,22.5903182866341,24.63616347873176,32.74682668204787,29.964243602388706,26.99432319207699,15.913919702500607,9.282128137989957,19.622071699115892
2.04,20.225541747093303,21.792144730182827,30.05987638282113,27.599767903895554,26.003935589583307,16.950072394512063,8.136655515086204,22.915086149421327
2.044,18.507426231322825,19.01198700290979,27.508900780531803,25.020897629785395,24.65091395704394,18.000807825866104,8.27171121189167,26.920394678670164
2.048,17.242123373168397,16.568172209589648,25.58977777509699,22.389581057052055,22.901141725355956,18.659336715294558,10.289981153584677,31.29584103913224
2.052,15.63349728305002,14.134648129334892,23.929866332621714,19.33928190986444,20.170439551788604,18.597603207477732,13.445527062139035,35.13597643295867
2.056,12.85851342429487,11.171189024729756,21.747458806683426,15.337267940918537,15.856281021706309,17.788274933975117,16.146042111648057,37.60234897996813
2.06,8.626634999526686,7.370860308092233,18.47170219751206,10.08101086662191,9.833626961640675,16.509554562880112,16.820571686589574,38.44431562122482
2.064,3.4348252301306275,2.939448924241333,14.177926708549421,3.7529835415170965,2.6640610221884344,15.170682311614655,14.698663290535023,38.13092530881103
2.068,-1.5814878195378697,-1.3883769122876402,9.646774825353532,-2.9392229696004506,-4.525101548879775,14.08240858899535,10.175353241793118,37.5627521228928
2.072,-5.109370308421603,-4.607629480039122,6.043331941141332,-8.932194099134904,-10.413385044551887,13.329342591728164,4.622187652169714,37.579967274371604
2.076,-6.1990955218343515,-5.846499370659785,4.402765897481004,-13.107299184900512,-13.917049673656948,12.803749645322569,-0.21434945993473775,38.55505050650937
2.08,-4.624416086720885,-4.729649637473358,5.186111023196645,-14.610457116574253,-14.50225224069709,12.34950204125471,-2.920702782047556,40.262307611679034
2.084,-0.9182353971145858,-1.562509968339782,8.104980118779167,-13.093632651531152,-12.2966263559465,11.908954293225179,-2.9345921355518385,42.04558775079337
2.088,3.9068760418831516,2.7642349521806864,12.284991595304746,-8.797456967064136,-7.980635688953498,11.574843316507213,-0.6658568340465081,43.13777779889474
2.092,8.78529862342657,7.095598404265274,16.651821075306543,-2.4628588768300688,-2.5413897443368114,11.51337000660078,2.765374799228084,42.95440387093538
2.096,12.96915337844348,10.443908195693439,20.360592149309923,4.901357903651842,3.0366445229678902,11.81981860464657,6.033669701132794,41.255350665776405
2.1,16.198075784351204,12.367924680878787,23.078260149600737,12.321456736818618,8.052034990088487,12.421013071600555,8.144293644963682,38.16928919208243
2.104,18.624529206568695,13.117979651033238,25.001416297399828,19.111739263159507,12.239658949483783,13.091277705364064,8.768785561332834,34.13258335282384
2.108,20.57731943224144,13.484283358206085,26.63231136235163,24.9772081172041,15.756114394587712,13.5740879841901,8.284058508404087,29.792834231003674
2.112,22.31044620209559,14.388317829710104,28.437632259050588,29.936487755503094,18.983058597189483,13.736590070048806,7.519073616544915,25.899046317311914
2.116,23.849278827131002,16.387893134759906,30.55140019014425,34.09684011480704,22.22159063377967,13.65040694070376,7.322120062124668,23.145074601653633
2.12,24.991470444243987,19.33468146447376,32.65435747896072,37.409481976365896,25.410721101076433,13.551514722263164,8.149851108428265,21.965513820574948
2.124,25.429885043683953,22.354955279487967,34.082692007060814,39.54995596690469,28.018893937428402,13.692093486662088,9.843601705852848,22.357968770254743
2.128,24.90970660868652,24.19486561748431,34.109777550789204,39.99453047746465,29.20431501727535,14.169638511211815,11.692587385159186,23.819663697544165
2.132,23.336252874339152,23.776184467167923,32.2686510484923,38.2734857005089,28.190000610294646,14.84810553232046,12.743289353220348,25.491149227532787
2.136,20.79712332087138,20.70871136342339,28.573726919441015,34.26835214516268,24.69161448078603,15.411508958483864,12.228910801441089,26.48481157127307
2.14,17.50930106123633,15.50308121119906,23.53491603271641,28.378214704765014,19.1693368105648,15.522141696620565,9.91988424511726,26.2577443471012
2.144,13.739747795067615,9.360947096822201,17.961430595322327,21.451031746803892,12.732204691064908,15.0033721302907,6.234280145400589,24.858469755895158
2.148,9.749448437308274,3.6643811831374933,12.655637431521882,14.49316947321222,6.712221910192511,13.939068572541146,2.077005370845427,22.89636967535374
2.152,5.77406303231146,-0.5963286158630581,8.12781259614303,8.300303615596476,2.086211526891475,12.63447664989826,-1.528137870776959,21.250895432791623
2.156,2.0314949392545714,-3.169733044866007,4.466457122313841,3.2036972590040023,-0.9554695164188161,11.46477468091598,-3.8373633202538713,20.66414724151749
2.16,-1.2748263679341107,-4.513629979149755,1.4066671369250798,-0.9477670061346544,-3.0645834374961396,10.69085261810983,-4.644502957846157,21.403469953163984
2.164,-3.9811189445317723,-5.44987199067441,-1.4568338482113177,-4.574592763632609,-5.3688906508514265,10.332295299431735,-4.2980510413508455,23.157742775816672
2.168,-6.011167815357567,-6.698333708327937,-4.4251439541017135,-8.05156272828799,-8.840359493017559,10.156971432171304,-3.4749844871707865,25.185234361272798
2.172,-7.4069319575619375,-8.551301089671142,-7.535062225907495,-11.458932898662624,-13.725333325463907,9.794343509808641,-2.8563148306305948,26.62155888917082
2.176,-8.304550564065721,-10.820934506917865,-10.541653045506791,-14.523248493964275,-19.320974809093514,8.908663530668946,-2.8479208618036864,26.789904706854806
2.18,-8.851413265005249,-13.017505747038285,-13.030923492626243,-16.753279196931544,-24.21142808862851,7.358720715596974,-3.4430068455664014,25.389175339122094
2.184,-9.106658099814013,-14.630474936340761,-14.597759352047433,-17.677448603195444,-26.87159105290857,5.260931277945929,-4.288273513164768,22.519816077289384
2.188,-8.979714223169594,-15.322262284367753,-14.988605886529058,-17.042297804311602,-26.331989055593112,2.932965807435039,-4.884684974100196,18.590422048435922
2.192,-8.263275297174914,-14.973415500703595,-14.161320953831364,-14.888911499550886,-22.60846620923894,0.7534422422475018,-4.833300092820309,14.175592689272797
2.196,-6.760932329314983,-13.618932862991642,-12.25647662239271,-11.508879876010269,-16.694747817545704,-0.9986238764518021,-4.019926226492316,9.868407831924102
2.2,-4.454729086600537,-11.382633379148956,-9.532157951811541,-7.348050041732677,-10.144117074266433,-2.2461468222579697,-2.6571925269935264,6.133497847731785
2.204,-1.6188447387273754,-8.492326621342045,-6.309202780959595,-2.9215957819233154,-4.463530595449356,-3.110057586359744,-1.1944627970040074,3.1850137718732014
2.208,1.2058591657155375,-5.3411773776047085,-2.9409394045019326,1.2358603671714263,-0.5888263430642837,-3.809424139536304,-0.12381365673587652,0.9288081103416914
2.212,3.3784024956144094,-2.5204008715518285,0.1914887934883609,4.609841200083565,1.3192667343623725,-4.510098233376539,0.22874291517643996,-0.9753422062143002
2.216,4.3933664079449954,-0.7213529138608692,2.7019515920915183,6.779262343585515,1.7258193885515993,-5.206039493114076,-0.14805054270993878,-2.9054029196232563
2.22,4.0678466717643005,-0.5056042739106488,4.252316728066489,7.516027221905233,1.333954126903791,-5.701830718083784,-0.9289031017069647,-4.995434155378927
2.224,2.573488697752964,-2.069691343235263,4.607787931448911,6.853218978919813,0.6541195673023594,-5.714068057840905,-1.5981769338891354,-6.929988507505115
2.228,0.2997086311870589,-5.127447303027793,3.6788289816279303,5.061416960485985,-0.23816103665058108,-5.04368346549586,-1.690135874780026,-7.972391796972548
2.232,-2.3648850370204855,-9.005678228416173,1.532285355232034,2.5229707360063003,-1.6738980627774254,-3.724054046499532,-1.0182136452374948,-7.265073684386088
2.236,-5.218176180263981,-12.92970804243862,-1.648599827100952,-0.45410341695924217,-4.144203717223945,-2.082918086339305,0.2104041950098008,-4.317118388429208
2.24,-8.274846138417843,-16.333155750640117,-5.613715097088971,-3.761405811883833,-7.967827024372809,-0.6634481645075994,1.4732114016862852,0.5800173007919014
2.244,-11.619800192564526,-19.030531298383494,-10.066876492602887,-7.452448657727928,-13.051669529585183,-0.02357630385643006,2.1742128186898526,6.280856049725706
2.248,-15.188985430735556,-21.156722656998227,-14.648957805172586,-11.558464545758625,-18.841121696581013,-0.5131011953793632,1.9540322563609038,11.152713856374401
2.2520000000000002,-18.617381224197516,-22.933616238000923,-18.90680899132417,-15.85669595877016,-24.473455484233,-2.126004163203447,0.9058270913822071,13.754957282509261
2.2560000000000002,-21.25863641417436,-24.411673064791103,-22.286166532767766,-19.746481923366446,-29.026153416941384,-4.485642078907631,-0.42835582329269073,13.50100649650726
2.2600000000000002,-22.38522207524784,-25.34081695589066,-24.194661265447962,-22.35035548033784,-31.742722244306606,-6.963374802146291,-1.2860119411888036,10.939241185765212
2.2640000000000002,-21.46970691955903,-25.24785060116301,-24.138153727877807,-22.818088494720996,-32.161210365496686,-8.880192291939238,-1.0377977427758651,7.485627830247086
2.2680000000000002,-18.404938675260837,-23.66374276420106,-21.891091358324957,-20.69218596199653,-30.130032608455622,-9.713721737315495,0.5146304236840251,4.718182703043425
2.2720000000000002,-13.556864379867875,-20.383669750509853,-17.626998900321723,-16.141862803339336,-25.777996022871548,-9.242243664863054,3.031500003264455,3.606656463552035
2.2760000000000002,-7.637557054111539,-15.617810955195637,-11.934828976993458,-9.936613873453098,-19.49026793707276,-7.593584496247331,5.779181423072629,4.08062947562442
2.2800000000000002,-1.4776977305082255,-9.963820044154545,-5.696804052048037,-3.1719042268166504,-11.9109993054401,-5.204761689041106,7.954563188277916,5.148750299741419
2.2840000000000003,4.177506406316979,-4.246064378147025,0.1320849078788342,3.1056205748259345,-3.9434693300891013,-2.710461987069607,9.015035041811558,5.498413433073427
2.2880000000000003,8.777906728092262,0.7142247719569923,4.772072733928326,8.184978481378266,3.3415092562549944,-0.7845550600998195,8.875358033993933,4.230492889134016
2.2920000000000003,11.98296398648074,4.298507151946524,7.792696225941199,11.77345214325976,8.908705712225526,0.037973682887638915,7.875128158227824,1.3351395878346413
2.2960000000000003,13.632003290563489,6.211855828979083,9.15946848925455,13.88313250261649,12.036055442857332,-0.48132733913877246,6.5556347144242295,-2.3231573861671144
2.3000000000000003,13.74668834002307,6.529646458292234,9.161991969309724,14.651935748699316,12.55807946531911,-2.1858264458500685,5.3900890936753,-5.463848098588137
2.3040000000000003,12.572578700676445,5.665868220849859,8.26977011792826,14.239428488653857,10.934962163549926,-4.5293699295790475,4.598313917905273,-6.999361585469591
2.308,10.59297658761534,4.268151495503389,6.973160005040199,12.845481961153041,8.087199708523201,-6.7241000620037426,4.131940911212922,-6.4758554943542865
2.312,8.43712937090072,3.021082842171552,5.645037567621557,10.78582171481662,5.022417864104,-8.001046421150988,3.7940513546682553,-4.153186238053566
2.316,6.670239928634601,2.409400402006895,4.459453713282073,8.516847484133109,2.441044345358989,-7.8886065978244915,3.411707950910113,-0.7388955542935163
2.32,5.5472221127628245,2.5379407175485085,3.3809984695059256,6.540156498318652,0.5214307688186182,-6.386319860126434,2.9681323327923224,3.019672054079553
2.324,4.858819931449943,3.0715246469612225,2.2049367323648994,5.199344654822994,-1.0311719178379235,-3.96000966018687,2.603035598403409,6.6349067113003
2.328,4.000985338529404,3.3713198837336904,0.6445575557993379,4.4990129954030635,-2.6937109152996754,-1.3408216558669892,2.5049749963431225,9.937811728053305
2.332,2.281028284302238,2.7882283767855256,-1.5457890499160385,4.0908043690420755,-4.775120380197222,0.7904105879380268,2.7584807056788634,12.935899862784597
2.336,-0.6711731710705635,0.984296265068906,-4.442957987965542,3.4694692662260422,-7.203887277409876,2.0785392028863043,3.2328368701289776,15.612066477955747
2.34,-4.6027679998742315,-1.8704968224427603,-7.867103548068258,2.2894014829906837,-9.567385327965667,2.594385309897916,3.5914891357362535,17.80160621491658
2.344,-8.629436275696776,-5.1389260978151015,-11.374848702544796,0.6259930810340393,-11.37007217009318,2.722283750973702,3.4374620856327454,19.228600086423874
2.348,-11.556810133933482,-7.962678987016034,-14.352414751653896,-0.9874444767513069,-12.317663421314592,2.8987373982862437,2.5428018800338634,19.64515066343639
2.352,-12.408668331382728,-9.617675032408329,-16.20879899102681,-1.80476876910393,-12.469976126719303,3.3472686628980455,1.025750060930534,18.955269299678804
2.356,-10.900628939595663,-9.80172225173169,-16.591107309785684,-1.2707540991652877,-12.163700376691168,3.952918423164647,-0.6196826283721748,17.245774281220967
2.36,-7.612075770775732,-8.715951884290462,-15.52465129168263,0.6357712501680908,-11.762444641400748,4.335847452295525,-1.6713737894036171,14.716653654596145
2.364,-3.757266192453926,-6.928263661486653,-13.409052229187978,3.3259392130221386,-11.411723602711845,4.0853840034276345,-1.4780529071617252,11.581684987126655
2.368,-0.6561792540048828,-5.0945418774540485,-10.849037838942763,5.851374435908156,-10.940200891048562,3.019876750244748,0.22831046273466882,8.014060480049093
2.372,0.8393646784409157,-3.6908995811917293,-8.394163812820466,7.351650412324261,-9.980784000270546,1.3315311033961734,3.165918715899352,4.178515497738904
2.376,0.6821990367122908,-2.8733964352738894,-6.308538449900539,7.45669077598086,-8.219213158035245,-0.4722743380467591,6.589078164879197,0.3151213358874547
2.38,-0.4291631340031472,-2.495179342812321,-4.484996184915985,6.427228617037144,-5.610451046737467,-1.801471771634283,9.616642574791058,-3.201987745757944
2.384,-1.4648193312852982,-2.254895780836364,-2.5640840982225654,4.956003296251083,-2.4468122292126964,-2.2617719657984026,11.636110428959114,-5.8932883863472565
2.388,-1.6115243267968253,-1.8697769319776398,-0.18998632974535212,3.7489623354319974,0.7663430567989735,-1.8397481439118337,12.593499299179769,-7.306459881407465
2.392,-0.6777435777805749,-1.2087297304929052,2.717614095918634,3.1197049225900173,3.518049955829383,-0.8980785757806871,12.980959203245732,-7.199779991494541
2.396,0.8371815078976397,-0.3496970581096548,5.820862039723352,2.8217273909961023,5.449952658954999,0.010261490101584059,13.510979083786765,-5.6886990712035965
2.4,2.030171615784866,0.4513305757014905,8.436347597046051,2.212487842926066,6.3860822701223015,0.413901773596308,14.640809112325087,-3.280970578535891
2.404,2.0789302902171585,0.8552183689549793,9.79688609711161,0.6605482916893379,6.253327917168917,0.14552054263162972,16.200474009867378,-0.7477460563424803
2.408,0.6797921334880357,0.5853496908557645,9.38990494168661,-2.0290114126985372,5.016012263023981,-0.5890979358114237,17.388119101163852,1.1384678195947
2.412,-1.774030386034383,-0.43017674287284535,7.2107438854577595,-5.398186680376739,2.701126939155074,-1.317390748271464,17.153690964731766,1.9089527684897725
2.416,-4.368279683752235,-1.9836039114626374,3.7914830732038354,-8.457633546663374,-0.4953406466534034,-1.533903497550341,14.770437122113378,1.615495134580856
2.42,-6.09855327437117,-3.6191628539203293,-0.008431422158537316,-10.092087220713438,-4.112292798221915,-0.9403556414458762,10.299476492461622,0.8489458452736223
2.424,-6.337969046552871,-4.800152306850919,-3.3525605818865643,-9.544338617576159,-7.4677168633777455,0.42690179881537915,4.656700851832113,0.5288122717428241
2.428,-5.117172336551448,-5.141718406525342,-5.747048714415541,-6.747781562736236,-9.868116398685174,2.2239229163142227,-0.7670341652128059,1.5111560727763393
2.432,-3.0868646940803046,-4.614458342208991,-7.187496838126663,-2.359242893749297,-10.909780012558826,3.9551712104107537,-4.743616525711616,4.166339430078221
2.436,-1.1903429560459244,-3.6027312423287867,-8.066273493483322,2.511061036309002,-10.697218119477043,5.178569243046013,-6.75371851060936,8.117335744664649
2.44,-0.20844349805452111,-2.743971944168038,-8.89193422486619,6.733085477845407,-9.809099326057549,5.660889404266754,-7.125670153348892,12.28381819252526
2.444,-0.4019666894562306,-2.6193905825189177,-9.972159142095052,9.548270788696755,-9.002010505657836,5.419407696876533,-6.719840533622744,15.257300235474553
2.448,-1.4041008331012108,-3.4232296621706837,-11.206545478822136,10.770512669431355,-8.77266108426943,4.647842675800462,-6.325475165769944,15.874113901851283
2.452,-2.399866777929674,-4.798857072805276,-12.093144239311414,10.743626759298422,-9.03678765801942,3.5868075710291123,-6.144682722232744,13.72226016161975
2.456,-2.500443647686552,-5.95479138034932,-11.948873719735047,10.109072114925539,-9.117006927336206,2.4091844014280923,-5.6808899007237414,9.340300092768034
2.46,-1.1299094219275503,-6.016346440575489,-10.234397079491828,9.51235939181538,-8.076806359347756,1.1779295309672762,-4.093048121946936,3.9919080250729353
2.464,1.7380595432412065,-4.465473522797879,-6.8391759526282385,9.3624294500205,-5.248175193707311,-0.1164552662683036,-0.8187902433238037,-0.8936635467997176
2.468,5.5770926079735545,-1.4323584612649256,-2.195629653683909,9.71500703055699,-0.6547172860084629,-1.4918386907932017,3.9161457229705547,-4.352981232616917
2.472,9.513487119589172,2.316646002413904,2.8335982879548283,10.29266653904574,4.897966645932684,-2.9274454919866457,9.024503872694822,-6.2588267124221035
2.476,12.638127643053167,5.701844030794746,7.253079516922753,10.607939461233173,10.135881953978924,-4.364328763529784,12.999379728971121,-7.237519739220281
2.48,14.300112517138132,7.80945590258932,10.293561198799807,10.149658936676133,13.884851621486632,-5.754689090570764,14.652644077951152,-8.192722825938727
2.484,14.278934800690422,8.275983374275597,11.674067858229819,8.58190382173234,15.58475897340304,-7.109829182367548,13.735181176267872,-9.702350728041806
2.488,12.806969937602389,7.407115179931566,11.669542023661734,5.911452920577176,15.51076729270494,-8.489864733525337,11.110773875942868,-11.632259680267527
2.492,10.457519006868097,5.969112254538004,10.939645215034716,2.563964100989324,14.57245069999476,-9.919252282202478,8.356938597968849,-13.187466177327561
2.496,7.9476028983801825,4.778811657872211,10.189577272712086,-0.6883927941858019,13.80198441945663,-11.282890456868472,6.982876666832908,-13.378762219908397
2.5,5.912930052510092,4.305101707338281,9.810894726011611,-2.955290096334238,13.795551271611203,-12.283148646384006,7.6759267006179925,-11.649003265672565
2.504,4.720493129894294,4.463921642685136,9.671469025202214,-3.5456854485037184,14.386245357579128,-12.509641828637086,9.957493092335199,-8.27757559165548
2.508,4.37305744678747,4.7122479590016155,9.166754278996677,-2.248127361561046,14.723898276872887,-11.615536628597738,12.43649266774139,-4.326863311498698
2.512,4.539160454335615,4.363975708265798,7.5221789040213025,0.5645813056983116,13.70605432465095,-9.527550557967515,13.526635035831191,-1.1413883675176972
2.516,4.711273742372441,2.962834443005022,4.231326982417386,4.084235201239608,10.568322698225302,-6.56835499930412,12.265935908772576,0.3366414727210518
2.52,4.43230695740499,0.530412720882623,-0.5805809710686844,7.4120666057410745,5.347840035606396,-3.4093777973905617,8.832993957728604,0.04033414733065044
2.524,3.482889039113388,-2.4476671262441414,-6.077264832865467,9.923375348342688,-1.022691676198292,-0.8533896527144407,4.475846053417854,-1.2271320769068907
2.528,1.9471693029877315,-5.258928024939678,-10.976204757383357,11.460495889062258,-7.019151456074269,0.4700037718589556,0.9035405723041094,-2.2819518424803107
2.532,0.13402960567646005,-7.294799929125929,-14.059325074148546,12.260242582427963,-11.109914820161066,0.35058024171348734,-0.5499156500375193,-2.253845320097028
2.536,-1.5980342664820455,-8.299190143650776,-14.688118769343191,12.673154131097363,-12.354507543096133,-0.9366303516817425,0.43406072826826403,-1.0832883216141358
2.54,-3.007430093187395,-8.408262532615709,-13.063285746436122,12.857428075818007,-10.738257884894892,-2.7751279189774323,3.0409822387445047,0.4596286314828735
2.544,-4.03705361991797,-8.000149787903865,-10.100501670727226,12.647579293875879,-7.128068344198709,-4.483714906945124,5.772122938770053,1.2442375005044894
2.548,-4.745493458715373,-7.435779050810197,-6.968310365251455,11.696782288192935,-2.852392366981576,-5.581167945474817,7.232106103223828,0.46115384299900697
2.552,-5.167068540112268,-6.859220477063218,-4.532174674098314,9.79979642437047,0.8674491268156999,-5.9209877792256975,6.83874231305299,-1.8774238446004237
2.556,-5.215766912532672,-6.170482920167615,-2.9959290790752675,7.174288017512936,3.365051796928583,-5.647800726771038,5.0780459754739695,-4.909333459048504
2.56,-4.712591550164689,-5.1685555228466455,-1.9161449316698054,4.493856035075623,4.675161358661853,-5.023574714162578,3.1925775302615875,-7.382738651865683
2.564,-3.5290838144383088,-3.7689174654963153,-0.5696101983426161,2.6162470794429282,5.329385310549014,-4.24482888715761,2.4679846132066814,-8.328841370007506
2.568,-1.746205406459012,-2.1321359441092227,1.5504374413180813,2.150743743232397,5.956991455507477,-3.361606322936268,3.5238512380780094,-7.567932019164289
2.572,0.2943179731355485,-0.6186016618564736,4.391904032608181,3.1249898844171184,6.913019606203989,-2.3253141332493215,5.989454836991058,-5.757519006452853
2.576,2.106219955418055,0.41348043417519875,7.348010308909124,4.967952418996447,8.120717537430437,-1.1174017331477444,8.729598992804426,-3.9693138266514065
2.58,3.2984701707332533,0.8518539066117228,9.591201854724204,6.841437769204731,9.190176275478734,0.13739489029285323,10.501795160894176,-3.0639034249291868
2.584,3.791444303391927,0.9324780009160349,10.524743961958848,8.128171143204327,9.703420395722333,1.1672217387458659,10.638411794627359,-3.229537374392251
2.588,3.864698968585344,1.1252860468566723,10.090209625049283,8.781528714563137,9.488779472808574,1.675636853836295,9.379061011572617,-3.9435332669605287
2.592,3.9941511332262962,1.8515386577437312,8.759741591160491,9.322020800037535,8.706951758489822,1.522529727293886,7.675327040062143,-4.3570383463860125
2.596,4.558098006868477,3.1847258797658924,7.237315578389371,10.477039257920751,7.720859065251261,0.8440903539653846,6.579415015927566,-3.851359804028613
2.6,5.587697024843237,4.729886506952425,6.063116631034973,12.677967716604599,6.849121549969823,0.026574275973644035,6.596080310385901,-2.4252295956982497
2.604,6.7138616930428725,5.762704180298442,5.3547150396402685,15.714502278570762,6.1550140766166805,-0.47111025379172133,7.368462363521871,-0.6850886467802138
2.608,7.349347072859473,5.588360851609195,4.8306926714294605,18.763221342109773,5.4266517963772,-0.36002166376147215,7.895063881745841,0.5379009010436349
2.612,7.00706448060464,3.923406819339789,4.071356072013259,20.77504092916024,4.346522777442715,0.3053815949390355,7.145201075278578,0.7003495082074735
2.616,5.572131746030209,1.091556731296805,2.8372519022213964,21.004002354727618,2.7509110201172007,1.1337488189808482,4.701052674943639,-0.12222329081117955
2.62,3.3868006944617264,-2.065366049790782,1.2541622690168879,19.387902106818274,0.8275584722446183,1.598900853182613,1.0688887123707218,-1.2837605857558216
2.624,1.1060617876328251,-4.535318198598816,-0.24047455583331612,16.57841213723941,-0.8895682586539806,1.3414858013909452,-2.5331582920179017,-1.949680521902021
2.628,-0.5816031362755893,-5.556900231702912,-1.141408858077284,13.629799759194157,-1.7267111695914537,0.4021059680271719,-4.772452076509239,-1.5803545097802978
2.632,-1.2103745150311624,-4.9106379615604965,-1.1480088002913362,11.534913072404834,-1.1791036370686925,-0.752298698213508,-4.850525656516993,-0.2266678519750478
2.636,-0.6698650886182804,-2.9604747147450325,-0.309526834830649,10.844373159935003,0.8316752753598848,-1.4455001536543932,-2.8530303507371855,1.5230686674061893
2.64,0.8070935818650469,-0.4547267120469769,1.0154717443801928,11.520490281799994,3.8742916342062017,-1.1557269055601864,0.3579161749578361,2.8759527901656803
2.644,2.7509002439264805,1.78028308111152,2.3347295345261045,13.041287030738204,7.1341372426454654,0.17064796298654983,3.610302014498984,3.2519767451778847
2.648,4.5865907909801535,3.118060531672654,3.2285395812423303,14.650285829040513,9.713105215078485,2.040403259289178,5.97738434580674,2.544389569316964
2.652,5.7633511672402165,3.2869735279532506,3.4888411469723906,15.628257525998833,10.967195227638967,3.633062769370099,7.133077282244585,1.1129252151248554
2.656,5.886847556490011,2.3967642791615162,3.159570168033042,15.499538869592925,10.752061556865556,4.221680247020231,7.375483475792748,-0.43407630244663586
2.66,4.870078800192914,0.8911757195421615,2.511818277627299,14.166301680613742,9.500398564611714,3.584954610715158,7.397190408050392,-1.513369169012865
2.664,3.0514841144504317,-0.5621396055648802,1.9796313019351146,11.971825227873069,8.07761085733955,2.1713254590536053,7.949737265279168,-1.7460820837046782
2.668,1.1861186754717892,-1.2200567257909825,2.0626107660164053,9.662754114352083,7.4624416035999275,0.9041383137937373,9.572840661519308,-1.004940426479731
2.672,0.22038967825619693,-0.48339609168851894,3.159168244850207,8.202241736943051,8.33788812783314,0.7101695014457619,12.431868816214205,0.6063733426348303
2.676,0.8823512992812539,1.8444244737943336,5.360212861341552,8.431778019986268,10.759647218565533,2.0103919880407375,16.250647859632522,2.7653496078831505
2.68,3.245622655058469,5.355261072173562,8.263490145752257,10.658719188538726,14.041690807725445,4.432601707890171,20.304616809378217,4.892008413801005
2.684,6.507065308842357,9.00883397464031,10.925835990953146,14.356467862507088,16.923613438259963,6.913623598882623,23.471627595310792,6.139277406684819
2.688,9.172811544767683,11.391344038223906,12.07407757290639,18.185375961407317,18.0213660728582,8.160176160442916,24.434178799804158,5.52998296021733
2.692,9.651272811730905,11.222901357748924,10.571109490847903,20.426546914123264,16.39622627555991,7.254532520306384,22.082308811774737,2.2979685248244284
2.696,7.004862948530899,7.92456421208999,5.973724977545771,19.69969917067465,12.001000748724891,4.10786579509886,16.031601447607954,-3.6659892414799984
2.7,1.49654903759847,1.9924282345027677,-1.0751531366195195,15.662537996557148,5.806355288159011,-0.4523990415359549,7.053816248427552,-11.490789126951972
2.704,-5.394212249559587,-5.064275681804247,-8.88109945614633,9.312727511404319,-0.4999408446392408,-4.996833473305287,-2.8784461545540125,-19.370865562876745
2.708,-11.543739314849063,-11.225199164632158,-15.214900190913795,2.6811688930865785,-5.118173768642919,-8.054406082618698,-11.064720559777697,-25.074893295099855
2.712,-15.09564969026951,-14.717916706726555,-18.14150612883259,-1.991857488162168,-6.802723451148722,-8.665350015950025,-14.985340646890108,-26.764542445904723
2.716,-15.279514285201458,-14.712116705870358,-16.811102427806418,-3.240121089211243,-5.306286718970114,-6.702767974579274,-13.310105981218385,-23.772696321436793
2.72,-12.721417836401542,-11.609562235335488,-11.83570489648173,-1.0283165571891004,-1.3977107298983356,-2.853277722601433,-6.502771538333036,-16.94645346470007
2.724,-9.100093357178594,-6.819115263925596,-5.06854447232854,3.2457585962893063,3.5193973131026723,1.6902509884093888,3.2877907838189913,-8.34641174098748
2.728,-6.337767966902447,-2.124760039148441,1.1319240637549228,7.407421977595732,7.9985535873183835,5.670608575304868,13.063167601621899,-0.4115561019548757
2.732,-5.741395824242318,1.0376809297877116,4.816877886047223,9.489143288215928,11.060904426114575,8.174489276685108,20.17692543692965,5.029600340870205
2.736,-7.513823331932599,2.0566600750662474,5.1319836069806115,8.557188074085389,12.408237490702959,8.8704968956024,23.329451128665937,7.420422587636727
2.74,-10.81593937011985,1.2176352211154153,2.5150660478884674,5.0135006881159825,12.321719505783221,8.039860116963155,22.921436990454026,7.515859233695437
2.744,-14.283547464934145,-0.6122530985860521,-1.6339962161923722,0.27478565764477025,11.342046813060279,6.418156018217587,20.61009606057837,6.810956910844853
2.748,-16.68930819861862,-2.467352576034955,-5.615665655232078,-3.95741710922357,9.948551787564156,4.905771386444485,18.334511081063965,6.66722572075814
2.7520000000000002,-17.40937972281108,-3.684185021137182,-8.105515753333748,-6.430849284816759,8.398433404313892,4.241253325578555,17.32405287641916,7.612916837412307
2.7560000000000002,-16.52021978228231,-4.061570996865839,-8.569385290938499,-6.741262683900004,6.761913067564819,4.734115628659083,17.575954162172025,9.159703700167828
2.7600000000000002,-14.57336306011075,-3.762825611604967,-7.30814591378703,-5.281842119703924,5.077806526618588,6.146474308375673,18.031500041845334,10.175812261561168
2.7640000000000002,-12.246195305621768,-3.1004134444933698,-5.190352123221146,-2.86270128885144,3.4758893379976143,7.789037823815761,17.27493605984887,9.584775224848926
2.7680000000000002,-10.06213046364337,-2.3275689597558085,-3.2181055809764985,-0.2580903984212455,2.1980413930791656,8.813469436241576,14.375874771252825,6.994726133039274
2.7720000000000002,-8.284141318028105,-1.5466387364808725,-2.122695872017175,2.078601945234823,1.5004521881219262,8.594808581819507,9.422397936785842,2.923851564300124
2.7760000000000002,-6.94656696937227,-0.7305456293786392,-2.114358089813777,4.0510178380441175,1.5195252048097245,7.046974752368442,3.5073400543144544,-1.45401742761962
2.7800000000000002,-5.92638438807171,0.2181103201867245,-2.8408127176044218,5.7848647048895145,2.2134855499530204,4.709989443444556,-1.7636602274739062,-4.865257297594146
2.7840000000000003,-5.004707812581728,1.3981586151801366,-3.5654215989561635,7.441684245246961,3.379571326077439,2.532096376112804,-4.982344019194443,-6.491437340098981
2.7880000000000003,-3.924851062257858,2.866328034991966,-3.493654492002861,9.092879924555291,4.740810838697598,1.4307738229813367,-5.494243262217196,-6.244507384762892
2.7920000000000003,-2.4793634399911753,4.603437007420553,-2.137163560125373,10.684320302118522,6.035753985502652,1.8433940778459146,-3.572302149423649,-4.665341372534062
2.7960000000000003,-0.6505245537900919,6.4612761831695025,0.41351604763758587,12.041423764682804,7.050842277769789,3.486013304024709,-0.21054922561199874,-2.565587804460897
2.8000000000000003,1.25798165664537,8.123860618066828,3.4459397300429373,12.876854538600583,7.61125241009222,5.461602517115807,3.3287266159221645,-0.6422510787372602
2.8040000000000003,2.6110164498695667,9.117119423183567,5.858578764002232,12.80478683272122,7.553015249216514,6.672943176749868,5.96242507220029,0.7385717085864254
2.8080000000000003,2.633458598038942,8.935051884329141,6.609598224892125,11.416936630177133,6.7421810433379505,6.340363191809502,7.078072021494336,1.534973006362156
2.8120000000000003,0.7650237255966204,7.257130596383149,5.191192751292419,8.44750997298388,5.134210060808982,4.359846543014328,6.600837113367675,1.8722695164620866
2.816,-2.9872976056822154,4.1564151527184094,1.8991839962868653,3.9787928146306513,2.824963793681036,1.3218719992614751,4.877767662394717,1.8742534284879895
2.82,-7.899582886412645,0.1918196759352213,-2.2494068314058495,-1.421885366083643,0.056563312425623735,-1.805838831783376,2.498887574944888,1.5925436441951994
2.824,-12.722790658276608,-3.7312069531708403,-5.9524506124503205,-6.760793128436035,-2.8709550148300877,-4.154759518660967,0.09776671981171603,1.0475274785760362
2.828,-16.166114073263543,-6.693750929858652,-8.204828461841771,-10.905751026012695,-5.723903482444484,-5.3409146450048866,-1.8221497353378027,0.3029544929444885
2.832,-17.44426038157826,-8.148603851821463,-8.73373536764666,-13.000480704256915,-8.4160266962906,-5.569782401391649,-3.015533154104446,-0.5102598478136766
2.836,-16.60821014696694,-8.163458363749214,-8.063961481955175,-12.806522343588313,-10.98472703858215,-5.433984119003071,-3.5691722837561883,-1.2545203623794663
2.84,-14.47158351038297,-7.368616429978829,-7.169394508024197,-10.782010148906465,-13.448394284458345,-5.545128613059205,-3.8719792481811055,-1.89150161086088
2.844,-12.166325341540755,-6.62647848105712,-6.908162731777907,-7.838472934150104,-15.651687026351397,-6.20569131235618,-4.480377659928166,-2.538575627843654
2.848,-10.567201471805447,-6.565910334563114,-7.5553934822871724,-4.899796587941864,-17.20495644865855,-7.291155627401508,-5.894569254349108,-3.423130306330144
2.852,-9.891863666176505,-7.229478870791581,-8.690470813794946,-2.501185927289498,-17.597941234468635,-8.377212797070342,-8.321362281826737,-4.750245300305776
2.856,-9.687381709480178,-8.039041939411618,-9.497045304082803,-0.6488903370286607,-16.462565288229598,-9.014094878064498,-11.552285856836079,-6.562261381017517
2.86,-9.189196967100543,-8.09516737303943,-9.288724943666693,0.9987635680577114,-13.838404141260071,-8.982356554637363,-15.008343364214852,-8.682929184377974
2.864,-7.842513458914254,-6.685560333630747,-7.956629326458824,2.7496310956571506,-10.293756434055013,-8.397558062071312,-17.96977288769267,-10.785901548000828
2.868,-5.6734255512001255,-3.7180172537878207,-6.056363848554611,4.559284491242579,-6.775316910014908,-7.624155039748985,-19.880553868136303,-12.538297542426132
2.872,-3.306486908901661,0.14946411718710806,-4.491047276511836,5.979580868907306,-4.2384953400919585,-7.075546270341192,-20.573064371943246,-13.727937279496883
2.876,-1.6386993197734228,3.7477383663449473,-3.9878265713098244,6.39859701261139,-3.2348609292835135,-7.028535528648035,-20.309913318937106,-14.305941103673367
2.88,-1.354699302847166,5.908431748735438,-4.669475639323309,5.430221515079211,-3.6564697728135798,-7.5355580773155,-19.61016136802789,-14.336387276529639
2.884,-2.5703661553243364,5.9699998069309,-5.988840508190606,3.19011515525699,-4.810585555127773,-8.456550787915376,-18.976957406312863,-13.909250364548118
2.888,-4.796077499569719,4.04234814008214,-7.063216555442523,0.273625861570963,-5.786715258503136,-9.56881362503509,-18.670522299661343,-13.101644402741565
2.892,-7.223421411403933,0.9111558535755648,-7.215158148708952,-2.554944337246525,-5.939616035717563,-10.671354292725027,-18.64365460213196,-12.012810231444995
2.896,-9.153603755192535,-2.352709007570411,-6.392368757170971,-4.771562830598441,-5.234152333619477,-11.624841417938342,-18.653654202752136,-10.833523372036238
2.9,-10.321796971664298,-4.861010047249692,-5.217662622800162,-6.34556504855118,-4.255962177323909,-12.33113894602775,-18.450946137426286,-9.873832916897605
2.904,-10.941538620497795,-6.233167906223116,-4.630483904167022,-7.672892367270379,-3.8885435515751396,-12.687471167858575,-17.941406628743664,-9.478013376085121
2.908,-11.469970291335812,-6.636753142339671,-5.320463731359041,-9.233886629626113,-4.817669246452624,-12.573848109352639,-17.210725161210007,-9.851581742000496
2.912,-12.264354294980876,-6.58711187048732,-7.298212121741699,-11.206251216150122,-7.146088383402002,-11.913715293074347,-16.445910402564493,-10.914451727572004
2.916,-13.347031405075313,-6.655941275539021,-9.855054301364817,-13.286837708327766,-10.335800671022753,-10.775106321859312,-15.84252417054023,-12.285990345324784
2.92,-14.395519836249605,-7.224399834936435,-11.923983431697252,-14.834353109468793,-13.487213592470653,-9.427348240312313,-15.534895374682094,-13.443816003934382
2.924,-14.958579041804796,-8.40591353029572,-12.659182452335472,-15.254053489509943,-15.814261151117535,-8.3060697559049,-15.617358975404784,-13.989092122008273
2.928,-14.748841555037643,-10.107094686017604,-11.887311418548506,-14.375779588644491,-17.034273390484486,-7.871566522073408,-16.18954392232945,-13.865540843071583
2.932,-13.812879170483939,-12.124724598837133,-10.164322413169202,-12.572903042619146,-17.450270703838214,-8.40046707417946,-17.33704546843967,-13.388552999502767
2.936,-12.481885712578332,-14.20341220654825,-8.41571111781559,-10.539502878678377,-17.68601382077054,-9.816853336943495,-19.028384412346213,-13.042098860181325
2.94,-11.141698085252301,-16.013322356860726,-7.3676243899112706,-8.866070567627276,-18.222284371381534,-11.667581127745962,-20.965526548752052,-13.161483843576756
2.944,-9.97800123253137,-17.12778043616254,-7.111957679787338,-7.6884427257054995,-19.035172671358964,-13.278144063071409,-22.538049195734175,-13.695242603733323
2.948,-8.870518645278253,-17.078009840473214,-7.057651041028521,-6.641373037894482,-19.550042489605516,-14.039646849010069,-22.967541947247923,-14.205925893093628
2.952,-7.508112152900367,-15.526180730025885,-6.311712678476852,-5.16185886091489,-18.961444516936012,-13.696611845875054,-21.638310231847527,-14.129122576879016
2.956,-5.6591934696905355,-12.499792819125787,-4.275506262379167,-2.9584570427025483,-16.759726648930382,-12.485024831967621,-18.469615105283026,-13.134814828936513
2.96,-3.406472341471499,-8.51563895082154,-1.08711247420365,-0.329825686368622,-13.130894981411984,-11.02555460648773,-14.087137594004616,-11.35932860325848
2.964,-1.179449185948215,-4.492065816899071,2.3547229514965693,1.8976909644679836,-8.992767316997856,-10.01130216646959,-9.658253365402231,-9.343629957853281
2.968,0.4498838542683643,-1.4337871505437079,4.813424601002453,2.7973957172089285,-5.612486705050173,-9.842631095194292,-6.415661781364236,-7.718568650881313
2.972,1.098606118821408,-0.0190629499966235,5.355038480995745,1.8943446234716248,-3.9969752535288308,-10.39462073646871,-5.099818797732212,-6.82725718232825
2.976,0.8375687229320192,-0.2957504207315651,3.857653443547406,-0.48413917070683965,-4.375223694718784,-11.053777035762892,-5.608596726307439,-6.514961013087906
2.98,0.20986656500008394,-1.6484724897851493,1.0995923946472885,-3.288050593988828,-6.061382072135302,-11.025499543967726,-7.04663291617652,-6.22882883919386
2.984,-0.04308652866916418,-3.0998650272390478,-1.632581231138829,-5.2457667097867215,-7.807335237002576,-9.770523119843801,-8.190562141606563,-5.374684073097326
2.988,0.5873431714173876,-3.7933968463470364,-3.208594518686141,-5.5254364121469735,-8.458127199344062,-7.339766396755408,-8.107962315464363,-3.7109105538548715
2.992,2.043080468843982,-3.4054132728438162,-3.228887193573655,-4.180783246265378,-7.563179212107343,-4.414624924687928,-6.59897661043027,-1.5258557829271808
2.996,3.6701751816378874,-2.271150099265924,-2.1927654256113556,-2.127636236837361,-5.618606874010311,-2.017811566098544,-4.241212942453956,0.5188513809056774
3.0,4.534813791062902,-1.1425279477393815,-1.1835244067243593,-0.6612008908919051,-3.797055832134447,-1.0331982897420176,-2.0144046568768204,1.7757569170633998
