Timestamp,O1,Oz,O2,PO3,PO4,TP7,TP8,Fz
0.0,1.1368683772161603e-13,4.149569576838985e-12,-6.252776074688882e-12,-1.1368683772161603e-13,8.86757334228605e-12,4.206412995699793e-12,-2.8421709430404007e-13,2.913225216616411e-13
0.004,-8.705473436761736,4.731896802714516,-1.4823791344886104,-7.12001418126215,8.74096900599693,-7.093433530614448,3.1131593826966366,-1.4839737175185803
0.008,-15.164586466425021,8.172056412400082,-2.4658102935292163,-12.07064747053846,15.13102703317088,-13.161918174571099,5.271745274522345,-2.6708146397055117
0.012,-18.0875295177068,9.591152085767021,-2.6209664039383824,-13.651839011035236,17.84293453782766,-17.45832310496678,5.92747154260374,-3.2799605913289156
0.016,-17.63558960694627,9.09068864958067,-1.9056508893354476,-12.12708850115041,17.062861129575822,-19.69723148347572,5.129295915962814,-3.1045281659134503
0.02,-15.227906662152577,7.460827490787551,-0.5787626868785765,-9.0048619954689,14.233270824542274,-20.082184293739658,3.4268513384378707,-2.0890542658149513
0.024,-12.768060312150737,5.723191095697871,0.8954981736427499,-6.231383160611699,11.212096298543884,-19.16794128089259,1.5499607364650672,-0.38864285108730456
0.028,-11.701872355828186,4.632104611797843,2.0262214905914107,-5.225926362152677,9.34105073372848,-17.628185026030508,0.059982415412434875,1.6364585209538305
0.032,-12.390983673526307,4.397353879188188,2.4807061714283236,-6.265808360718665,8.921564182332531,-16.03819554794228,-0.8345234798860872,3.5174254772071123
0.036000000000000004,-14.089278396537111,4.7478233342400245,2.1974767176558316,-8.505925173519472,9.327187048869405,-14.759835903308272,-1.2243917530693977,4.843821474660778
0.04,-15.499636405597698,5.229110797988085,1.3698729074930043,-10.579829332328131,9.58312018701713,-13.946954655344882,-1.2968374927197317,5.415011928403871
0.044,-15.584299511871109,5.487856476459854,0.288659097628738,-11.432115965836715,8.979957714796797,-13.62761958976563,-1.1602598639422013,5.295170826610949
0.048,-14.185434662777539,5.3780188497342465,-0.8670921592638479,-10.922153919283573,7.382207258620326,-13.801880404470126,-0.8212588931665437,4.732410958723634
0.052000000000000005,-12.134249692985577,4.878087114516802,-2.157715092372655,-9.884071323822127,5.133165617413852,-14.492020415226705,-0.29965603709220545,3.993580968010633
0.056,-10.814467652171516,3.9447207105584425,-3.846110604264595,-9.643042643255171,2.7212668994738465,-15.725627599422523,0.23788504253781184,3.208602127016974
0.06,-11.41968129013651,2.467933675262202,-6.189844295624653,-11.256931712382766,0.505027342298149,-17.464341131080687,0.46893733124520054,2.32440040698976
0.064,-14.273398878608646,0.392226954589205,-9.157890461552142,-14.872112774825496,-1.3340172272531845,-19.51585598611109,0.08132697353229901,1.2044089224070262
0.068,-18.56698866635611,-2.0749531776792196,-12.251725973468183,-19.53618450486465,-2.640653275132536,-21.500953584718047,-0.9774116847376604,-0.18880730503651222
0.07200000000000001,-22.655747379642207,-4.342127577073086,-14.5750199706373,-23.563289784351696,-3.124634305196196,-22.931808897455596,-2.3452246777648895,-1.6531299865549016
0.076,-24.766877689346984,-5.540418130236844,-15.157353362256913,-25.263877195850682,-2.3642551811855697,-23.396866024074257,-3.322984343056362,-2.7597317717783483
0.08,-23.779982753045033,-4.860814126011576,-13.403397053451386,-23.682626340919455,-0.020764576151236724,-22.779936856715267,-3.2053207510312234,-3.0382216795341392
0.084,-19.706597774891293,-1.9700604649763136,-9.440530891172045,-18.987302930986857,3.8590932486184784,-21.38186287794707,-1.7072244464628454,-2.233462274039411
0.088,-13.664016745724325,2.729007107962218,-4.157003670932909,-12.349069705616444,8.698318952068007,-19.863851617928105,0.7831799230160641,-0.48402559700633674
0.092,-7.369599121268607,8.182916899458405,1.1335132608476215,-5.3935611159456585,13.570722893527432,-18.99349092825429,3.324348117441474,1.7153214139746922
0.096,-2.3987491838053643,13.112580568121075,5.256030634039689,0.49485688216651624,17.64040457509435,-19.28995360858886,4.893899791634013,3.7674039316724475
0.1,0.438766520854756,16.56140407964878,7.676007813842716,4.672930102071177,20.589011608543785,-20.74091348159658,4.962814872248117,5.288674986408864
0.10400000000000001,1.3274899332918153,18.258181823159077,8.66024589944061,7.326858027313563,22.713774688110846,-22.737696941603872,3.8147889694607073,6.301982553574291
0.108,1.1926433311662095,18.607795046113722,9.004946592585725,9.136892037654832,24.60468874290359,-24.305423945617918,2.385394168940593,7.164037990502678
0.112,1.1133799391091088,18.346406980310064,9.485631274549917,10.724434884341576,26.605249983808278,-24.543602655581253,1.7033500650487667,8.266361672670886
0.116,1.7074532380359528,18.07414213672928,10.347097975057352,12.192138907303331,28.414666936374886,-23.073328773862954,2.2468763542686503,9.695998700068479
0.12,2.7974419354869156,17.932969834521828,11.133803072432897,13.006928942289107,29.12282988038254,-20.250717126264362,3.608510156068533,11.082085425184378
0.124,3.5516911121242174,17.61523173978742,10.996294984377585,12.324068198546684,27.71572809631681,-16.993037375904862,4.7120067985879075,11.78112911173643
0.128,3.0100357364338493,16.666490570814034,9.2994274040297,9.56226368305829,23.77698977733121,-14.304137448423603,4.475930001498753,11.298467589124336
0.132,0.6952170708768222,14.867562213219685,6.1528070914131945,4.884602408182616,17.94801708842931,-12.757678544468547,2.5361222645929615,9.675693995938666
0.136,-3.0483052630839893,12.432580587706923,2.509817870379777,-0.7211673917406074,11.813080844871592,-12.245235344969785,-0.4309387456606686,7.561990188070524
0.14,-7.194496695795408,9.88141870692499,-0.2829826320372604,-5.860101320154968,7.194087766601115,-12.151941290896332,-3.0357762309788825,5.853099890644927
0.14400000000000002,-10.57938439781401,7.653530239377517,-1.2760235020860478,-9.439780085704797,5.18962891851362,-11.850602804224877,-4.010159195937405,5.065562960709428
0.148,-12.544877968811988,5.73777382698529,-0.5714560434641953,-11.27362455485786,5.522564127375404,-11.21369482701732,-3.05391462574255,4.8322943765818565
0.152,-13.305703009217382,3.601795342762955,0.5909545951601558,-12.214311310245876,6.617084942481256,-10.815527741335814,-1.1473340552336424,3.884722290168831
0.156,-13.801012115040862,0.5259080734288091,0.4465306329653913,-13.682267337681196,6.436247095446561,-11.660672456598377,-0.07967798571681328,0.632795449388432
0.16,-15.083984108008167,-3.814484573975392,-2.264200064215288,-16.79537383463787,3.6637621604899664,-14.544906573795402,-1.4144054239503419,-5.902928556476951
0.164,-17.569025816426006,-8.873354038812465,-7.407864977305167,-21.554228464159678,-1.4329629126706322,-19.39372149527094,-5.464997431077478,-15.288973079858792
0.168,-20.588650669497156,-13.19651166166284,-13.250146572860103,-26.568125190181945,-6.955554864727048,-25.00228058834915,-10.904278482545607,-25.503932027308842
0.17200000000000001,-22.57961087700653,-14.939445320133814,-17.140157839164203,-29.557747348031512,-10.217012862397723,-29.395620647263115,-15.298260152117024,-33.58222260577949
0.176,-21.853717674533755,-12.732764087801343,-16.78905790716601,-28.439616095061865,-9.057050394830185,-30.68530679464169,-16.319288408587454,-36.81950433491374
0.18,-17.549449396468958,-6.4453428579045635,-11.47802280380347,-22.43384283128421,-2.944039340882455,-27.989729908446407,-12.970423114639203,-33.95427183365274
0.184,-10.240813674909418,2.558394970108793,-2.5488807189664158,-12.600179282918361,6.6844294586630895,-21.912943174689644,-6.1561718723602326,-25.730423512763252
0.188,-1.8388697728182706,11.861319341866135,7.121739485622129,-1.4891384340023706,17.02811006327704,-14.308715575233578,1.731923406581501,-14.547792239165922
0.192,5.191076284554356,18.958799857191423,14.407001162425104,7.928694567794878,25.1559701738679,-7.447157107563953,8.002544595296655,-3.3918104214185263
0.196,8.910195637224888,22.27901685592667,17.307629143023064,13.508976379760725,29.22197511399679,-3.02391909353355,10.96930353845687,5.39928694550899
0.2,8.727374611957657,21.747904563125644,15.726689234622427,14.728203389494638,29.076361690554336,-1.5147571680000738,10.66856703558949,10.924932147783835
0.20400000000000001,5.545418404901852,18.61778530052368,11.264119273274105,12.650253697925791,25.9944407535545,-2.1686386922756355,8.621637978398041,13.73399736451865
0.20800000000000002,1.1883774029115557,14.692493747734602,6.204559702460756,9.144199999624561,21.765476296599672,-3.582976232626038,6.825685499932433,15.150904331366036
0.212,-2.569178065866936,11.38373025041551,2.292903485711122,5.812605997071159,17.702533742851983,-4.513472868406211,6.587040070253181,16.349965917361402
0.216,-4.84081463093753,9.103085751167555,-0.02709885083345398,3.2321035897189176,14.11408941349589,-4.462742671575256,7.863808911220701,17.712765710217397
0.22,-5.911498369698393,7.278331291684708,-1.5480379624684701,0.88802838534275,10.459132821524236,-3.7604888824605496,9.443037138255193,18.77193428431677
0.224,-6.854444651116864,4.908946401759863,-3.5378997924674422,-2.2290335792765745,5.98445642192155,-3.1523590080259964,9.776961200513426,18.68770825162646
0.228,-8.759825528714373,1.3081191701343187,-6.788641012892867,-6.779868094565018,0.42004540985476524,-3.2120763766547498,7.959725371373679,16.906703920060593
0.232,-12.037407316936651,-3.397034382283664,-11.052116343565103,-12.517773443958276,-5.682990398387346,-3.960141837091669,4.280281872398689,13.57784657473833
0.23600000000000002,-16.1611013342565,-8.2848379285075,-15.166549377235242,-18.324264028557536,-11.157155565327571,-4.888124900851608,0.05989414357571832,9.507709394209627
0.24,-19.958458880170383,-12.115206742008695,-17.740526952543405,-22.785333219264658,-14.789692754517091,-5.339699661604868,-3.07562041760184,5.727733900320359
0.244,-22.239714825484498,-13.95049843074014,-17.94975162889864,-24.938918263362893,-15.898658846840476,-4.979023243848701,-4.030653129486268,2.962356323378984
0.248,-22.38391766254017,-13.57856150247676,-15.970888634462653,-24.736523989942498,-14.595116934813973,-4.030815509299487,-2.7190230621509954,1.3251383893008466
0.252,-20.576342670784243,-11.53718442943557,-12.82926168919198,-22.965415934346538,-11.632632525124336,-3.1445788185086485,0.02035729178459178,0.3920377987018355
0.256,-17.617466953614212,-8.777867023958379,-9.803754461897142,-20.714566823160794,-7.986888456577844,-2.9789254716725964,2.9497134796623072,-0.4340036193617891
0.26,-14.477051477117811,-6.197960543559361,-7.769960885430692,-18.743814999991855,-4.422248158306729,-3.792886806177762,5.063169103282178,-1.5141726434053169
0.264,-11.864671870877828,-4.291851911289882,-6.854666501383008,-17.134357096969325,-1.2618962500100679,-5.293851187212454,5.980103116176906,-2.762269983153544
0.268,-10.018828026767096,-3.067700423155202,-6.542324132085241,-15.386580624868657,1.561714699013237,-6.807663461677521,5.944735913385671,-3.7132038562483416
0.272,-8.77134664580717,-2.215403260939638,-6.103066552329892,-12.863173808166948,4.267659067721752,-7.651528888718076,5.516033605256837,-3.7860044588607735
0.276,-7.783314301666678,-1.3729806569002676,-5.046679280188073,-9.27964133425803,6.983940046120324,-7.4863552405033715,5.186513342727778,-2.562173635776034
0.28,-6.801000623183427,-0.3389716911437972,-3.356291889090926,-4.961680364790482,9.629615589610694,-6.4582411822193535,5.145818799396636,0.06878012635513642
0.28400000000000003,-5.808258847777324,0.8436996411195423,-1.4362379784395216,-0.7492255224017299,11.926796419093762,-5.075158958552265,5.275589160989625,3.934863453621574
0.28800000000000003,-5.044627213721014,1.893550595811007,0.10321233607010072,2.353384203096084,13.460991531361742,-3.917608632285692,5.288834685451548,8.69640608292029
0.292,-4.916124784643216,2.336901861779552,0.6551747105875165,3.5643569844783087,13.729198107012053,-3.35932379060705,4.886204150694539,13.94379514136719
0.296,-5.84718128125246,1.6039228646169477,-0.2573431199002698,2.5571982096009833,12.203699570731715,-3.4559702591179757,3.8704526447988883,19.219731093597048
0.3,-8.13162512520421,-0.8067573506223198,-2.9200079203665155,-0.5376019246391479,8.475906978065723,-4.036576860763262,2.1997391688302628,23.985797112656044
0.304,-11.78938642625235,-5.087626339527333,-7.342566483698192,-5.2631934210537565,2.493418945833355,-4.895378504415703,0.020411105199173107,27.615433699595968
0.308,-16.450999792390576,-10.886924540795007,-13.114815456971655,-10.962846514607463,-5.205402759095705,-5.9367513246327235,-2.3156616134237424,29.479874076478183
0.312,-21.323243254193358,-17.217330418876827,-19.286304561253246,-16.822508003512667,-13.421223247812804,-7.170329360325013,-4.2783798016704395,29.12757170881369
0.316,-25.31062401923009,-22.632747258223503,-24.44129478023069,-21.881079652552444,-20.510464491587072,-8.592225848730095,-5.2785793703278046,26.46581218678996
0.32,-27.324226011935025,-25.676551438019487,-27.066550101503708,-25.13190899993924,-24.871292362654685,-10.080542756550813,-4.8852293732476255,21.833697213258915
0.324,-26.687255002407028,-25.42962256930923,-26.11738352359521,-25.766482019689647,-25.504326331936,-11.399216014423928,-3.0383594681745763,15.924260144603721
0.328,-23.454261373272857,-21.90697106508128,-21.528216753185006,-23.492925127743547,-22.39641570684512,-12.321606312746553,-0.1455447721573364,9.588162241794151
0.332,-18.458184636714577,-16.090429342488733,-14.375774900390297,-18.758684552478826,-16.54124021890061,-12.798641049964317,3.0138984662675057,3.6071206933635978
0.336,-13.015663060682982,-9.54480162605887,-6.5353896820154205,-12.697709267849177,-9.573325509216147,-13.043962281438326,5.579141494163764,-1.4572053675291272
0.34,-8.41757627803986,-3.7931707279497004,0.044649751993119935,-6.775994764366715,-3.185182827318613,-13.463375468520326,6.9520271234868005,-5.30581373610741
0.34400000000000003,-5.449002162682973,0.23853212011658798,4.098581651314589,-2.270919206527651,1.4037431285739785,-14.448859584325646,7.021743593976794,-7.876027816129351
0.34800000000000003,-4.171125003371799,2.4312911693752994,5.445769183273569,0.17707186199231728,3.703138191709513,-16.139436948122807,6.1399668503576095,-9.288147349871565
0.352,-4.063186935374688,3.269118940516364,4.84757044834987,0.7240248661623809,3.872449277898795,-18.28253070936921,4.861774557142553,-9.79943446353019
0.356,-4.426483337496393,3.389236983364981,3.432023352086617,0.118078992082701,2.4406568894944485,-20.29266440262677,3.613916283858316,-9.769869897650523
0.36,-4.815710228964235,3.180294523188195,2.0415005475081216,-0.7513411033778539,0.04516249948574114,-21.504936830825272,2.5002541908351077,-9.592319674957537
0.364,-5.2532061704955595,2.6615701905197966,0.8725494019572579,-1.312983007594994,-2.6934810646173446,-21.49418419352196,1.3590317440181252,-9.573346915141087
0.368,-6.126335315514552,1.6527089739347502,-0.42674004088621587,-1.5534553004890768,-5.19859649044588,-20.285220900801278,7.18511141712952e-05,-9.80293165333768
0.372,-7.855671108783099,0.06266706360815988,-2.320862322278117,-1.9362841529796242,-6.977923077472951,-18.33242225266713,-1.5392117947534416,-10.084336459054498
0.376,-10.573911137717914,-1.93961148125004,-4.9370632206250775,-3.094450803622749,-7.759502800581458,-16.295486636833175,-2.896205139462154,-10.00075665056275
0.38,-14.012902050873436,-3.991288123752838,-7.891899370380543,-5.487905003830747,-7.651466076962606,-14.73911790660145,-3.510851533021423,-9.117209858409979
0.384,-17.646164895561924,-5.772216635519953,-10.484361630169133,-9.195007724716561,-7.18008386156248,-13.92240712133821,-2.906130891405951,-7.240243610045695
0.388,-20.981086770575075,-7.234864957594937,-12.108262839933104,-13.90781134353847,-7.110489104460839,-13.784327825653463,-0.9666024372480706,-4.602057670121383
0.392,-23.78208735715498,-8.640683813840724,-12.592687032984486,-19.069590949164194,-8.069123065005215,-14.092270263260843,1.935964428726379,-1.8515969312604454
0.396,-26.06926067819313,-10.339648610645327,-12.236094003701965,-24.030555760122297,-10.13469526299923,-14.64229475834054,5.047096661460273,0.17673279085508398
0.4,-27.91540334673573,-12.421605799375584,-11.525081543357828,-28.145664326873884,-12.641429359063068,-15.378879987434857,7.513134589152855,0.8202089359001263
0.404,-29.19916196351369,-14.475815959264537,-10.740129911906479,-30.81317104013533,-14.361811635089452,-16.35876881749232,8.708150648841297,-0.10664963044868614
0.40800000000000003,-29.50371093280637,-15.651682614543006,-9.722437401761908,-31.50225716875684,-14.031203241621824,-17.58844900852114,8.453932092633067,-2.206579052865237
0.41200000000000003,-28.25592454467187,-15.025724363129711,-7.968395806855369,-29.8302330783481,-10.968532943733635,-18.857858843453187,7.048110057058125,-4.6522519363675485
0.41600000000000004,-25.05086673369351,-12.083286204715932,-5.002072233999115,-25.702922634714014,-5.457915889155629,-19.71458831471091,5.123458215032429,-6.527719071633527
0.42,-19.986312710658694,-7.058645344561228,-0.7917533714603451,-19.467762430931543,1.3176541365110097,-19.650896663976937,3.402913966934989,-7.205655313062323
0.424,-13.789013005552533,-0.9260869051165628,4.069259447848708,-11.960454458385357,7.769876965902313,-18.406056118196602,2.45837251890498,-6.579729793642542
0.428,-7.643897120254223,4.945014835749362,8.531776419903508,-4.374614652337186,12.542505937481565,-16.19390353058907,2.5382232304754098,-5.058719302641066
0.432,-2.794271906137965,9.28427497317307,11.5244884198205,2.036466248326633,14.95187943256633,-13.682098860126871,3.5034851993082157,-3.3419427786475353
0.436,-0.0888950163721347,11.343047567955182,12.42301075185651,6.328573813157163,15.052967936780078,-11.683859664953161,4.896565053606196,-2.095280611589942
0.44,0.29512495655853854,11.068600359910988,11.295294003301024,8.138626660763748,13.38591275679778,-10.723304095512958,6.1256645696706755,-1.6701565910041154
0.444,-1.1677446403300564,9.000645854452614,8.808079463980448,7.732823932363317,10.617217068705486,-10.72242589134089,6.716527501831251,-1.9741278553947268
0.448,-3.624466738781848,5.984247023428907,5.876416862322003,5.823421209500339,7.297040291850408,-11.005138822593153,6.523832793189058,-2.529098345170297
0.452,-6.222973035738505,2.8481878282852904,3.2552826530782113,3.2436658523974984,3.827056284140781,-10.649757944230487,5.801121288158356,-2.674089946177986
0.456,-8.422777846449208,0.17289384697369314,1.282769654531421,0.6231863339398842,0.5574639762132847,-9.015578271293634,5.082546390575658,-1.8277352962743407
0.46,-10.125325812232859,-1.8010589944719868,-0.1297379783100041,-1.8051180552511141,-2.1474638618808513,-6.157417094105085,4.914832807533799,0.2823646382715026
0.464,-11.584574093295487,-3.123646026992219,-1.2916535749682225,-4.180705261868752,-3.9692052301534204,-2.8666305274114166,5.589174024739577,3.5146977315797017
0.468,-13.16097983432337,-4.009044225433627,-2.45779369742786,-6.801467424313614,-4.800151500302491,-0.28224913866824863,7.011082398603662,7.3612151525576905
0.47200000000000003,-15.037315741654766,-4.683342504580878,-3.638740502501605,-9.827864058960131,-4.870657175082215,0.7339700297711715,8.77965223254364,11.121963756758618
0.47600000000000003,-17.014447468464823,-5.23597340362312,-4.57191081169276,-13.04756457203439,-4.67765681493438,0.11456484016139257,10.45029399107807,14.144287501961173
0.48,-18.48508810278372,-5.52739724422031,-4.842825389798236,-15.83013731974961,-4.690016390291021,-1.3206268100236684,11.81736015072363,16.032107805966803
0.484,-18.62187291011378,-5.20220882149556,-4.091864164752224,-17.310459538888608,-4.996447252148755,-2.272573113339604,13.033940954681725,16.735524019809816
0.488,-16.733254612688143,-3.8510334818306546,-2.21641890006822,-16.736886113659693,-5.158727372667045,-1.6639515873318942,14.465132056478865,16.48792639476838
0.492,-12.63674051123644,-1.2722631756323608,0.5210591865770766,-13.822614088971022,-4.416820422835599,0.7573566734636188,16.355221316388906,15.638462051432413
0.496,-6.866986200199335,2.310870020576658,3.532822745719386,-8.923332156884953,-2.157633771401379,4.26297585832549,18.532470701896045,14.480863601643449
0.5,-0.5915747111985183,6.22819709499413,6.089321478675174,-2.9519901688263417,1.630761502946143,7.523132841680535,20.363748704179216,13.178785924736161
0.504,4.772555451183962,9.598827496644617,7.586546648627973,2.941477306748766,6.224283365810379,9.308585844345998,21.03572339066102,11.81092083761871
0.508,8.111064868997346,11.74160531501343,7.800429547128715,7.7909995039699425,10.463636584633377,9.120566491304999,20.028047583026364,10.48583499097694
0.512,9.085736850719513,12.54247975520343,7.006328786445465,11.142569433736298,13.330800733071328,7.403460682252671,17.492889379924577,9.422540166691363
0.516,8.280999580477328,12.55199437453416,5.885123648422905,13.134794779647564,14.468594977973453,5.232316952613473,14.286804552868489,8.90535005072195
0.52,6.913789231944065,12.713444583674573,5.228918059041462,14.301127643875589,14.335397084340684,3.6700456366763774,11.59111899968866,9.109355470788273
0.524,6.233590561535948,13.842000918576787,5.566050868493676,15.212932878829179,13.894175459515282,3.175293035257937,10.309830386426029,9.902559954650911
0.528,6.906829582757837,16.121593426951677,6.87360789680497,16.162242700886964,14.01131088430543,3.4115676294945843,10.57545184251535,10.782547016327271
0.532,8.713376125569539,18.92151475942228,8.544933913642126,17.059594085911158,14.93330199685829,3.5675256969536804,11.668683798911161,11.051501680485245
0.536,10.718913098875419,21.0700982098665,9.657793988473713,17.57876553048709,16.1499112844549,2.968259257810587,12.426703129027715,10.19172118206913
0.54,11.807332538023275,21.44886032006707,9.407895126965741,17.418545962055305,16.712303738000628,1.5792305081515678,11.912752650087896,8.239914386675679
0.544,11.266815243429392,19.576882631692342,7.477735508513888,16.489402617491123,15.790313221600172,0.07712134744929244,9.959129510127696,5.907142035943849
0.548,9.090049760118745,15.837784077932838,4.136983049134415,14.89413365573455,13.106441250940179,-0.5640666047158902,7.255569529226477,4.322059448671325
0.552,5.847195071864917,11.214711667061238,0.028995621876902078,12.735662396884436,8.994203803448045,0.2852071923432504,4.922036054381465,4.479644025036293
0.556,2.2499745923428236,6.70328546269252,-4.217517005048194,9.916062139526275,4.092017082413349,2.4491442321921113,3.818844138799591,6.668372244261775
0.56,-1.2953910705541603,2.7748316121210337,-8.29748785453171,6.113941979188894,-1.0695432933912343,4.964433107051036,4.016247350050776,10.20723937430688
0.5640000000000001,-4.829802280424246,-0.760696816417294,-12.250184065421536,1.0296781345787167,-6.263261259867704,6.593457410031078,4.760711978933159,13.679179513386174
0.5680000000000001,-8.583783966035298,-4.407885803354702,-16.173156979507667,-5.206522685177788,-11.402831058735956,6.545539002070882,4.975545495546612,15.580663138385177
0.5720000000000001,-12.519468179167461,-8.391841925704739,-19.82421261318609,-11.738069605346027,-16.169863820636465,4.964964755433584,3.9849811108948643,15.041939107597045
0.5760000000000001,-16.014919816370593,-12.222551229193414,-22.414028765163266,-17.054480345680304,-19.746703645030493,2.8805237398535155,2.0201097263193333,12.224935820137148
0.58,-17.96615764334524,-14.741523543036692,-22.78651175263508,-19.497702678472024,-20.917170398970256,1.6187451119676552,0.18286032552077813,8.189156561769067
0.584,-17.32126712198965,-14.678402706849738,-19.963176030540353,-18.018610102682032,-18.57742712143272,1.9987805097232467,-0.15752023677350735,4.295232012775983
0.588,-13.74779324187034,-11.413298148433569,-13.772978761186778,-12.784838130534126,-12.4017013721882,3.790352229652626,1.808589185218466,1.5003425917639959
0.592,-7.993424475587517,-5.47037515818306,-5.177289519429678,-5.256364302265183,-3.248482413370766,5.786242232930817,5.774932855785551,-0.03680458949457943
0.596,-1.6761004832385424,1.5829036732026225,3.9440994820472497,2.3617906272324944,6.979139108641903,6.459345961905456,10.376956626479,-0.8366221882720879
0.6,3.429048424720804,7.813664199488585,11.492532128372886,8.053484992441554,16.026822345774235,4.839967179386804,13.857637900755378,-1.5695471268515462
0.604,6.225601703552002,11.817449548615514,16.000192063607756,10.847381694420392,22.19776942907174,1.12495654849954,14.974268912954301,-2.4791421068906487
0.608,6.779834582276408,13.320366006786344,17.18545500779487,11.150178862567145,24.982874899148328,-3.33692857410324,13.633013819754183,-3.1359273500290925
0.612,6.172026842168407,13.149235928134544,15.926155608955241,10.388695594758701,25.07882649842304,-6.683841174583904,10.888562329750357,-2.6844572797269564
0.616,5.808488529190527,12.61084698531954,13.679909202632643,10.16173135780764,23.806978813931437,-7.452008892803406,8.313786894296982,-0.43280107923577305
0.62,6.590324136801428,12.661121445824278,11.673969355487088,11.358062031277768,22.289648428708915,-5.274395053441822,7.095616086720327,3.594932162783138
0.624,8.418734818185612,13.364501439865307,10.314597646147377,13.708144838148883,20.870461957342286,-1.0122713566618131,7.398647320335783,8.511535331449537
0.628,10.305356661036967,13.947134035315457,9.129020521949087,15.984459174905169,19.08943149762308,3.721553541974572,8.358601022170433,12.946150092033946
0.632,10.97891949413156,13.36599628820693,7.2184204253753705,16.690772525269722,16.173650777958073,7.360254918356304,8.682749857448243,15.740716232582585
0.636,9.591363345852642,11.010236154334393,3.9125941525021517,14.82818975102532,11.69564189709422,9.059513112207469,7.495545893003623,16.553287941280672
0.64,6.106529032418621,7.089617458367343,-0.7657134962641976,10.32255238981088,5.978741297157512,8.919256658082531,4.925472471262424,16.010061243348332
0.644,1.1944716743453228,2.5006984374205103,-6.068216973569406,3.9430371232574544,0.01743592810453265,7.702323099570094,2.108307990763933,15.329041718935187
0.648,-4.241513932069665,-1.7239963213380634,-10.905099417943347,-3.1706827660009367,-5.0372184630778065,6.269410921663621,0.6068560906184075,15.631716213827389
0.652,-9.542875492651774,-5.005735419179814,-14.390225224601636,-10.034719226463721,-8.50251277255029,5.090905171294253,1.562011904624967,17.322901427559316
0.656,-14.455532658257198,-7.46329664461814,-16.214844966254077,-16.085950381444263,-10.506764366438233,4.105063268591039,5.056689230063171,19.86282970214026
0.66,-18.91297068514382,-9.666834714814513,-16.65007249595851,-21.088827238927934,-11.83316764751703,2.9435261685721343,10.033624228495626,22.025347034483985
0.664,-22.651458072416062,-12.075915231537465,-16.22297005108021,-24.832448395648726,-13.363974051018545,1.3267758809734005,14.789770649433251,22.465400815555626
0.668,-24.989981149043388,-14.559004430943105,-15.315539404039555,-26.89577342812686,-15.47531343067908,-0.6424280180867754,17.74950074909168,20.28828274406129
0.672,-24.978690569349965,-16.315654698272283,-13.932484593012077,-26.67229188803185,-17.737628939365777,-2.453780439701177,18.117428390127827,15.381311314630992
0.676,-21.870082863684047,-16.269222370400712,-11.768376995661129,-23.670517733419956,-19.108429255437272,-3.4364472696257735,16.109506771038014,8.413048540168603
0.68,-15.630823903556347,-13.69637526907502,-8.503799164549264,-17.905865710358285,-18.499305876600943,-3.1252687978164886,12.705600987349442,0.585060926543008
0.684,-7.161733386171591,-8.703090179526612,-4.1234493075919545,-10.11887525790462,-15.395407545609487,-1.5282239500091919,9.117398777585095,-6.70713476577167
0.6880000000000001,1.9289611593428617,-2.274713604653698,0.935195458701628,-1.6666143676218326,-10.203048062382436,0.8417022857191796,6.262827803659036,-12.198155933325339
0.6920000000000001,9.91024718448466,4.13399737284476,5.894406625026477,5.901331385181038,-4.131557299920473,3.1771801118384246,4.490731308242744,-15.012869020824652
0.6960000000000001,15.550006645861231,9.219265134127227,9.923159397779273,11.365707496150435,1.3087762699025234,4.707345703761803,3.6138329246999206,-14.866199956173915
0.7000000000000001,18.444276498326644,12.29922102723333,12.421922329776407,14.191921594242558,4.919314098163454,4.98336429152846,3.141306436935565,-12.1783362641808
0.704,18.934714311936887,13.416446722165347,13.169937625312514,14.57807825964096,6.247445894648422,4.014235110700383,2.5681003142047985,-8.019993457202176
0.708,17.723922804814947,13.068513306727255,12.292377242498105,13.217979962842719,5.64396970094981,2.2313834999723667,1.583299869790892,-3.8207209075389414
0.712,15.475456006816785,11.803035188745753,10.133000845767356,10.953490355785107,3.966905541540882,0.3351825117114231,0.15913778089128527,-0.8664755464147618
0.716,12.6152956607541,9.942545591332532,7.126731664964609,8.482524613516034,2.1074785556311326,-0.9274129691877988,-1.4615615202565948,0.22013488807945691
0.72,9.371687877280692,7.568270577062549,3.7274322455939455,6.211560668145239,0.5854794838210182,-1.0160239617093794,-2.85182709047254,-0.25215536676257955
0.724,5.951599951816888,4.724731726095001,0.39615609708107513,4.2628353879224505,-0.5916525093142582,0.19435015215879048,-3.5216565152011583,-1.2091506054677268
0.728,2.66184138327003,1.6365622429708537,-2.4161929774902546,2.557774732733378,-1.7883392952261374,2.3166033087810547,-3.075864127742932,-1.3862597655742661
0.732,-0.14025593561018468,-1.255721405129293,-4.3481841228469875,0.9022288513947387,-3.437308173220572,4.529914634621946,-1.3896581603312654,-0.04804991769388778
0.736,-2.2169700416479827,-3.487102339187686,-5.250731082290372,-0.9421658440637657,-5.7477678246214055,5.8561302569991085,1.2654032894002398,2.5442668502235932
0.74,-3.612516724749298,-4.863422666047427,-5.290270928064956,-3.1910019198983264,-8.587221524789129,5.549506258772794,4.219863769846029,5.185750750630959
0.744,-4.653320668142328,-5.6298285974731925,-4.944217718914842,-5.947048959671065,-11.566791451043969,3.446571545175175,6.5798237958584025,6.293245342479793
0.748,-5.758420532197647,-6.3804288702314125,-4.85368525417141,-9.10277125601408,-14.26421890391498,0.10685293988467492,7.530542476795517,4.698550078040483
0.752,-7.1662515395892115,-7.7248024043533405,-5.568627221799602,-12.2876007708536,-16.441700247350354,-3.362485367929253,6.653476375205457,0.23517080420205616
0.756,-8.731862099191517,-9.876618937609635,-7.274662505400784,-14.901606209583406,-18.112514628349118,-5.7433184892511235,4.113941017089587,-6.183607589665954
0.76,-9.933948823931587,-12.418652480123285,-9.64362501252458,-16.2648441109161,-19.426725406308492,-6.219798432237894,0.6190932991482896,-13.017783180426903
0.764,-10.084066907729493,-14.38602207633744,-11.88558620460583,-15.829028512885884,-20.439951815102972,-4.718645198447803,-2.836336637070758,-18.807100235108038
0.768,-8.627782510096608,-14.659745521920968,-13.001856065497805,-13.366350941155702,-20.930734901085884,-1.9083978245018898,-5.337079820534655,-22.73911440036997
0.772,-5.4087879511752135,-12.50087402098626,-12.168596151784413,-9.071284464194946,-20.421749424859627,1.1372805126158028,-6.375991186061469,-24.811509359676222
0.776,-0.7785544863462519,-7.962999972724958,-9.104071120609092,-3.5321165670063692,-18.42924469920638,3.436875754431412,-6.007208516605999,-25.568916769530034
0.78,4.473923174770221,-1.9828401419654256,-4.261705021884609,2.4085656434903058,-14.814147542929163,4.497059356255818,-4.773915513258061,-25.637725292736818
0.784,9.334665365483374,3.927060302283394,1.2654505972959669,7.854747448669968,-10.014308360426867,4.4289932266095775,-3.4434301069057938,-25.361213121304402
0.788,12.844640960006018,8.251247808508083,6.123860842156546,12.064813148135158,-4.977030768866143,3.760597830219922,-2.670315276555158,-24.720417224939695
0.792,14.37584135945258,10.05742953734699,9.218370889215066,14.615294537711975,-0.7893948747297372,3.0791238907182787,-2.729772124369049,-23.515591129281788
0.796,13.816117194804292,9.334806516132687,10.134770227580475,15.469531396056595,1.7981836900905819,2.7213790729505263,-3.4393870858782236,-21.628204573506224
0.8,11.588552903935465,6.923845945496737,9.251968005596495,14.915340276625898,2.675179864608026,2.6631192179966092,-4.311048915054073,-19.181951346836748
0.804,8.473188000360437,4.064402597623484,7.460036733420793,13.379736809337714,2.2997425730624173,2.6119540277667284,-4.867763002821249,-16.5256449657506
0.808,5.2503284440060725,1.7494163033055656,5.586790406380715,11.163813414619653,1.254444143135629,2.2008176658614502,-5.0059923052313025,-14.110278310127669
0.812,2.2987622293055665,0.18682067639872457,3.8277400495477423,8.20811053689033,-0.31318169293876963,1.144575737133664,-5.220971099156344,-12.389648879710279
0.8160000000000001,-0.6243976419940509,-1.333579408018636,1.5302114346653752,4.056785091002553,-2.9701506388337293,-0.6987440097015565,-6.526140398251869,-11.797511937316514
0.8200000000000001,-4.25769867142742,-4.056955762037319,-2.4753163809633634,-1.8970197804858344,-7.741569407645898,-3.3480162006742944,-10.036376305272952,-12.744515064507901
0.8240000000000001,-9.356268793906338,-9.015489129426896,-9.10998813273227,-9.945249984618044,-15.373103914231251,-6.721276524033158,-16.342974806494055,-15.533542239703948
0.8280000000000001,-16.04912771137333,-16.26341465550388,-18.220381358970826,-19.57390416724536,-25.498922196037256,-10.59097743543316,-24.96011366251666,-20.134415333730182
0.8320000000000001,-23.38806769024461,-24.5084928271213,-28.168049613304674,-29.232169500492773,-36.23925282916673,-14.500471820053576,-34.15488681611423,-25.915136489066057
0.836,-29.416875677930307,-31.4075669579791,-36.16333100816621,-36.58463587349877,-44.58025634092479,-17.731512180536015,-41.34123042673767,-31.537963878228574
0.84,-31.83898298685085,-34.454257880566445,-39.29019333383883,-39.245197265475895,-47.47233350182313,-19.4171456570715,-43.96519392861613,-35.20086521692743
0.844,-29.02143199221723,-32.05583971326945,-35.76927629808222,-35.71692473717815,-43.1524690260232,-18.808034282153983,-40.52354612976552,-35.22864811485287
0.848,-20.84676151884935,-24.291895122255994,-25.840378492886657,-26.112931955511158,-32.02961269840358,-15.60170272360375,-31.258051711211976,-30.795023552713133
0.852,-8.955721136344891,-12.969098759686403,-11.800564962655812,-12.28665869547467,-16.657025817000772,-10.166026198911652,-18.1808052166449,-22.422836101291885
0.856,3.8069515944628165,-0.9194576437861883,2.8590009981642197,2.751327518295966,-0.7651836593158805,-3.504231357453648,-4.376292626103606,-11.959381819953116
0.86,14.4978818202502,9.116375946018366,14.814781723140186,15.885356311904502,12.177984091592577,3.043761496278762,7.119036696577808,-1.9790709935510051
0.864,21.196082076145217,15.485774026490901,22.115001201335872,24.947967644580217,20.1844259979232,8.241731134170323,14.363263438368449,5.1444371553789665
0.868,23.590976178893243,18.029832813564894,24.664405199823022,29.299277372296388,23.186784669705048,11.349180623442749,17.02225702063174,8.08870238781919
0.872,22.789248947147826,17.779732972850695,23.84102426255049,29.714735063036414,22.59268512369175,12.301442309279082,16.177320300706498,6.985047039432608
0.876,20.51084326850264,16.187572255320504,21.53599531846794,27.71216598229148,20.293200664232586,11.617451328828395,13.595900603543072,3.2280752627393383
0.88,18.15019626543892,14.346337189195083,19.166848655590115,24.70659780924018,17.703308614915613,10.108868411926949,10.869403788476887,-1.1724247277000543
0.884,16.213525336395378,12.61910214955634,17.174089278352312,21.428247318783974,15.324511768377022,8.538426310222064,8.840492478003483,-4.375696414303917
0.888,14.355601682082465,10.776830678872784,15.162395035082909,17.83785204156925,12.92860052994962,7.362467043067227,7.527491100146591,-5.292271112295936
0.892,11.89012050350425,8.440952604753534,12.470591167207772,13.484630038855244,10.094719927937263,6.642548913036364,6.461210675098471,-3.788022605825013
0.896,8.408731484328882,5.498438842758333,8.769713425718237,8.041141535015754,6.693116643564622,6.1358382731004895,5.167494234982797,-0.5179420715653933
0.9,4.106839539520024,2.210791379322245,4.326148104629965,1.6742721294110652,3.017067305516605,5.486953669070829,3.5011638462472945,3.4556829700623055
0.904,-0.33850933209157574,-0.9964024621662588,-0.17023893697728454,-4.936531059901085,-0.44883657873373295,4.428948942755255,1.690345251714234,7.068586912661559
0.908,-4.182859393478793,-3.8458624864040303,-4.017147822769857,-10.87855840475504,-3.3741331107873975,2.9275193774413992,0.1441373722181254,9.561012780781965
0.912,-7.00911718676889,-6.361575706985832,-6.840084708886252,-15.374533354772893,-5.752936860237128,1.2299586802607791,-0.7992513901675693,10.636433446075145
0.916,-8.850199349637705,-8.739870421991327,-8.656338108242608,-18.023736399359905,-7.775838698526741,-0.20037856074827687,-1.025059850098529,10.46765535334086
0.92,-10.003046597469847,-11.04629709849047,-9.676730470983102,-18.82130653926231,-9.52143094881194,-0.8564387394919777,-0.6454749150794896,9.564651326116731
0.924,-10.691923058426823,-12.9721873627052,-10.01632925354329,-17.99942125043026,-10.715853669254216,-0.40274588847762516,0.10463483907471982,8.542416206032456
0.928,-10.839887343428927,-13.872916126193672,-9.5493466152177,-15.835504091894563,-10.776386711548867,1.1506048616424778,0.9772911022703283,7.8497312737308675
0.932,-10.119012659609325,-13.112365132237528,-8.014516811764224,-12.567778402061549,-9.147593012327661,3.3937903235403155,1.7482787812054994,7.54556217993796
0.936,-8.225515530491975,-10.502910532715873,-5.278864215467365,-8.437315594030906,-5.72078584150961,5.629233924719983,2.1989835996294005,7.2349117039692885
0.9400000000000001,-5.176521919933521,-6.544026091407773,-1.5564742253900476,-3.7798719583752245,-1.0512919873115152,7.127746517243622,2.1104204646618996,6.231745298199357
0.9440000000000001,-1.425891391328605,-2.2797869645162336,2.5759261430796414,0.9315227954948568,3.791579976684261,7.422157335114889,1.3125304909237343,3.898901629358093
0.9480000000000001,2.286077872613305,1.1649877278699705,6.386378656261968,5.153499207752702,7.6707081737788485,6.500674603215657,-0.23477075275536663,0.013806041970156002
0.9520000000000001,5.249328993808604,3.1034473280582233,9.280086839022715,8.41636561590758,9.863239900229019,4.801011186866049,-2.3835384020619585,-5.026879941454041
0.9560000000000001,7.081713609078179,3.560555013833323,11.003885723793246,10.471843233165373,10.310785275680814,3.0076798757709184,-4.82046742101187,-10.279085161672313
0.96,7.826297294618598,3.1414346579772428,11.650007929247067,11.347592583828146,9.513776453583887,1.7487943380019715,-7.189033380567025,-14.591559533747912
0.964,7.819791275641819,2.6066543699687372,11.49422057178208,11.285679648315408,8.178821778092015,1.3382343632076754,-9.238065184812285,-17.054660379857893
0.968,7.433766877371227,2.4150953118158895,10.795466643039617,10.59813363974149,6.8399774195650025,1.671663923035112,-10.91496826241638,-17.348453900471014
0.972,6.843975543867828,2.4984282986981725,9.679464371057065,9.51351599076088,5.661269637291525,2.3104383892609803,-12.352673590520965,-15.830688245234512
0.976,5.962990824206372,2.380528023496481,8.159200047728746,8.094089604810051,4.494547699667692,2.7054753773627453,-13.751418997516339,-13.329645649747363
0.98,4.557948036606376,1.5341622021110197,6.244409976525731,6.250466304394195,3.0949426790857615,2.437330723708328,-15.23295438903665,-10.756972221979467
0.984,2.4466039591047775,-0.27666728965323273,4.016280023231502,3.8214127315304722,1.3061082638234893,1.3542502279806286,-16.76365375677011,-8.740977558010783
0.988,-0.3626428909428796,-2.8785343736174127,1.5970007657911083,0.6733114162179845,-0.9086225382538942,-0.4161187263014199,-18.196175634866904,-7.436957071592914
0.992,-3.6474349964914836,-5.837192468697822,-0.9543704954035093,-3.209498788536621,-3.5720223532712225,-2.547228150996716,-19.390878696507684,-6.571008639413378
0.996,-7.06177660895446,-8.750601371506036,-3.731783825295679,-7.672833314250056,-6.816964233120416,-4.629939219878452,-20.339747404869286,-5.671782537916755
1.0,-10.270780439998816,-11.474348925835784,-6.9492084673208865,-12.383317803624323,-10.880727670218903,-6.276379734377997,-21.201638778448682,-4.353488253605377
1.004,-13.05184636451304,-14.124143461617678,-10.76834089510885,-16.86597064389116,-15.920375394510529,-7.198674114978985,-22.20426733943077,-2.5230649438365162
1.008,-15.32195771619945,-16.878776030089057,-15.083745805226954,-20.592019931126742,-21.75369657871147,-7.278603472833311,-23.4725086899125,-0.44098065700825373
1.012,-17.082418552657145,-19.718944206076685,-19.38517067994144,-23.087379063776098,-27.68272210403711,-6.611991590212256,-24.875618824756998,1.3748967979844053
1.016,-18.33858846448311,-22.282996347032395,-22.816717330691063,-24.044744384168553,-32.556069543082685,-5.508644954379633,-25.999653391987067,2.3465530330219053
1.02,-19.04399760625165,-23.94167185724791,-24.436758546564306,-23.398392430702188,-35.09424936779783,-4.426756916712748,-26.2859947655719,2.053977646534122
1.024,-19.08132409305199,-24.03845624817177,-23.557993518948933,-21.319369282891785,-34.337151330356846,-3.8287906699940777,-25.270221998642455,0.3959436327741628
1.028,-18.30534921403887,-22.175397326423536,-20.03087283676996,-18.157576699305537,-30.0303777785889,-4.019326272384433,-22.838987659215945,-2.3787954113565775
1.032,-16.629149622375735,-18.395685790604148,-14.344283395978437,-14.357034066570122,-22.784701824716876,-5.036735738528705,-19.36890396678018,-5.772005695830785
1.036,-14.114513667693245,-13.19234118198733,-7.504618166400633,-10.380009752114347,-13.947788589785432,-6.647802024904877,-15.661483802245357,-9.227787612879865
1.04,-11.025322651441456,-7.372368882603041,-0.7501280707760998,-6.663994751615974,-5.238657036267341,-8.454554476594922,-12.68398336098187,-12.329098691329591
1.044,-7.809037217877176,-1.850292484251895,4.78499315084855,-3.5999296524287274,1.7223614593481216,-10.059903047836997,-11.21531732580786,-14.90973597522185
1.048,-4.984040206855298,2.5545052303250486,8.34567483235287,-1.4955593125278028,5.830269639839116,-11.190987452945592,-11.551382466809173,-17.02418918371825
1.052,-2.9629908017464004,5.276118762507394,9.698722085671307,-0.5050351742124803,6.741057940824703,-11.727039987045828,-13.39942104080319,-18.795187420245867
1.056,-1.8842713124281545,6.10915900019063,9.11955441666305,-0.5469823505663953,4.888558842845214,-11.637643274923903,-16.00549202659124,-20.229753035064675
1.06,-1.5648020645908218,5.244090375922042,7.231740205443202,-1.2937659798126333,1.2652428733053966,-10.908017945700522,-18.47238893418205,-21.133512216175802
1.064,-1.6113637486041625,3.2162850543181776,4.759664193405115,-2.2756288379587204,-2.96102298436972,-9.527102007669328,-20.11085023284977,-21.189273227111215
1.068,-1.6559745736244622,0.7454931254014809,2.2754707581048024,-3.0902785833159214,-6.864092209784758,-7.55710331255932,-20.659788603491393,-20.14941340998709
1.072,-1.6030189285429515,-1.5137213942439303,0.02514129167457213,-3.6306734029394647,-10.061752287266245,-5.229268595921894,-20.28074903057177,-18.026519479240108
1.076,-1.727800029784703,-3.2205477727807192,-2.104839830398305,-4.189841429090393,-12.782514451117095,-2.959695283486326,-19.35027281236796,-15.150680667402156
1.08,-2.5496230179683153,-4.484064046840103,-4.467008041832287,-5.346435402974748,-15.660768449892657,-1.2351702748464959,-18.18710200753003,-12.029832171344054
1.084,-4.510190635522122,-5.7806679525042455,-7.412437238536768,-7.637530814716229,-19.33370971252225,-0.3936947208703714,-16.86174110214165,-9.080777120117716
1.088,-7.624498811464036,-7.665140465311197,-11.036811159516219,-11.165260487974592,-24.01349994212842,-0.4173514713588702,-15.191333144963892,-6.395553602959694
1.092,-11.320306991267898,-10.412601814336085,-15.03827756855435,-15.373269202532356,-29.254118878151985,-0.8975360764438847,-12.91703613363643,-3.718884104802214
1.096,-14.587621766927441,-13.784403098542498,-18.76847137818595,-19.150699660873215,-34.052913662856554,-1.2243280169445825,-9.950187748212556,-0.6874481649640529
1.1,-16.39703270778591,-17.061545146888875,-21.46032166033183,-21.25995346603395,-37.24684474648848,-0.9138439684033983,-6.5354022882797835,2.7976066506987536
1.104,-16.176185234840887,-19.334478684436363,-22.518598762308102,-20.894058969026446,-37.99708834656258,0.10995130045057522,-3.2185127256796022,6.297069404211243
1.108,-14.08470574796138,-19.903066103377114,-21.735896335241705,-18.077427225146494,-36.123025066249284,1.4436278452603801,-0.6343993211510224,8.869496437281896
1.112,-10.918781983757981,-18.564902771384368,-19.323687346519364,-13.675807751544198,-32.110332127098445,2.4072695127620136,0.7770832956978211,9.459258287935768
1.116,-7.685214926094886,-15.633569641883696,-15.753269513443229,-8.981464729401523,-26.799782418643645,2.4206006971180614,0.9781989109828828,7.464500867924357
1.12,-5.092548733574404,-11.711806386465469,-11.518873413388974,-5.0888392743536315,-20.968910075945132,1.3309500056006982,0.3349043929472373,3.1655270549594547
1.124,-3.243745941589623,-7.372990153610317,-6.96497726268899,-2.398686929077485,-15.047194478028814,-0.4985318274261772,-0.5779382233126853,-2.253426603959497
1.1280000000000001,-1.7075789686232383,-2.9568368525483493,-2.275243856065572,-0.5254471791258766,-9.123964843208341,-2.3931032144241726,-1.2699860068901216,-7.144564970512306
1.1320000000000001,0.0707819539711636,1.3976413930904528,2.389306025289443,1.3392370338788169,-3.214294707845056,-3.7346946791976734,-1.5671975140483028,-10.102023277237038
1.1360000000000001,2.2935063469540182,5.552791521016843,6.737429900963434,3.835520402227303,2.4343856757441245,-4.258003270752852,-1.6466806029570762,-10.563217547173622
1.1400000000000001,4.569822604211367,9.18195532791242,10.311499883187025,6.964910282854362,7.229370228555126,-4.104340057118861,-1.8686932901175624,-8.986041319300966
1.1440000000000001,6.071482937598375,11.761226712924781,12.623548002097777,10.016560960348215,10.417630576189822,-3.624099553414453,-2.5007128467170787,-6.521308337424557
1.1480000000000001,6.008578941824453,12.795528094154633,13.40352568293656,11.938939739730813,11.479047797384737,-3.0827161902793705,-3.4907375331545154,-4.364432328460907
1.1520000000000001,4.143327579507968,12.142930800325303,12.80070179435097,11.940642081623082,10.46985699984316,-2.475708275918805,-4.422211073127983,-3.145891396812033
1.156,1.0401464915994438,10.212148499348132,11.390763759855872,9.977235919785016,8.077671592544903,-1.5646918641800767,-4.696091359831144,-2.679301673988107
1.16,-2.128171201225996,7.853296605699597,9.933794517104616,6.8244292265198965,5.31126114106155,-0.11510463948161487,-3.8669884185408137,-2.1851553445665104
1.164,-4.151976854353052,5.942590312860375,8.976098641551289,3.6735270467843293,2.9752452629581967,1.8330244582821251,-1.965086303809585,-0.8444461257777789
1.168,-4.413096880988633,4.887802507656033,8.52184241814939,1.4865598220021639,1.2467580937645835,3.8657692619108275,0.37914709277333714,1.6584333746463358
1.172,-3.206059252490377,4.375035853143345,7.9922631554572945,0.49571772378021706,-0.364796795645816,5.359551082960024,2.1173325281679354,4.926547400190486
1.176,-1.5719921359232103,3.542915192762848,6.525311130244518,0.13298481656238437,-2.6325264645138304,5.813529752039358,2.218221993075531,8.072366325979885
1.18,-0.723313028524899,1.531011635197956,3.494372817301155,-0.5571502647144371,-6.010313868461708,5.141581353065703,0.1700149708126446,10.232422160389945
1.184,-1.3664299996244154,-1.8921798624937765,-1.019906998535589,-2.2588026740286296,-10.171945120572673,3.7346392676608957,-3.6818422415660734,11.065459492662285
1.188,-3.300061961404026,-6.008534433333352,-6.084346612786248,-4.874983698584401,-13.994468802021402,2.2412758996006232,-8.163902558001382,10.934348070142448
1.192,-5.504562448780234,-9.364437828536666,-10.206041061341239,-7.468533316853609,-16.02363253587464,1.2038849640784974,-11.7025667657324,10.678630885059874
1.196,-6.67641379968245,-10.448933012738053,-11.951140320454215,-8.707073405601477,-15.18816801484627,0.7701056363366661,-12.975070538667751,11.110723762505984
1.2,-5.909752970631416,-8.48594202697086,-10.592289113226798,-7.566823323853896,-11.367891161800799,0.6570447932735988,-11.493372569703297,12.52770548231075
1.204,-3.1713165359160485,-3.900679666337055,-6.461344779705541,-3.915356459511713,-5.500321771097333,0.3864445915178294,-7.841060157912807,14.50927036781627
1.208,0.6790758320021268,1.8190425668435637,-0.8207922515566679,1.3518551216457126,0.8471937904032529,-0.36396954728206765,-3.4245262054391787,16.11747975964761
1.212,4.325966385997162,6.812625986879539,4.693108095300886,6.698575476060796,6.211332792379835,-1.5164770496921847,0.15015799678485564,16.38798290043036
1.216,6.637408341790433,9.721148374469522,8.77087026650679,10.641591540033914,9.863704169943958,-2.614480808274493,1.7782081836630823,14.849589863827532
1.22,7.1713223508904775,10.278831052023634,10.937079077511953,12.38864814628505,12.013057444903097,-3.095089647757959,1.302978845769303,11.813123629117854
1.224,6.307142309377923,9.316609670459002,11.626499731439253,12.098395256538424,13.504088223503459,-2.638533518120312,-0.49747580894290877,8.281720356639084
1.228,4.953182403112805,8.199223033250746,11.816720558249472,10.648709542409051,15.211060608030493,-1.3748991630636738,-2.3580572081018545,5.534582033007268
1.232,4.016724322917071,8.034069613840074,12.440814061538731,9.082068955436625,17.492760696238292,0.17444455586883123,-3.157522252723993,4.5918479776224785
1.236,3.9428337055633165,9.098218200193514,13.896195676027673,8.053915510294246,20.000593854217186,1.3876336244466074,-2.4086142710921195,5.803180077457682
1.24,4.553148828646954,10.77601184413561,15.88805552267695,7.573404864857366,21.91118340041612,1.900270013383306,-0.3908635871412116,8.738673355772903
1.244,5.230792241569361,11.997896113936804,17.64902772262576,7.1329811699597485,22.402243047782576,1.8141722424843465,2.0905510980646795,12.396825173822208
1.248,5.3310208609091205,11.894807956638033,18.382526432804298,6.122120773896313,21.082835704024546,1.6417793898745003,4.145675160675182,15.616711513445125
1.252,4.560831902901555,10.27129639629402,17.65378974630039,4.249335714717745,18.131479978088464,2.016095154393952,5.175342595266557,17.50285474386294
1.256,3.1048097440416313,7.628377444108992,15.51733779512324,1.7183609221028746,14.088574893583427,3.3249657947171727,5.012133538898979,17.676662649763557
1.26,1.4653880566020234,4.773187461342786,12.362391161466803,-0.904707622839851,9.484760488664506,5.480517694631999,3.8242958734440435,16.29202457538986
1.264,0.14272776151119615,2.303467165764232,8.620168234321682,-3.0193925990697608,4.57007269253063,7.9345091112536466,1.9241567744966233,13.852279802855946
1.268,-0.6278445185726014,0.3154810423411618,4.557146443545207,-4.288649296124277,-0.6705658271430366,9.92899949837556,-0.35057156425637004,10.952411288023427
1.272,-0.9250233114998991,-1.491407400967546,0.2975752518595982,-4.727708482059825,-6.2302439662898905,10.849689988258433,-2.6174583363526835,8.073397748734351
1.276,-0.9573620459395897,-3.3992181864268787,-3.952160889730294,-4.551518387017495,-11.73017616225934,10.507136831304706,-4.364508037510404,5.499567781110613
1.28,-0.7924964555713814,-5.254449460856449,-7.666278867731307,-3.9139163849522447,-16.278362622399072,9.21283920528731,-4.954454179048298,3.357530538012952
1.284,-0.21050707253561995,-6.355118061693247,-9.972972510553518,-2.7415553989831096,-18.677346277027027,7.624558292239271,-3.8091556266545012,1.7052040737866037
1.288,1.1876078430777852,-5.765497257048082,-9.936492871807786,-0.8011169837227499,-17.922089679905184,6.440367060488825,-0.732493630816407,0.5857313719408239
1.292,3.6546548944206734,-2.902614207448096,-7.036923958301486,2.0299896183823876,-13.73232091504542,6.077338132891782,3.820153951373868,0.012727300174219636
1.296,6.958692696671278,1.9599037223706546,-1.5825564970236883,5.469621292104421,-6.822802895552741,6.478334345159055,8.742071443598434,-0.0911278230340713
1.3,10.276296009888028,7.597542389776208,5.221322146391685,8.738032275381556,1.2643274781257787,7.138464603092871,12.621901219805295,0.06865383447802742
1.304,12.451656586812533,12.270714054461678,11.661679636710687,10.782960058048047,8.71934163037713,7.34516531513691,14.32796168745881,0.20439500685642997
1.308,12.523432919289917,14.48760193972339,16.206559271000515,10.733677848507796,14.143858153443034,6.5176045341559075,13.538212971494886,0.07376533112528705
1.312,10.241427488579575,13.687637509300657,18.144694142471053,8.345329152964041,17.024296528651575,4.5002407661368125,10.926416516364043,-0.369906251124803
1.316,6.264166590824971,10.475211195356678,17.83019932161733,4.167086390185432,17.76341826289172,1.676566761207141,7.875685291915033,-0.905928983959484
1.32,1.878457183509454,6.261661002181427,16.385209082631263,-0.692756640506559,17.272752420476536,-1.167602478795743,5.828505859447432,-1.1199023500307703
1.324,-1.6390724275279354,2.5170001419410255,15.016896499990253,-5.096125493848376,16.368221210048432,-3.1784513244665504,5.614341352631982,-0.6062199216487443
1.328,-3.677675787921544,0.04298446235134179,14.323865138769179,-8.420839148566301,15.302338297089591,-3.808195768042424,7.090968696568325,0.7991271661018118
1.332,-4.579131184389553,-1.325016968534328,14.001581752221682,-10.802924577203157,13.696346354185152,-3.0587073309616244,9.28344541450224,2.8940436220200354
1.336,-5.366281180735314,-2.436348036333584,13.112882149680445,-12.926558181321525,10.89521797296402,-1.4619074810925667,10.947165151253103,5.174973673236991
1.34,-7.04937875169162,-4.152443597850834,10.765949446908053,-15.476822303042354,6.5255632824591885,0.19465478322854324,11.228832888620673,7.0658714519109935
1.344,-9.892604566721275,-6.681851670022297,6.8038712082925485,-18.566530518724903,0.9399472703025822,1.2621525500562711,10.078931138416465,8.195496501851267
1.348,-13.097232965241346,-9.33512027245979,2.073272558161989,-21.501732032784275,-4.7347722937120125,1.52801954651477,8.203875817305288,8.551783700675514
1.352,-15.11865615282295,-10.850914806459514,-1.9060918124960153,-23.04596090917221,-8.996580550447106,1.2588777049768396,6.608751524462605,8.421789577030268
1.356,-14.468578660667845,-10.10839794045387,-3.699487957484962,-22.05483807307064,-10.620188103544933,0.979287644247961,6.013812706306908,8.164942298076085
1.36,-10.568132726497424,-6.82773672526946,-2.7219434542712406,-18.136930832999496,-9.222343900717533,1.116900082990469,6.468568618996869,7.962294144515454
1.364,-4.159209429191833,-1.8335770132307516,0.43634652126820583,-11.957279543421464,-5.430179289578518,1.7317058669050311,7.374286941049377,7.699909717305218
1.368,2.975137052984792,3.2807040085772314,4.320376758078055,-4.997240935939772,-0.5622787793708994,2.4895654079537053,7.877350354817281,7.0701016751912675
1.372,8.843431076231354,6.917701546816716,7.3932554855709895,1.116356206988712,4.018023036242084,2.8941290464772464,7.406942820482527,5.836409103015967
1.3760000000000001,12.179018352459025,8.25577389152022,8.84795527127062,5.344992964082849,7.5288916296449315,2.6316840818108176,6.041479444756533,4.078634970306439
1.3800000000000001,12.952265053540032,7.603448116010441,8.976827224316366,7.620531333122926,10.03660875398964,1.802783317054491,4.482547536001675,2.239378394662708
1.3840000000000001,12.197532761412731,6.144108635071461,8.898566351028421,8.675569726703543,12.234852798514112,0.8798792576526466,3.672066065898889,0.9137521238476438
1.3880000000000001,11.276583775408653,5.218469776024904,9.80743733057534,9.43386135705805,14.873373658136188,0.39904731232127233,4.27179976411071,0.4877973089118086
1.3920000000000001,11.030809913181656,5.559941597544821,12.193495520396027,10.33603123892135,18.181581235396152,0.5770449431656743,6.299281982937828,0.8487527553406835
1.3960000000000001,11.337440032735685,6.924870134687808,15.503949304695197,11.023765548103256,21.632331100589,1.1073269688004075,9.141809640242172,1.3794816631793765
1.4000000000000001,11.302652677950391,8.302586724281355,18.43791955789675,10.574029808136402,24.187941413354565,1.2838754457879986,11.924800105452505,1.2840569531977053
1.4040000000000001,9.948666819716891,8.575389816665847,19.701493469850902,8.147451707560322,24.896644595039106,0.4127068814668746,14.022910222819519,0.08200044509112558
1.408,6.953915360243627,7.237750516773303,18.778082569811886,3.661554649585014,23.496844152316044,-1.7191491685880465,15.417687853807365,-2.004940263737126
1.412,2.9672498274539976,4.737072328873182,16.245507141578855,-1.9479551500935486,20.653674933402726,-4.6184495017369045,16.674696609769853,-4.032974013795524
1.416,-0.6998352098162286,2.233074900590509,13.447044892895065,-7.067085489306919,17.6575397650995,-7.257364767079707,18.542911498113426,-4.749470090709792
1.42,-2.819504938510363,0.9152573151204706,11.70456814327008,-10.179096917818242,15.735906569725557,-8.57183043752957,21.40202598002179,-3.2497194492721064
1.424,-2.96231187367448,1.2889350312343595,11.54015776581764,-10.637205642822664,15.36988533362819,-8.015083968313775,24.89354547881885,0.4702386419633058
1.428,-1.7334834922730806,2.8556051660234516,12.366485691312846,-8.979941914105439,16.016629088228,-5.855790034349411,27.97575593581496,5.385112869514387
1.432,-0.3753955321481044,4.396609104282106,12.83598338480806,-6.585582967760274,16.431473790638847,-3.0356678170264786,29.40520095065949,9.84199308268171
1.436,0.027177264681085944,4.703900646582042,11.64135037115193,-4.854117157236033,15.41842798360085,-0.660927329930928,28.39556936621193,12.30103122987748
1.44,-0.7542969445312337,3.3228364410442737,8.29901183914626,-4.390077589374414,12.578584241924545,0.5789562938352901,25.083675374999075,12.042276916746232
1.444,-1.9195657301315805,0.8733682645361114,3.471065969853953,-4.6625153329041495,8.630265988396786,0.7288750223324314,20.535751179308136,9.470578080509313
1.448,-2.1204272726317868,-1.2553925856755086,-1.3552777298973524,-4.353944764621701,5.097582718659396,0.43997426637724857,16.271161903665416,5.8657922621046055
1.452,-0.3362124312443484,-1.6964867718343157,-4.661546350645949,-2.2212425282414188,3.508063610373938,0.47246068438107613,13.5365613028589,2.705496744208631
1.456,3.3998746384204424,0.08532780616587843,-5.684772422962851,2.050215601997479,4.557599867848694,1.1490872148642666,12.741782804731884,0.9360253699310306
1.46,7.87131807422702,3.4392441146956116,-4.743809691030037,7.511740224828827,7.726942580678951,2.114391156261263,13.365513483157883,0.5883703590750429
1.464,11.247863047879946,6.844259971945576,-2.945020331066189,12.34962386276311,11.572623519396075,2.5522736552866263,14.368757202046254,0.9253576022256311
1.468,12.04871696975897,8.73284242425325,-1.4596444899616472,14.813091323117987,14.532908194494667,1.7378019452280569,14.86665519352664,0.9995881896647916
1.472,9.946752778912924,8.349770968772646,-0.8255368560021452,14.140813685738976,15.77738713956569,-0.4209195234507206,14.650915371290466,0.2760593436025829
1.476,5.952333313536656,6.148072889613104,-0.7011532534306752,10.949284863436333,15.60361267864755,-3.2080066385733517,14.247240739010522,-1.0626718557005006
1.48,1.860919882034068,3.485801037728379,-0.20516142753331224,6.854140409195679,15.141733057731471,-5.430060712824343,14.463250329645234,-2.304472161811873
1.484,-0.7258835146167257,1.8015342067919846,1.3828757766350463,3.5366543759810156,15.548538931843723,-6.087862519087139,15.716484607200982,-2.766084282442989
1.488,-1.2491555739943578,1.7622891585506295,4.0096168598902295,1.8024633832537802,17.184649430000718,-4.9984148270086735,17.572280525731912,-2.366211657983058
1.492,-0.43156358819032903,2.8880310113218,6.723124614320113,1.184927647558652,19.273821315464374,-2.9752037716771156,18.800043142398863,-1.8412338148905292
1.496,0.23666936546942452,3.8885382194239355,8.147392406706786,0.33830713085626485,20.27855069474026,-1.4227171803049714,17.980310005132196,-2.4271264042915845
1.5,-0.5442934079328552,3.5045720080615865,7.280403290926188,-2.0128483576336293,18.7858670935766,-1.554713225683372,14.326964104133367,-5.154413319112564
1.504,-3.036800704361667,1.360181327931059,4.147387984536181,-6.128049298829865,14.40575818547768,-3.6720833368271997,8.259397883066413,-10.149838370555699
1.508,-6.223075520767452,-1.6986156111379387,-0.09524257214798126,-10.88246052336035,8.155465088622805,-6.930056693563529,1.3831321494899385,-16.355498634056858
1.512,-8.304456187361211,-3.9907603864048724,-3.683425849354535,-14.208426770834194,2.0992015092269867,-9.734561972107258,-4.146032656523857,-21.848041846800697
1.516,-7.666909442141332,-3.8972410238948214,-5.112722849746206,-14.122780562607659,-1.5744838177761267,-10.561235795425091,-6.547692614482912,-24.62571527722298
1.52,-3.7860941184590047,-0.7709733026222239,-3.8801727845602727,-9.786052928324352,-1.5548233526678814,-8.745437064068028,-5.162814315774995,-23.47553796402235
1.524,2.438209030613507,4.6766971636698145,-0.6875037719109969,-2.0033025604607246,2.033421125724999,-4.795590692534461,-0.6504302213561459,-18.478186744006052
1.528,9.085459286128753,10.725299406522026,2.98503843646904,7.097605906736135,7.766563925553783,-0.07773172618180979,5.420556533119452,-10.913110831738095
1.532,14.118950386386132,15.509354625832202,5.6679079487330455,15.018423890458507,13.630841527670782,3.925848061688157,11.317584452817755,-2.649418924738484
1.536,16.298489809374587,17.891086469429865,6.590182494772307,19.948213631076214,17.88179862700781,6.347953234033412,15.800286474932363,4.620943575796218
1.54,15.630199051265663,17.856310336361275,5.905587569352065,21.384356409973407,19.61857644880547,7.250155417355927,18.38555755393554,9.921202465596707
1.544,13.164179044000775,16.273167242088675,4.398976558775757,20.062720949135837,18.870980546613282,7.385961980717184,19.192835394552276,13.087250520884481
1.548,10.306974660241394,14.219503138518121,2.9068823592133413,17.32306884629361,16.282148005921044,7.597646905574948,18.576781761401435,14.465017816489535
1.552,8.065276484194328,12.328155496641557,1.8356473241692584,14.329993120663858,12.663387752952985,8.23937576436765,16.841044622982736,14.474853216183647
1.556,6.637537653696199,10.551348302600672,1.0626268444029847,11.594368698835751,8.704362759319338,8.97977355425246,14.21411380227255,13.340691027268122
1.56,5.528870394689875,8.439135023614654,0.23830190724038403,9.003793975127337,4.944749606613186,9.075643476517143,11.036128627651124,11.132607476081603
1.564,4.052481173046544,5.693239755415561,-0.7641046210992499,6.239295210780256,1.8926178794918087,7.917062819249622,7.9328824336516846,8.025282547895358
1.568,1.869348030180845,2.5832688738992147,-1.591658673452912,3.2356054153751757,0.08581128009973327,5.481522184876667,5.759003298083371,4.534842801168907
1.572,-0.7640295433157007,-0.07939164238632657,-1.5474719695339445,0.3588766633256455,-0.03620728287023667,2.403091395237425,5.2621017775400105,1.5186331195588991
1.576,-3.152834333566716,-1.387442133604054,-0.03886753872575355,-1.7845330791788,1.6044524741810164,-0.37235121472986066,6.657516587152713,-0.10154504230376915
1.58,-4.601632376114139,-0.9163731879743864,2.9440613547558314,-2.757132594633731,4.513662544239196,-2.1163407472049585,9.390318823623602,0.24333728323654213
1.584,-4.835508778636722,0.9554389411350712,6.644062471721554,-2.6204798319558904,7.666060312403715,-2.696963271475397,12.283088254284849,2.46106740100754
1.588,-4.142880500639876,3.2078249525729916,9.794147473214252,-1.9482477846286201,9.850326237581612,-2.5791007202715264,14.03876898697581,5.787016175449253
1.592,-3.17352689873951,4.730665637409402,11.190090676605905,-1.5111964462594187,10.17187816092337,-2.470335740767041,13.83626850478504,9.07978827920192
1.596,-2.5237362376046804,4.935008609932993,10.271451635810081,-1.8275125467889666,8.45123879797211,-2.8504930805574986,11.699596866220418,11.268911052927308
1.6,-2.370893984583745,4.04860184220388,7.390862799979914,-2.85225791141238,5.29188120861636,-3.6783574435448827,8.427618208062768,11.731223155621024
1.604,-2.3762350334509392,2.9306140267726732,3.630382781051594,-3.996394641282677,1.7898787917001755,-4.4581778976353235,5.137719803735308,10.429079070570424
1.608,-1.9049119888441055,2.5377802757939207,0.2787230768262816,-4.457803234749008,-0.9603244024219748,-4.614582849877479,2.700972736401127,7.800661676751815
1.612,-0.4240120896793087,3.373612069835872,-1.7438607376534492,-3.66322866779592,-2.2995476051983132,-3.914980547851883,1.376854144787103,4.519099403957625
1.616,2.1661411280911125,5.248804712689889,-2.214951678284706,-1.5581981956929667,-2.166592504701839,-2.6571474146585388,0.8350520444882932,1.269328336149556
1.62,5.444514765746135,7.451347735559466,-1.5646252954174997,1.3999848985149583,-0.9599495014008426,-1.4973921803975827,0.4862309561067377,-1.371502265835943
1.624,8.664743843859469,9.195558871564572,-0.5316942155841389,4.515560855863441,0.781976413942175,-1.0281215085960866,-0.11118338349660917,-2.971940286458448
1.6280000000000001,11.109415476763388,10.055090088702855,0.2641555277914449,7.218450420274166,2.6840636612869275,-1.3717081001323095,-1.015842351520405,-3.2697403866659442
1.6320000000000001,12.39503490775678,10.118509183193964,0.595437792573648,9.29547466521035,4.655473312926915,-2.0502106226085743,-1.9650870930672681,-2.235788153454223
1.6360000000000001,12.580954665827448,9.82119824761321,0.6344191040734586,10.876137319020927,6.798530045381995,-2.219243997167723,-2.6494183919339775,-0.14820483602306922
1.6400000000000001,12.032022861756559,9.591030440740724,0.7335340219797217,12.202469553638366,9.19296736630713,-1.15054072123894,-2.990631532833504,2.412407025291486
1.6440000000000001,11.142244154110813,9.555461694211772,1.139531960889144,13.339069615241897,11.701915862675378,1.3060531503342645,-3.2178039024511236,4.711061645753489
1.6480000000000001,10.092412530902948,9.48347491748791,1.8120044271963707,14.012568144888064,13.914929100319569,4.547637233292335,-3.699998519962719,6.135136805308775
1.6520000000000001,8.767423601449991,8.963699748301224,2.434454311765876,13.674279882205155,15.252464371249516,7.43286685579551,-4.671156892568433,6.461863640824959
1.6560000000000001,6.883473128767946,7.685322742276185,2.598945017925871,11.76799050833506,15.178220504321871,8.791936047527997,-6.029728278514995,5.960304781904824
1.6600000000000001,4.231719761726708,5.636744965995604,2.0503609988445533,8.062266880719108,13.42743800302378,7.962793322754806,-7.359008937595718,5.254651417586047
1.6640000000000001,0.8977366984618129,3.12690763210594,0.8670399818693113,2.87265147362632,10.17000596813341,5.090418717858483,-8.155974767594671,4.994891923382511
1.668,-2.6709302086310345,0.6357354101492092,-0.5251181708699733,-2.944743550848216,6.032832375081853,1.0602330943129346,-8.124315966277209,5.5093854272538465
1.672,-5.805321960553556,-1.3899470449214277,-1.5222859880159376,-8.24401428506826,1.9607342510244052,-2.902445564041045,-7.362123599261395,6.6325851606809465
1.676,-7.890021472961962,-2.6705269726899132,-1.622853775661497,-11.972767560942884,-1.0538543301772734,-5.757667499015952,-6.32021262789749,7.803996860316374
1.68,-8.622714116776478,-3.1229129662660853,-0.6887391431082506,-13.518209831418062,-2.3087133270200866,-7.0448599071223725,-5.573924529233409,8.376483928156404
1.684,-8.115969056692848,-2.8051552107717725,0.9449602785352909,-12.860243570976309,-1.66790266596945,-6.97194236350515,-5.540060990262646,7.948808770737287
1.688,-6.779181843823608,-1.8463008487724437,2.5853935205850576,-10.468875445334561,0.3466225075553666,-6.181918316553492,-6.296797373221125,6.537283703719368
1.692,-5.048865897610085,-0.40169439192504797,3.4933113156585023,-7.011371896362107,2.734322524862364,-5.343725173279381,-7.589521205769415,4.499559628464567
1.696,-3.1162509944588237,1.3798592910316074,3.256903246005095,-3.0237794677996135,4.429764493652328,-4.783575893585294,-8.982606884843335,2.278877258909006
1.7,-0.837149611179484,3.36458248769668,2.0259566957101924,1.2659982836303243,4.760816217385582,-4.353249095538558,-10.071711152306307,0.1419338598448121
1.704,2.109303171739157,5.439885983369095,0.4668737129541114,5.87430814966865,3.7407237261595583,-3.591218965188091,-10.63822429640004,-1.9272921181429865
1.708,5.882122119208361,7.500419866873926,-0.5809520898255869,10.794699471476633,2.013562221867687,-2.0814705767988926,-10.695441810825287,-4.1212099316899184
1.712,10.155349351778568,9.404950573043607,-0.5846581039841112,15.699613479468098,0.4717672922597558,0.18862458441435592,-10.430648419294812,-6.567286231232174
1.716,14.047790805976547,10.93903912467249,0.3451195756570087,19.833790547720128,-0.2384149648496532,2.688383555829205,-10.081020436371546,-9.112201790340805
1.72,16.375704188161762,11.789436395943994,1.4435790295501647,22.189714078635006,-0.07818585534914746,4.513279050199344,-9.832824520961367,-11.285289853443373
1.724,16.1521067552967,11.603159489597601,1.6555637498313445,21.920596653653774,0.3799703399236023,4.7952822351544455,-9.761063481293604,-12.474475346810323
1.728,13.093454963945987,10.138244922452941,0.2089665369639988,18.78777684745728,0.3168561405109358,3.1595840813934046,-9.815264594612927,-12.215849078941801
1.732,7.842403352293331,7.439897921851298,-2.9156026631899294,13.379425492224982,-0.8062915617356339,-0.019305369914945913,-9.843297546287431,-10.436957187145936
1.736,1.762133112293668,3.9445118182629813,-6.887399308227032,6.949374489988259,-2.860975856156074,-3.7154025487980107,-9.631388786036041,-7.5178814937648895
1.74,-3.620580293245439,0.40081585013285803,-10.385793164277857,0.9247802104837319,-5.062039061591349,-6.6659261830900505,-8.965314220926302,-4.132849854623146
1.744,-7.254388742920128,-2.396239461188088,-12.241716617045313,-3.6815403404471,-6.381269089139096,-7.912606901025356,-7.708173412625911,-0.9737075526909393
1.748,-8.957088619543356,-3.953585679471871,-12.015836596076042,-6.652313778635289,-6.141597295034444,-7.20813629280201,-5.877330505869395,1.4982898062783079
1.752,-9.372271135220217,-4.331100907147629,-10.203190863987402,-8.549841356190882,-4.449728350749865,-5.097596126757708,-3.6985444733400072,3.1455189665539365
1.756,-9.52006042580615,-4.123605855889764,-7.946328365316731,-10.306011229356955,-2.190448767196358,-2.6415464239817084,-1.5820752342115156,4.071048068896289
1.76,-10.191895530620968,-4.158485623062006,-6.421768649146543,-12.635067354793136,-0.5764971792414144,-0.9177012125292094,-0.020433054483874002,4.441503304945172
1.764,-11.510988846504915,-5.025929099529094,-6.230891224529842,-15.576700817557139,-0.4777625122496829,-0.5487785981767956,0.5765166671717452,4.3403752312597135
1.768,-12.877507315854018,-6.691949872718396,-7.129198321768854,-18.40773463034202,-1.9048939190579404,-1.4751937474102306,0.04104543431003549,3.7423484889668543
1.772,-13.304400063520006,-8.417326775481342,-8.222085706425787,-19.957622434354562,-3.937645287544001,-3.0546407727924816,-1.466933148987664,2.6135326418018394
1.776,-11.935902165478183,-9.050800289491235,-8.495440640414017,-19.151006309017248,-5.1484768876944145,-4.410503721777786,-3.4906703018014014,1.048908262378518
1.78,-8.47325962240393,-7.588453719075915,-7.372711284962861,-15.505566605625063,-4.312340636806766,-4.841828786331462,-5.433716542721413,-0.6528045558573012
1.784,-3.3200458716346475,-3.7291783170712733,-5.007079443908879,-9.36872714837773,-1.0455070015195815,-4.107370261996039,-6.785609891093372,-2.05697553128266
1.788,2.5929011929401895,1.854488842542196,-2.1751068366211257,-1.8024763323355728,3.9456633388817863,-2.4770396700823767,-7.329335791300764,-2.7693023651058866
1.792,8.173804639473019,7.695897646359299,0.14361171448763344,5.800581403822434,9.146446670303703,-0.5544407534143829,-7.217169283017938,-2.6149498757529273
1.796,12.534573065397126,12.108025799079769,1.2513849217448296,12.175750719996358,12.905083322793871,1.0232367015996715,-6.871792151924637,-1.7164647024928854
1.8,15.201019502044801,13.87618454790936,1.0196479165242636,16.52918551838593,14.144988738453321,1.861236167134848,-6.761488991760871,-0.4081981573390294
1.804,16.131113222309068,12.75579753277816,-0.1387175151030533,18.66525661180458,12.79602353672999,1.9565989198927127,-7.140438244678535,0.9690572965014326
1.808,15.592075687489341,9.526141360371184,-1.5643010822313954,18.889359476619575,9.739050349777244,1.6765087612202478,-7.897645656577424,2.261983358991074
1.812,13.993382081505843,5.579970178587246,-2.7226476775358606,17.76810062770346,6.316350837767459,1.5890717069887614,-8.61080938552459,3.5642115507275776
1.816,11.745471327283667,2.26009966296715,-3.4470181621509255,15.866270877499119,3.6725398280195805,2.204693364648847,-8.775674772199636,5.101468949445689
1.82,9.169377970214555,0.26158501906229503,-3.951446731629403,13.556603899929542,2.241596150694022,3.731662412192236,-8.108632520584706,7.0110199183440045
1.824,6.46298318985464,-0.5981763535555729,-4.632263981027791,10.961444462609506,1.6314283275714843,5.947606454432389,-6.747604601100193,9.153239429629707
1.828,3.7170178249580204,-1.1409021015188046,-5.7855605496788485,8.034408502433507,0.9381658036945737,8.246875867460403,-5.216074177322298,11.093794180314717
1.832,0.9622779936416919,-2.270176056334094,-7.403604887613255,4.716848199046581,-0.6945077598538774,9.855198452363766,-4.153042875705978,12.276309170331956
1.836,-1.7508627222159703,-4.392682206547761,-9.141528238458704,1.0931363589770626,-3.554469465980219,10.141180777409318,-3.93065214603439,12.293986776263182
1.84,-4.266843013487232,-7.146264385813993,-10.459281648654724,-2.531212781843351,-7.158555766080099,8.900503677992674,-4.387844183218476,11.110376924028287
1.844,-6.28380143832328,-9.563519678413286,-10.85079911745379,-5.667489089561059,-10.450804543192135,6.487282869653427,-4.835737002249061,9.097463444649634
1.848,-7.40124110466968,-10.580995476309909,-10.055569761270817,-7.790755106127108,-12.301122552025845,3.7162471530918992,-4.368929200307321,6.8582789451613735
1.852,-7.254347377102022,-9.60695029940507,-8.150227475289284,-8.522254724308368,-12.035132396484187,1.5472586792275251,-2.334096082754968,4.938377953449731
1.856,-5.6676222527694335,-6.817803570800606,-5.481269001664259,-7.744150741080375,-9.717316000778737,0.6881739569525962,1.2990421258900824,3.5950754585468303
1.86,-2.7566690172570816,-3.0506619039560974,-2.4972545978453127,-5.60219613996378,-6.081127723409736,1.2931537631538959,5.845485114560688,2.747451921915399
1.864,1.079848882232909,0.6411121318906225,0.42961664700851543,-2.411907316347424,-2.1568919969886338,2.89886964273137,10.15451827977813,2.114646334983263
1.868,5.280576222399759,3.4998906070741214,3.099507424989497,1.4631937806334463,1.1894238793429395,4.642982148574447,13.074450029253057,1.451304271412937
1.872,9.284048372881443,5.351531397317558,5.4613427321237396,5.67812124689226,3.5656525325903203,5.660237977883298,13.906068747210156,0.7333090917674099
1.8760000000000001,12.669780859499951,6.545076639452418,7.511324845079798,9.901350471491241,5.089335216442123,5.476048507087398,12.643581882833132,0.18493515589784693
1.8800000000000001,15.205066599133715,7.593979464925724,9.170623962576428,13.76339949285466,6.15429422185116,4.206923723708314,9.896040280303168,0.1388408536854513
1.8840000000000001,16.8034776194163,8.77361542053768,10.238122611004655,16.84231610774077,7.102617738817571,2.4814441297576195,6.585826642450684,0.8300997403268866
1.8880000000000001,17.458201654462755,9.92127541685295,10.452940232677065,18.74678435241367,7.983948481014522,1.1350392502954492,3.5939035671617603,2.2517736628253715
1.8920000000000001,17.195174678698095,10.54267515997708,9.626646639106184,19.26955372041448,8.514547264727298,0.820780149058919,1.5098896129793502,4.154644393524677
1.8960000000000001,16.06351974213794,10.136625216631728,7.756398394565622,18.508048038082052,8.224732254810988,1.715434718628785,0.5661923832649336,6.166797767436606
1.9000000000000001,14.138189003029765,8.49971417211782,5.029235175199574,16.837435377576185,6.670988159139597,3.4446022013444235,0.6978154422831722,7.947005942188525
1.9040000000000001,11.517163932468975,5.8374422794668135,1.7295764828686515,14.723949925901252,3.620206957962182,5.257174560685598,1.6697190061927358,9.28187764637255
1.9080000000000001,8.312713354962398,2.630890829582313,-1.8784101913151972,12.470288330019685,-0.8484850372879009,6.367005802530912,3.196246105111186,10.097152265139016
1.9120000000000001,4.642135015210442,-0.6324045682258657,-5.611142028541508,10.04276016010408,-6.32793118034715,6.294628693241975,5.012941891703576,10.404228589449076
1.9160000000000001,0.65733034310324,-3.65595728342214,-9.308370684146212,7.123179331030769,-12.115902779627504,5.074465324349148,6.931813158593286,10.242032921053351
1.92,-3.3731721453004866,-6.343145290249595,-12.691440051394238,3.39526204399408,-17.289501033385022,3.2536591751804735,8.889282183844443,9.669502372894613
1.924,-6.993911228197248,-8.633788477932285,-15.24992747255601,-1.0944849982188316,-20.83387290898918,1.6884693344027255,10.963151173653387,8.786173930762857
1.928,-9.586551857390077,-10.322215860536744,-16.286061184520804,-5.731604833186793,-21.86690933697082,1.2088281863661905,13.31997131827211,7.741289960820495
1.932,-10.532992370008287,-11.017152465756226,-15.157578310669123,-9.447664333592911,-19.924705472325513,2.2782061905218143,16.079157596385357,6.694747416671817
1.936,-9.472106366574735,-10.296480460063322,-11.61995578103597,-11.13327559778736,-15.190253194850811,4.780625332154159,19.15427875443811,5.7304782553468385
1.94,-6.5207743488626875,-7.984967646149926,-6.084629205310193,-10.146641032863045,-8.549669708030706,8.025444738816987,22.158677735544188,4.778645665578324
1.944,-2.3145311855168984,-4.352668682628064,0.38158755753283913,-6.635948273689792,-1.3898408719924191,10.979765833394595,24.470062667742695,3.612447391071896
1.948,2.1939736318927316,-0.09342180573366932,6.364938765227635,-1.4869457754211908,4.819525092641015,12.6520563584927,25.448918360225434,1.9487439018868145
1.952,6.099532570848169,3.9206728395656683,10.601168507526381,4.074672913555332,8.999350240834247,12.47910675017738,24.71815784072942,-0.3854493987244041
1.956,8.888658570571351,6.982527982521788,12.420861836082622,9.00738367080885,10.773113065403777,10.553907396012619,22.357906974671096,-3.3124910956051963
1.96,10.576534381170859,8.791398610867873,11.925927679751112,12.819780866037036,10.474238213821081,7.584716701899197,18.88801748620608,-6.471300117093392
1.964,11.559859893914108,9.473122428137685,9.828343094718548,15.59543384294011,8.875195891407202,4.583375915608485,15.054639750383103,-9.321867850452577
1.968,12.277408313935666,9.392902894986946,7.04866625392242,17.707863421721413,6.77991758607368,2.4263350940309465,11.526117415481622,-11.335892701918738
1.972,12.886643339335933,8.894502063584696,4.301297422562129,19.432716212932064,4.698502805507815,1.485444598534741,8.662612734900904,-12.182491991551615
1.976,13.152605388248048,8.136665010540128,1.8790195324763772,20.70672609804933,2.7479087998672185,1.50250491983752,6.48675759374828,-11.832105303278354
1.98,12.605701759978729,7.089680457263967,-0.2961247888579237,21.16225173920793,0.7654739165163846,1.7753818173350737,4.832013536022714,-10.540407817442883
1.984,10.872013351705391,5.664390991978507,-2.4316903371245644,20.389345131068694,-1.4639111756432612,1.5554441392923763,3.559561424020103,-8.741889577101574
1.988,7.961432776105539,3.853856999200616,-4.6079577472282836,18.237782513893762,-4.0215766241535675,0.46354048348075594,2.701989414313857,-6.901827465947235
1.992,4.3250183967620615,1.783153843322907,-6.658110432985268,14.950919204003185,-6.7912464243663635,-1.2965090797533776,2.4491611511168685,-5.38510308544727
1.996,0.6484253004027778,-0.34879172837054284,-8.242141122740577,11.049822725142803,-9.503621641312748,-3.0380911737502174,3.0027615675267043,-4.385600034948482
2.0,-2.4913666188358548,-2.372750397517393,-9.036820701954639,7.06105811762427,-11.830301468194193,-3.95586205953623,4.401002779507962,-3.907247536817522
2.004,-4.8941074366848625,-4.200155483194521,-8.907774358415736,3.271579158325949,-13.451839693632792,-3.565635113854114,6.434984207818161,-3.798689783634188
2.008,-6.74914408434779,-5.771725741760747,-7.954462480463917,-0.3168577321803241,-14.090208131669897,-1.9737461880849878,8.706911440817976,-3.8222539204974737
2.012,-8.404418558196994,-6.954713805440861,-6.421625944844891,-3.820220418689132,-13.541728338876055,0.15967540703877603,10.767984862291314,-3.746648397754427
2.016,-10.0478668259193,-7.482694517393156,-4.5586108807437995,-7.217030563675507,-11.737897249034177,1.934466841471476,12.259032562910988,-3.4394065006101755
2.02,-11.497414381055023,-7.019592168255713,-2.5189807660062797,-10.170898988370027,-8.823054511242844,2.6467760585437645,12.973547837985052,-2.9054426084564966
2.024,-12.247972810379906,-5.329924954911348,-0.3566271345180212,-12.073895965721931,-5.1845153878402925,2.1072115823790227,12.84200643125314,-2.2647388274280615
2.028,-11.7522392644114,-2.4676814393878885,1.8952404486617525,-12.300711168370071,-1.3826038618681196,0.6850346410792554,11.886912828446157,-1.6794500823681915
2.032,-9.759464805775679,1.1484051971624467,4.14512444765478,-10.519765054122217,2.0332176345091284,-0.9213019779672322,10.203282447040692,-1.262435911113755
2.036,-6.503497905276163,4.858920027372278,6.2299194258621355,-6.883675807511281,4.742764963155423,-2.0437161000377273,7.997102539806747,-1.0323958369911566
2.04,-2.632111097395864,8.020608267401713,7.967654139549268,-2.0014649018121418,6.759967505032364,-2.3422193210212754,5.621197903988559,-0.9445996112375497
2.044,1.086718954025855,10.275754050813703,9.249034172251413,3.2973448376524175,8.36121635047084,-1.8879010666546492,3.556145171888602,-0.9760280715667591
2.048,4.120885419603837,11.688525223146826,10.101557141604644,8.277681699441928,9.86445206301596,-1.0163808839793091,2.304977221514946,-1.1906865707264274
2.052,6.381282918150646,12.66545165172738,10.676822592719873,12.516638527642499,11.386704424785876,-0.0752550605138822,2.216376695307872,-1.720682908937988
2.056,8.17317358766013,13.712758886593747,11.172575949068232,15.937639980857057,12.747543829984807,0.7793611352617518,3.3391258257793197,-2.64905460558748
2.06,9.927760911395126,15.141388822417866,11.726886681561155,18.670247684115566,13.573537216212117,1.623771567609765,5.368880646598882,-3.8592490149435434
2.064,11.86821347922887,16.87335723999604,12.33911613926648,20.834826179240736,13.542584989130319,2.6411163949514957,7.72157614390062,-4.968665261029912
2.068,13.796977101791526,18.43474450287431,12.85052776824159,22.379212128726067,12.599300574219342,3.932010895077383,9.707352929177432,-5.430278651587514
2.072,15.120861423860333,19.132358006236245,12.989741085566493,23.04802286031645,10.995664927856069,5.388597396064597,10.728060554479725,-4.780965677145275
2.076,15.100711564458834,18.33620697309334,12.468130320330602,22.492769095539188,9.13792419111951,6.717976697226277,10.444371760673675,-2.914819652729875
2.08,13.199069210189009,15.739406057020005,11.090426339973419,20.446460577541984,7.337597333641952,7.589379996447406,8.866904791135084,-0.2088166317886362
2.084,9.349703415596196,11.501522684367501,8.851484933549727,16.869473478229338,5.648126307080474,7.806474459925539,6.366576508480648,2.600339271505277
2.088,4.013876349470593,6.221160819510715,5.975788978479613,11.991929312138382,3.8948014302131924,7.386268570658103,3.594145510257249,4.742688580534946
2.092,-1.9765230245639032,0.762790905386737,2.893267990766617,6.257628736053448,1.9026305072975447,6.507510311339956,1.3255208079881413,5.787239364729942
2.096,-7.706205798312112,-3.9924940166656597,0.1384377324648085,0.20575421250759973,-0.24068540276311978,5.3724615497858395,0.24307309435585012,5.834765935402572
2.1,-12.453831973994966,-7.400294281274455,-1.8151614596135914,-5.649396112197792,-2.096640757273235,4.0837515319362865,0.6894363293272363,5.410586195661949
2.104,-15.826928683293772,-9.208852840319196,-2.71690418095568,-10.8797866613304,-3.038297339199289,2.6202462685046157,2.4960578242792053,5.1155444648208
2.108,-17.725178885576042,-9.57962128805093,-2.6339307953708158,-15.143722930828517,-2.6048719160503424,0.9262393738881656,4.9719823453660865,5.233132427344231
2.112,-18.19719947628164,-8.975193910965118,-1.9249266069659825,-18.15730098944232,-0.8401103274554771,-0.9586639554272551,7.1075855530573335,5.530242117584407
2.116,-17.2978406053262,-7.9428310740058805,-1.0837143847056723,-19.67573357442052,1.6122800158336759,-2.832645963816958,7.952429583593812,5.374484508813168
2.12,-15.037291457807441,-6.887611669671514,-0.5165199843740993,-19.507081901251695,3.7382322736975766,-4.377305883184363,7.006720089250052,4.11617917763391
2.124,-11.452927422958055,-5.925198637428366,-0.35861442257782983,-17.56702373642429,4.621029782450478,-5.2942632599238095,4.4476032419761395,1.5083766122046995
2.128,-6.750893785873814,-4.887424135110223,-0.42997323017243616,-13.957876108885102,3.8898974727080713,-5.457481694099897,1.0564692060107745,-2.0823770713673184
2.132,-1.399122889028149,-3.471930764809258,-0.35222858994711714,-9.019541982987903,1.9141989498943985,-4.978515980654265,-2.129585659846498,-5.788324537014574
2.136,3.9078135876561646,-1.457948320775131,0.22587950525303313,-3.325097349378211,-0.36665432639938444,-4.142216703859958,-4.273782604013832,-8.618341113565862
2.14,8.429755073896104,1.1183611129363271,1.4179371027039451,2.400385182176251,-1.9007035851614091,-3.2588964775927707,-5.078001746969903,-9.880607987646272
2.144,11.630562906120758,3.926736077003625,3.0191911239408,7.423318663942155,-2.0263418005602034,-2.5248427211672606,-4.82333480464581,-9.426537667490663
2.148,13.364744253237404,6.446499599398749,4.5902823299520605,11.157784652728878,-0.7827050818232237,-1.9718617581938815,-4.11714941857781,-7.6047468460632786
2.152,13.885416383023767,8.151809175864628,5.649969251543553,13.273004774902802,1.111260733387553,-1.5282664125495558,-3.5100785105985324,-4.996860993307166
2.156,13.664267937318982,8.695457847830312,5.873713150941967,13.720404025355947,2.5972396806005236,-1.1325425942286529,-3.2027384429479753,-2.1214472897740677
2.16,13.11430037840637,7.996819138452565,5.195293228803166,12.682936623886235,2.7500632216292615,-0.8144121498944514,-3.0136874236409312,0.7259880719989269
2.164,12.355521501694511,6.210171211971328,3.773794550886123,10.469284332513325,1.1696050181958526,-0.6887889391919089,-2.6040483624451554,3.434176829814959
2.168,11.156164410424026,3.6148119722361116,1.8729268266929466,7.409148848720633,-1.8692952380806673,-0.864229474378817,-1.786365116999491,5.9314078242476285
2.172,9.091405758913425,0.5099662328798331,-0.2531727161344861,3.7931579304945444,-5.54541011280935,-1.339406332102044,-0.7090634467552945,8.081134539763497
2.176,5.833484924877666,-2.8183949849042165,-2.3916746804743525,-0.1258853008166625,-8.806999053536856,-1.9684594612556339,0.2191700990706522,9.714576789715295
2.18,1.421089279348962,-6.067934798524448,-4.318355909857473,-4.0844289057395144,-10.737996502339229,-2.52067459164482,0.6162403013407811,10.78709279944141
2.184,-3.6434655361754267,-8.87202375849347,-5.72888811148141,-7.764048268442821,-10.825023592305342,-2.795707501640436,0.4256703996240958,11.518125052753703
2.188,-8.545059239344937,-10.825329140305712,-6.26092696771866,-10.809196047849582,-9.075811983894937,-2.736551240541303,-0.0025650485105188636,12.357573754405621
2.192,-12.499128527700123,-11.62665476533516,-5.653703733606108,-12.934450653596286,-5.9872453904017675,-2.4802671243851364,-0.14627178776026994,13.722841107560129
2.196,-15.10668893894217,-11.265380393369924,-3.9655745611796647,-14.071850338891181,-2.391206123960501,-2.316142980641871,0.26815388247700866,15.63223019622012
2.2,-16.541755425655083,-10.152379938437434,-1.725564572899657,-14.477431924102348,0.7456192692447985,-2.5843599778750104,0.9025180306830407,17.46264226962691
2.204,-17.44755591700641,-9.052914015355782,0.1356121798012282,-14.693628624251232,2.5433840200048508,-3.55333313326355,0.7928618718656253,18.039909691073717
2.208,-18.571534370077188,-8.791732712592875,0.6138490930784428,-15.328524629020194,2.421686386509691,-5.314508533457229,-1.2287249227053962,16.11051731135504
2.212,-20.320161465958563,-9.849124022212436,-0.9071946854660382,-16.74004003645905,0.2530270886084054,-7.728623329893026,-5.868071239445499,10.996816564674134
2.216,-22.466275073952147,-12.038010061732962,-4.2811604347703,-18.77555177371937,-3.574504548309278,-10.426494872788226,-12.799300061148983,3.0991026987557575
2.22,-24.180861032707526,-14.48276597822985,-8.541147922898745,-20.72209847773297,-8.236026291000144,-12.859723124781794,-20.55381247435298,-6.046583952073291
2.224,-24.40198944786198,-15.960115693634407,-12.23700456152983,-21.548669051569505,-12.687271956139966,-14.423874234262257,-26.998130554732597,-14.246738902812695
2.228,-22.374039615978973,-15.475137854726881,-14.03940807652748,-20.35626651257462,-15.972636956713814,-14.628737796673931,-30.215306120633215,-19.470318979765892
2.232,-18.09095174815684,-12.7960844047509,-13.332246348149965,-16.832550022261557,-17.526408362600023,-13.280232390574838,-29.36434120115274,-20.630150978271388
2.236,-12.403990253364555,-8.643105728451928,-10.484884769285372,-11.464379432925398,-17.335123617689305,-10.598718073576265,-25.0579802719908,-17.95106832072375
2.24,-6.721043665680554,-4.415329822210424,-6.662489261924293,-5.385042080850781,-15.902204689788618,-7.190604087774318,-19.064390373398112,-12.755885995592365
2.244,-2.428519589363077,-1.557273007367371,-3.2640514752408762,0.08620861797271573,-14.010587396436676,-3.8517261769638935,-13.46639523886546,-6.804538442955334
2.248,-0.32052532129318934,-0.8812006145134319,-1.2757039868160973,3.9814085352663824,-12.393553755973699,-1.2669193271037784,-9.712526177262816,-1.5359572538820316
2.2520000000000002,-0.33755267378455756,-2.2232974354885755,-0.881776357105764,6.0002859012106455,-11.467204236196721,0.2451964729655174,-8.061952714897586,2.3985554120227732
2.2560000000000002,-1.728541657548476,-4.605248939211265,-1.5108497015366993,6.449417518019345,-11.229953535734808,0.8117529147223195,-7.682955843781087,5.113493413573536
2.2600000000000002,-3.5300302571829434,-6.8089350751452,-2.254918134965237,5.870291070510348,-11.365187186658204,0.855375550042595,-7.3144761094714,7.085040568787747
2.2640000000000002,-5.098949373949836,-8.039678733488927,-2.4065251577769686,4.596229847833001,-11.460521840125693,0.7905151146950402,-6.086053556055845,8.65283069819003
2.2680000000000002,-6.39077330242128,-8.302152713076566,-1.8007824544603181,2.529628279831968,-11.21753808003291,0.7472091065044424,-4.023381778739349,9.745466116822755
2.2720000000000002,-7.846279033789415,-8.280264311017504,-0.789652924611346,-0.712677770045957,-10.547315873805246,0.49614762688020164,-1.9709282388758993,9.985948472440526
2.2760000000000002,-9.976727760217045,-8.80949437159768,0.08768118267630598,-5.381039009913593,-9.519718382082146,-0.3660087737021058,-1.0003642520384801,9.06324681863697
2.2800000000000002,-12.913662179466883,-10.293058533020258,0.4964440573205593,-11.185646298974348,-8.243860510274544,-2.075346837764073,-1.6942568359174857,7.094114595651277
2.2840000000000003,-16.20549070357947,-12.415472840087887,0.5014430528658522,-17.18570500153396,-6.779224188058606,-4.422089335992041,-3.745854840740151,4.706753170999818
2.2880000000000003,-18.998190899058045,-14.335897746158423,0.44889208747338216,-22.09365857182013,-5.154936305800675,-6.7283685704399545,-6.124410970812562,2.7639141916329706
2.2920000000000003,-20.48773921324846,-15.228702800594363,0.6436504243865784,-24.837213683558957,-3.468038213727425,-8.12142182080214,-7.690811998127998,1.8961030716494847
2.2960000000000003,-20.357131580918917,-14.809667220791255,1.0660557503891823,-25.047228261647774,-1.960373638546855,-7.969628345898741,-7.871201128267899,2.136087726179511
2.3000000000000003,-18.922882838503256,-13.507944016263536,1.3467157201290547,-23.16675167681842,-0.9831506978164839,-6.226741967647968,-6.9804031224948915,2.90735490481849
2.3040000000000003,-16.897235777377546,-12.152638162061578,1.0417674046810816,-20.108423588810524,-0.8265157925866902,-3.4802079421783105,-5.992775047507564,3.3799809182427225
2.308,-14.927277078741554,-11.38892023534072,0.01710157020056613,-16.681377374811177,-1.5170654023407337,-0.6697768612910409,-5.9142844165631345,2.982122849425906
2.312,-13.213835497827858,-11.21557556046912,-1.3407691715111696,-13.157849204933996,-2.7240136599215816,1.3648805136390365,-7.155070982250777,1.7515848650739514
2.316,-11.45445548622547,-10.9527514178871,-2.2547480135394835,-9.256063834946417,-3.8588071623983637,2.25311995003284,-9.271151376651602,0.3066331911987845
2.32,-9.156787236166906,-9.706796215425584,-1.9989151504940992,-4.556112380549962,-4.368289318901361,2.1766968550608112,-11.240268739167618,-0.54386230203216
2.324,-6.1156979588298555,-7.05109522036463,-0.39986930910447427,0.9289061629863227,-4.067538031480353,1.645303672056798,-12.096543626982793,-0.31452711391539623
2.328,-2.7278394478314567,-3.4808107549262104,1.927274187489843,6.431093487953717,-3.3089221824999413,1.1347254955658173,-11.526798764914048,0.8437366095501702
2.332,0.07961551047321791,-0.3255389072195385,3.7881795932344176,10.607559805492087,-2.8603728585879935,0.8194390112071233,-10.066399839468517,2.2247812162170817
2.336,1.2964279350075003,0.8918195025121918,3.9826049126135104,12.164025191525297,-3.520813514489191,0.5501517853538189,-8.779716801850412,2.9914443429152087
2.34,0.38923052314271445,-0.7135630781199325,1.9322228116780025,10.564651986965941,-5.6766375136187435,0.05377323724383132,-8.632253221577457,2.6842212214903967
2.344,-2.375434720463204,-4.848350904024528,-1.9927195091272552,6.3848431319887595,-9.03595228183326,-0.8137805130437528,-9.936497512400479,1.491336570754342
2.348,-6.0581660122256835,-10.129140298574043,-6.6420073806763185,1.0679852022306022,-12.704802912770106,-1.9456288286759218,-12.18872194792715,0.12270961653821644
2.352,-9.557654410764258,-14.766837192960338,-10.645973837819838,-3.7977625989883563,-15.570859645266637,-3.069737885590257,-14.375070137150601,-0.6207491917350296
2.356,-12.193683877104831,-17.453982343164853,-13.050902284580047,-7.270568377374502,-16.793568986210516,-3.965672225118624,-15.547021598559184,-0.31780109168822435
2.36,-14.012618267776816,-17.970443777274454,-13.695319406366593,-9.462196454713194,-16.164885039140472,-4.6365971440138765,-15.331564525612066,0.8448425656718115
2.364,-15.620401538501483,-17.165896319565718,-13.134019697856957,-11.320184560001735,-14.138575661168716,-5.2983715894436045,-14.074033136296975,2.215187082420641
2.368,-17.653021762152093,-16.362408254047523,-12.201007856977526,-13.924319585672492,-11.545935249505646,-6.1771575059989345,-12.576362032391103,3.078944653350419
2.372,-20.23888657114503,-16.552468029729084,-11.508978430524849,-17.739250861447772,-9.183476528416804,-7.2681014965514805,-11.634720562087352,3.056470565942533
2.376,-22.790151685704814,-17.843842229473125,-11.168494222850086,-22.254148543781184,-7.481631141511571,-8.244894837114202,-11.648556591384818,2.260464382908154
2.38,-24.27979390166456,-19.471716472361777,-10.869409979080501,-26.223793660275533,-6.433840248206707,-8.61761769708096,-12.523975363746558,1.1351184873350917
2.384,-23.83783062255202,-20.317869678742568,-10.215046713808306,-28.34503399282471,-5.7701094128630075,-8.059857665906065,-13.87298475582935,0.10859192890838187
2.388,-21.287242635110715,-19.586135947017397,-9.057294802176102,-27.939724377952416,-5.230770445930943,-6.680808963923141,-15.32610765719943,-0.6951227444055803
2.392,-17.29738997839263,-17.238014496655637,-7.613437448026389,-25.256334267630564,-4.759740876165324,-5.0471537854988355,-16.749524342709094,-1.4947763827088068
2.396,-13.051543751853842,-13.960206861369784,-6.306468161193607,-21.242922493095875,-4.497051393138349,-3.904616679516721,-18.230796506652325,-2.6342989999288022
2.4,-9.625865271495286,-10.740246734781067,-5.464946423735682,-16.973654172908937,-4.616314276546518,-3.7469120155174096,-19.884515912067684,-4.269512864223287
2.404,-7.4570499399458186,-8.336210453366789,-5.103795770075749,-13.10394590421788,-5.13225550215941,-4.499965924600247,-21.639403885949264,-6.182008214486757
2.408,-6.213623401432642,-6.964911635145427,-4.936677170683652,-9.680494914523024,-5.828433932554162,-5.536462335063902,-23.166583751068572,-7.8530396636229085
2.412,-5.1350616349045595,-6.366644529134874,-4.610532278402616,-6.388291504443714,-6.369270047078089,-6.045843938139342,-24.01491292455296,-8.759082576795834
2.416,-3.611315543318142,-6.138311260548562,-3.995612531683264,-3.026275126706423,-6.5233609398356975,-5.548050274658635,-23.86319757778932,-8.711581716608237
2.42,-1.6331760596358436,-6.0877596510607646,-3.3256791449507546,0.13710945656271178,-6.360766204553556,-4.234013290373923,-22.727574464341558,-8.013330972019588
2.424,0.15842951115700998,-6.364208482204958,-3.085128376065086,2.3744686890634057,-6.277158712962773,-2.909440228665744,-20.984960931705075,-7.327813469339958
2.428,0.8458233248834404,-7.308609495393171,-3.722331579949696,2.8711325076569665,-6.820175980795625,-2.5606909163307137,-19.207747844048583,-7.336045414478022
2.432,-0.1993083729398677,-9.148127070770443,-5.364470131649114,1.2282318342145118,-8.393715404761451,-3.779046926764522,-17.89959455328693,-8.367634752595507
2.436,-2.906799985486259,-11.7431266238126,-7.707802207376517,-2.230902892847098,-10.990130932905913,-6.3817012914365705,-17.276727090311965,-10.220513486754328
2.44,-6.493217140635352,-14.573534617533483,-10.151725787082796,-6.549230167045607,-14.114289450141314,-9.461593104224221,-17.223760494853934,-12.259171439299891
2.444,-9.84132077483946,-16.962914878763513,-12.084502024036055,-10.56947973958222,-16.94119511065992,-11.850138183796957,-17.41871982537441,-13.729994605136639
2.448,-12.05032989139454,-18.401380835527107,-13.153478370196808,-13.468171054355935,-18.65085894414915,-12.737702701719286,-17.548321407392905,-14.126965473772813
2.452,-12.818261793865986,-18.757052915513896,-13.35279385826425,-15.065334595139348,-18.766764802958278,-12.081249657750732,-17.462433093914854,-13.400628207672625
2.456,-12.45825197170143,-18.253223942942213,-12.901840779783015,-15.749864941287797,-17.324679515869548,-10.566229019520506,-17.18924217053376,-11.93133873375929
2.46,-11.599235066958045,-17.275426374260178,-12.041262858612754,-16.113456728553274,-14.826022261911703,-9.168332131060879,-16.84277302398357,-10.315196530411228
2.464,-10.76380682007948,-16.12605674424458,-10.879781521283121,-16.51800300327909,-11.9910751991722,-8.572050716028343,-16.483103009025797,-9.085028421093256
2.468,-10.08247458858932,-14.887581270814849,-9.388322231918892,-16.860949742576622,-9.442824634589897,-8.787044124421755,-16.028425229134427,-8.510287588292684
2.472,-9.308711193723639,-13.476384919320935,-7.533867829719611,-16.669447246044,-7.487547915540972,-9.195397545340711,-15.293723707101265,-8.555963463359532
2.476,-8.065720400535156,-11.803554859545443,-5.4211652150686405,-15.420492571496197,-6.061188166011107,-8.974277540686217,-14.113136407956858,-8.971704072845114
2.48,-6.153064576254337,-9.937167438362053,-3.338358060802193,-12.886211001186439,-4.869997504250023,-7.629999847732961,-12.480091681464842,-9.437030907192039
2.484,-3.7079768479841277,-8.130578227498859,-1.658037488130958,-9.28926827685359,-3.6251470489548865,-5.323221235851179,-10.603201025188014,-9.684282733977867
2.488,-1.132360656905803,-6.702514342752806,-0.6580630162357011,-5.19533262659138,-2.2415417397858164,-2.7965681150849377,-8.839213055555717,-9.555803835431433
2.492,1.135885267856338,-5.853278953855352,-0.3816553030039813,-1.238667222606182,-0.9045902280524842,-0.9642339449619612,-7.541549435214449,-9.006379637157721
2.496,2.8539661882427936,-5.518548222146137,-0.6212436687167155,2.1448606867729723,0.0306895748660736,-0.40549589653028306,-6.8976826652364025,-8.085031612397046
2.5,4.0540948331649815,-5.377227697063972,-1.041129098852707,4.821445771357276,0.23496377584501715,-1.0631412997968255,-6.863113267026961,-6.9139403716753804
2.504,4.939337741810505,-5.005156397346809,-1.3506610184331294,6.86973269873306,-0.40570654605380696,-2.31584026068208,-7.226186218219368,-5.674529976596702
2.508,5.689251298042791,-4.087652463224458,-1.420094928767412,8.3958652093188,-1.7073181582006782,-3.3509769689856057,-7.768056566355199,-4.5781430274060995
2.512,6.30812484234707,-2.5939574135484236,-1.2899915770080952,9.38857115386736,-3.2675590053468113,-3.6184612223557906,-8.431452772809962,-3.8139677582967266
2.516,6.6221286786365,-0.8087959383080943,-1.0845559976714867,9.714748257871634,-4.656207587050176,-3.094635001750703,-9.37506631696192,-3.486650872719281
2.52,6.407085926688978,0.7739819892244668,-0.922163830499585,9.236987688414047,-5.627756234356866,-2.218043834694754,-10.876048900532055,-3.5669599726315795
2.524,5.553455153064988,1.6487181364270782,-0.8801060304299426,7.948605733469321,-6.222476771951051,-1.5679024724715873,-13.103360066189225,-3.8871720317063847
2.528,4.148894913081676,1.489155475251664,-1.0291140304207147,6.016870080140507,-6.7089731469002345,-1.5015826229475806,-15.888942994516356,-4.185830855960731
2.532,2.4123081950078813,0.2458147960289807,-1.4881262832541324,3.6862653120720097,-7.408670155262371,-1.9716096202873814,-18.65819528714951,-4.19247831400105
2.536,0.5335122880660492,-1.857290203579396,-2.411346764924474,1.1140603764192747,-8.473624514312633,-2.619578021774032,-20.579738424875927,-3.7187068568653245
2.54,-1.4687915932040596,-4.424554444167143,-3.890601355767103,-1.740330636669114,-9.758429796733253,-3.0638936315476712,-20.90944701369517,-2.718416495676678
2.544,-3.755644002927056,-7.01482054990538,-5.817004162410285,-5.0660507724937816,-10.845676400129605,-3.180659481254679,-19.35720084807315,-1.2971086877221012
2.548,-6.511297887865112,-9.235902280476466,-7.8002663234883585,-8.987247337824556,-11.212836623110206,-3.191185350003252,-16.281650296068847,0.328846868773752
2.552,-9.721760869002992,-10.80028498731258,-9.240576711742051,-13.31416907021594,-10.466562395712117,-3.508432175817461,-12.60340588147119,1.896712993671855
2.556,-13.01605960626921,-11.51884685376558,-9.53759288935089,-17.4111519453013,-8.50858637850888,-4.444006185130775,-9.4291469822291,3.167380391374536
2.56,-15.692344067066188,-11.280864680819377,-8.350590435868526,-20.29819446237707,-5.566130170641827,-5.960316732991714,-7.57938414367743,3.984123928798738
2.564,-16.942728661282672,-10.040675795526568,-5.765901806405054,-20.975941868254267,-2.0724311947017213,-7.6204568841601485,-7.248326073139879,4.30754508145472
2.568,-16.16876401398804,-7.819686368915882,-2.2690794426689536,-18.825075284741615,1.5251959811300821,-8.764617340651057,-7.962803519740191,4.234652704501116
2.572,-13.249000178307142,-4.746311486160948,1.455375761157029,-13.901040160916637,4.90668079775196,-8.824114266611332,-8.876604688275734,3.98803467858923
2.576,-8.622997046768432,-1.0892104530271354,4.793104817426865,-6.971249727190298,7.910269252627131,-7.596979471203667,-9.22516718396389,3.866036549824571
2.58,-3.1530990399269285,2.735993645350618,7.3865938973376615,0.7248855598140835,10.435939116636519,-5.332846179345097,-8.710221849484697,4.158879870762803
2.584,2.1620855269561616,6.212111915813011,9.151662888908959,7.874711913218107,12.311334893425737,-2.6076581937782066,-7.626806660964348,5.031754869531085
2.588,6.493646834575884,8.828270295846778,10.14626282119525,13.47454408165595,13.23346985844887,-0.07141038504732933,-6.676074883445608,6.422033888332777
2.592,9.368280244443667,10.202044956301734,10.397472512035165,17.034824135889266,12.839682656422383,1.793606372479644,-6.587200753165803,8.012221422051255
2.596,10.678136499290758,10.174208140226028,9.813945801830869,18.55379312918012,10.888882681126915,2.7926863952000076,-7.749948501604649,9.307204972733075
2.6,10.554978225306968,8.831384873983097,8.237237894027658,18.32685640586851,7.435993700169092,2.9944980357249733,-10.048246894173417,9.816703787989354
2.604,9.210348091446576,6.457844243831005,5.596468278461543,16.727797109611856,2.8950019962967417,2.616677895885232,-12.941275898488357,9.287360950818027
2.608,6.844758447098229,3.4389029675185157,2.0543496225268427,14.079321779465317,-2.0735642232307328,1.9101219760877939,-15.71570380747869,7.879914884340764
2.612,3.666712349575846,0.154709915759895,-1.9592991481285935,10.653443567477552,-6.810796310529895,1.1034032354623378,-17.763571315896684,6.189484418097663
2.616,-0.023285368278720853,-3.082422816408325,-5.864266291463082,6.745298319228368,-10.914235419435954,0.39169188656205733,-18.750575059122752,5.051007337720193
2.62,-3.770015280930693,-6.045401259123764,-9.140671619265959,2.723342510721068,-14.36797581675637,-0.07582716986598825,-18.642284261359578,5.186967486482985
2.624,-7.000737108945486,-8.575048387523793,-11.506904454185133,-1.0097970663614433,-17.45334917060609,-0.23472577077291135,-17.621013995402564,6.838440317023526
2.628,-9.167225976304053,-10.54526618790851,-12.957896848839937,-4.131727242691795,-20.475746943919148,-0.15680142080464066,-15.965797050039441,9.570667212226027
2.632,-9.943460018929272,-11.85265412994363,-13.660199551049118,-6.529522917837312,-23.469687031549256,-0.07597299874669261,-13.97122350936445,12.37994376273761
2.636,-9.378615603168328,-12.433268331594718,-13.780643088002762,-8.355831829219369,-26.044971665196044,-0.3452199450316584,-11.893808149961728,14.077200964273402
2.64,-7.901474463350951,-12.292347920544216,-13.349465003831483,-9.946744986716567,-27.472744229778982,-1.3017229928841516,-9.904945275334967,13.805881729155999
2.644,-6.156569388146181,-11.51890477260008,-12.238328072594413,-11.63287904941717,-26.979801496443542,-3.0984002842815244,-8.050701451441569,11.438399477057487
2.648,-4.741359947593082,-10.280133418131072,-10.270390928677443,-13.535372646920223,-24.118211235918807,-5.587131046679133,-6.240060956091611,7.640132062889677
2.652,-3.9599009900416604,-8.794312888237982,-7.381317872969703,-15.443321773264415,-19.010751958667242,-8.32598500395261,-4.287479416955762,3.569086455015082
2.656,-3.7090739297932487,-7.279151692176356,-3.727446330278326,-16.84139312680827,-12.338790273725863,-10.723167700586146,-2.0192247615593715,0.3473737341680021
2.66,-3.5574187119746057,-5.9011731772523035,0.31630185387894016,-17.08530378319074,-5.096571408888394,-12.25544158560615,0.5889172396114191,-1.4255185230692007
2.664,-2.9817176593910517,-4.735607259282688,4.261741869586331,-15.652611780823918,1.7614593992352638,-12.662030084227354,3.3189788875655495,-1.8755126201270969
2.668,-1.6381368840588948,-3.745860252628745,7.648374979694381,-12.36630209568375,7.591843165188948,-12.02918578609615,5.73357973322004,-1.6778666382734286
2.672,0.4474197977310723,-2.80840051165319,10.13521213470949,-7.512033853351568,12.116547824213285,-10.733977647627853,7.308812877453988,-1.6212020943189032
2.676,2.8697805715473805,-1.7675726905167721,11.519029156642773,-1.8021838052941348,15.286677944241092,-9.283286529079305,7.630747735481577,-2.1721529640225867
2.68,5.017675408538707,-0.5205213092290251,11.697877155960214,3.8025295539428043,17.06536836351006,-8.122765511642228,6.547002537944081,-3.276851756503646
2.684,6.349106276049497,0.9167508210193773,10.648908556736387,8.362496160372757,17.316589904229204,-7.493606393927621,4.207015238701047,-4.482076513736075
2.688,6.6476083730472055,2.4023156405992268,8.465615159498157,11.240804005323753,15.892153900932499,-7.371552332181636,0.9891933969813635,-5.265839736830117
2.692,6.1246564827456496,3.7266448565310384,5.426469034600814,12.295094120405338,12.851029187999757,-7.495446272604568,-2.6244533232570575,-5.344381871733759
2.696,5.318852269283525,4.723320332744606,2.0231604366108513,11.90335772337221,8.645717550709378,-7.4653641553518355,-6.154682229337595,-4.7682373024077265
2.7,4.826341080043676,5.34396607645067,-1.1387477313101044,10.79310870224299,4.0869142918354555,-6.873629983270803,-9.19391572714676,-3.769130558050051
2.704,4.979505532755411,5.651306073616524,-3.570869719736038,9.718774389652935,0.04069957967431037,-5.4372909437547605,-11.437032514400244,-2.495863576441508
2.708,5.635555405483956,5.715167471320456,-5.164754924192039,9.114864588163073,-3.0162241539915158,-3.087773831951381,-12.719536329250332,-0.8545724273492397
2.712,6.183511218790045,5.462431709810517,-6.327789259263682,8.885000939925703,-5.32160198719248,-0.001239165153947397,-13.084383019681582,1.4133287661393013
2.716,5.799221483858673,4.622098614148854,-7.850029116416863,8.453152367062103,-7.77102031106233,3.4406442477284145,-12.811157163836924,4.454409960112599
2.72,3.853296123194923,2.838968340880001,-10.498231613220014,7.090298978468127,-11.432661772414576,6.759872327756511,-12.34047672749307,8.03639761209402
2.724,0.27795449055429344,-0.06074651056496805,-14.515246822546487,4.362646631939242,-16.834340261129,9.51571826381678,-12.07381084556414,11.49671555211495
2.728,-4.2901381706033135,-3.7893374082286755,-19.29836135778578,0.4749233863749396,-23.416198179169896,11.41304717236062,-12.11985035042062,13.983151259941394
2.732,-8.681449348425303,-7.500591745541897,-23.46891958965307,-3.6919127757028036,-29.492595715055813,12.353412377739005,-12.136849394762294,14.880412298488835
2.736,-11.626817303748794,-9.995685979242353,-25.364212336762648,-6.908501450660879,-32.82987494725239,12.416687626408475,-11.399799541066955,14.146889204735686
2.74,-12.261123863343073,-10.205158266284798,-23.76344544372114,-8.144669502891247,-31.61860664470214,11.799674946202686,-9.126399940624196,12.337624149575248
2.744,-10.461072575962135,-7.715800560938533,-18.488329770458677,-7.062911090732996,-25.360359171041182,10.745393884779332,-4.921367436122523,10.27287183396183
2.748,-6.846755297837717,-3.0381567193153387,-10.550028632147587,-4.178839619294649,-15.203252996190713,9.499082998949234,0.905874619827614,8.539542225776216
2.7520000000000002,-2.463240088243765,2.5578887476654018,-1.7515290906057999,-0.590687271004299,-3.5386391327651836,8.287308919767838,7.342885410520012,7.139823585698906
2.7560000000000002,1.6966413937188918,7.6137341725764145,6.065131784718687,2.589081485532006,6.970014543284378,7.299668326789288,13.049135721932544,5.52402419130425
2.7600000000000002,5.080477921471356,11.1658752027231,11.746251115706855,4.789506986654487,14.445715605019814,6.655285883548913,16.925961064512308,3.019095678279001
2.7640000000000002,7.678154884072683,13.166644961487464,15.160415790509887,6.211045651307813,18.431973410823957,6.351669365118141,18.583643902543713,-0.6052893538253841
2.7680000000000002,9.812252649956463,14.385066626030266,16.98171473314187,7.599790462009878,19.7977841031161,6.2326700523817635,18.44144823795,-4.79839971479575
2.7720000000000002,11.771470493110883,15.832370098431284,18.08842937011741,9.70808866809648,20.020717907633298,6.024788859645469,17.406868860573923,-8.354798642117629
2.7760000000000002,13.52140311782341,18.056759750230412,18.952308316513154,12.760486110286365,20.292337079374647,5.455506477412655,16.342929789387426,-9.97687255965721
2.7800000000000002,14.66111464588721,20.70813944490419,19.364906329996757,16.235359301115295,20.909328047042436,4.4054986755090795,15.613908882798796,-8.969730291138433
2.7840000000000003,14.65152181833082,22.661077202653587,18.651356970774486,19.101204277601937,21.253645754100035,3.0161832346575466,14.973315125635736,-5.664238144533925
2.7880000000000003,13.171762612885232,22.64229708080279,16.20808289658862,20.3691640639654,20.304392741294123,1.6804955248003353,13.843363653752817,-1.3072417674236192
2.7920000000000003,10.368518915069217,19.98956700143117,12.000437222813616,19.630838091124588,17.33446669525256,0.8934956910020446,11.790346453792154,2.5426504235311427
2.7960000000000003,6.840111514769433,15.108517447946497,6.709668775320097,17.269928770833303,12.398612785325895,1.0238195006295427,8.913906451811613,4.779495754301081
2.8000000000000003,3.363308416160635,9.34176836813208,1.4336433938196933,14.233238918663119,6.3489538936237295,2.127975434031214,5.891204318639211,5.261333420141057
2.8040000000000003,0.5303542522106,4.32178260979731,-2.8636560801151063,11.50374999045971,0.42435865504103276,3.909474991933621,3.6702293036724996,4.791197399953063
2.8080000000000003,-1.4930223335022674,1.1748968373535718,-5.803112112373128,9.587700471973221,-4.3134688288637335,5.848631490517619,3.003702327984456,4.594707771059888
2.8120000000000003,-2.963453790778658,0.0185922934813334,-7.671875762758191,8.306517793371313,-7.385909591154359,7.429851627074186,4.07169321555682,5.5958183702739746
2.816,-4.31320078671024,0.04083079111160259,-9.08881405280681,6.997085685679394,-8.949322644669792,8.344264680993092,6.4073769809574515,7.890229662103309
2.82,-5.8185124082215225,0.08254088573698937,-10.48300862564156,4.987404977247024,-9.521907609211212,8.559504429237222,9.141910363695501,10.70353171243815
2.824,-7.384776158495697,-0.6301497142617336,-11.725010391498017,2.0567712822644353,-9.592738597567404,8.233184607143812,11.4114650277603,12.82265956762808
2.828,-8.5621634761942,-2.02739910752166,-12.151721530863142,-1.377823101897775,-9.351168801928225,7.5498620507246414,12.710773188693565,13.236066362957501
2.832,-8.761944583847253,-3.255644707072861,-10.965172796905335,-4.424088094656781,-8.653610729968705,6.603230807778118,13.029589708317985,11.635132047606646
2.836,-7.538161971814134,-3.186238155921501,-7.753317484086892,-6.1101440538086536,-7.192512805364231,5.413793460903889,12.750918017843674,8.517131079761043
2.84,-4.784764114209793,-1.0750190597843812,-2.8136493614815663,-5.785201195740683,-4.7348578316639305,4.061370216894602,12.394921287442685,4.877924317188274
2.844,-0.7551854487059018,3.0174016167233617,2.92579849068818,-3.3200380009319588,-1.271027243734693,2.822474247500736,12.3550437969771,1.6980301918147944
2.848,4.067150517781556,8.257243550143926,8.326750932880032,0.9466606459850482,2.9633509048104543,2.1843573169383035,12.737451963909962,-0.48557868297669415
2.852,9.135880142319365,13.447317598167047,12.537696114965456,6.414435903231151,7.554249285666856,2.673480368123137,13.337900915516116,-1.7077259404640586
2.856,13.960011971530548,17.56745953725226,15.283167474746733,12.428538303861387,12.011082620655543,4.560489299173014,13.748564430622764,-2.3880632612636816
2.86,18.12901913910764,20.13239210494453,16.791112520932984,18.367769135471917,15.834485941717048,7.6147403922457215,13.531424606796804,-2.97826214551165
2.864,21.289241992909865,21.22274882967986,17.462373027622107,23.623076289361506,18.56845073166437,11.079491709722788,12.41628816289142,-3.6585472555505874
2.868,23.140317842740842,21.236557473082485,17.5231427005765,27.567131828948277,19.86647752890667,13.931088525173436,10.462669214077891,-4.246771679119945
2.872,23.474402926246512,20.543413791213652,16.87934445417477,29.600396732758327,19.566675044506155,15.314507675718232,8.106623645044124,-4.3358610724068
2.876,22.261854966975534,19.286579393315606,15.267832177679338,29.31839745293155,17.769507306617243,14.941953907046354,6.064373032002095,-3.5430949993557874
2.88,19.71230652330405,17.409124403019405,12.560025121980743,26.71331376510716,14.846415600532964,13.242443380227087,5.0740590150916205,-1.7197832688706
2.884,16.248464024111854,14.840975008280338,8.986809269233618,22.2714284839044,11.33616032525697,11.15547491089842,5.552636856377717,0.9835970878470164
2.888,12.387465487163809,11.690416941060448,5.11453253017703,16.877695593560475,7.762206653365411,9.667686207804536,7.3308416753006895,4.205590114569645
2.892,8.568525202316778,8.286855292273685,1.5647315547307699,11.526187303569714,4.454685303714314,9.325588070012145,9.611804133062037,7.534380506300607
2.896,5.042880779256848,5.07596177583855,-1.3112405188101093,6.983371653963786,1.4989448392907434,9.987321909751245,11.251435498031015,10.642431334005465
2.9,1.8738796827769875,2.431844974884825,-3.5809793112507577,3.5656379004128667,-1.1708214706911804,10.938668711343098,11.263039361472579,13.330422181596532
2.904,-0.9684134942585843,0.5137783128577667,-5.6019041442662,1.1276093308374584,-3.5893321507010114,11.288163712056303,9.312659747713838,15.467608057727261
2.908,-3.4519623981268523,-0.7198871275111287,-7.674002082358129,-0.7220502684106123,-5.597727880859793,10.432212044954667,5.959798445614126,16.903497821138217
2.912,-5.3730985732549925,-1.3778390832111427,-9.713060002304246,-2.3109804659666224,-6.828061943188914,8.343903998464384,2.476567087928629,17.43241208804261
2.916,-6.3534172463462255,-1.4609550793329618,-11.164458958692876,-3.6567651106615813,-6.840898596440411,5.552525054607031,0.31796564231842694,16.855740533172963
2.92,-5.958535827427113,-0.7816284172629366,-11.240254186209086,-4.412340786054301,-5.3518999660605004,2.849102264310204,0.48057973395680165,15.116315782679365
2.924,-3.8951263505819043,0.9586041997129087,-9.35131354515147,-4.029483442425544,-2.3989879009182005,0.9022586281550957,3.0874072871912404,12.423614272100522
2.928,-0.1887421172905306,3.973732740121818,-5.480081162720353,-2.044944894775199,1.6485129819448048,-0.0012070418315488496,7.407837761562973,9.28420335973776
2.932,4.740395494487302,8.183186476338278,-0.26769348988614183,1.6508379496624457,6.234299505571926,0.0231486078321268,12.26632489134488,6.391930238008953
2.936,10.140084809655718,13.120734091224904,5.237498228500499,6.680259043523392,10.829712388092503,0.6316501201181381,16.612051805322153,4.38510722834026
2.94,15.108050541214425,18.005677659020762,10.012549303200785,12.231706200883991,15.059627935505432,1.4756712000632888,19.910342116841264,3.5637054155188537
2.944,18.82955826279658,21.95427378901661,13.42488257823743,17.263293818886496,18.673464871923443,2.318671766009402,22.148641431227645,3.692360073653248
2.948,20.77209534326812,24.227785712905643,15.321854699042206,20.76427673858825,21.393882337746504,2.9839285034472596,23.495103807741145,3.9893476456501844
2.952,20.758548292680643,24.39572389296427,15.820540997401622,21.974925824402817,22.764724505605614,3.2143541629228594,23.85570272806808,3.346700615613784
2.956,18.910459346851667,22.383647509937305,14.982440336397985,20.515040296631923,22.15572299217763,2.5933554781070143,22.667858065056464,0.7199909908024154
2.96,15.520346287676148,18.425716048232175,12.631480025714154,16.42928190002931,18.982029384413863,0.6393651203997024,19.122909856673516,-4.437236445268525
2.964,10.931278728211964,12.992747205268188,8.4705395777778,10.17058658531596,13.0622028417489,-2.927231600956361,12.739555350521414,-11.868916272554898
2.968,5.506699921070776,6.753287386108923,2.4440294624575927,2.5430042716925527,4.930226160845905,-7.881627809319866,3.968071133407875,-20.471178670481194
2.972,-0.29730429054825436,0.5503104204648253,-4.892674933140825,-5.393238271047949,-4.102237969140106,-13.35190347034461,-5.57171452573823,-28.538513481073807
2.976,-5.833668944220335,-4.651114835334738,-12.274624759470953,-12.473322353931053,-12.218648162247064,-17.978604354674417,-13.434924783934491,-34.23809743656493
2.98,-10.265138616912282,-7.921154284907743,-18.04771408909619,-17.648321302991917,-17.646083292806793,-20.362302913787516,-17.20064796086143,-36.1466176177868
2.984,-12.755385368979205,-8.638142577045642,-20.81364171039968,-20.247705496479057,-19.26826467804517,-19.619517842935466,-15.464271145309567,-33.67072808060564
2.988,-12.805187996182894,-6.771701863322619,-20.078387274580564,-20.1884346619222,-17.034184419024882,-15.778122036073,-8.485187998467211,-27.208425341490326
2.992,-10.57676960601384,-3.025813650191367,-16.545268310978827,-18.029956264623138,-11.979817200155821,-9.815210199966032,1.8323758909287449,-18.007287423374315
2.996,-6.996384223020641,1.299599437263737,-11.85450309721682,-14.810164091148067,-5.830454836940248,-3.306734957051276,12.649270619430297,-7.792882572416104
3.0,-3.4992933639626926,4.72610680533694,-7.870993944257407,-11.69090406828775,-0.3585684831796243,2.160712126241606,21.258227096232417,1.6947464502686813
