Timestamp,O1,Oz,O2,PO3,PO4,TP7,TP8,Fz
0.0,1.6751044995544362e-12,1.0800249583553523e-12,-3.410605131648481e-12,-1.7461587731304462e-12,2.717825964282383e-13,-1.1315393066979595e-12,-1.48947520983711e-12,-9.983125437429408e-13
0.004,-262.1770872588504,-215.81468497556807,-351.13848497447134,-209.24938936985558,-106.62541673128851,-131.69250038049205,-213.05418500048577,61.221009770382594
0.008,-455.4512848987457,-375.7386446851031,-609.9743271425859,-363.6941151885157,-186.1203989897903,-228.6450440917872,-371.5216789200564,105.00220176461343
0.012,-540.7436210500994,-447.82282382710827,-724.1474339699217,-432.04483558534076,-222.59097846995414,-271.05931220595795,-443.9223827372509,122.15005410821028
0.016,-523.5900306899174,-436.02002048737927,-701.0536691155025,-418.26279027002545,-217.1157707066659,-261.51752138665483,-433.5112146331471,115.59480254945018
0.02,-446.96329147911047,-374.61071509326183,-598.2954843012413,-356.0940851356339,-185.42874652910197,-221.51575753746937,-373.07443098516296,97.9170218516155
0.024,-366.83947631830745,-308.75940623504187,-490.95850182398783,-289.9443964380502,-149.0442971851177,-179.2715711998237,-306.35601089814213,84.13491951087012
0.028,-324.37727620770687,-272.1986835519798,-434.3063435070683,-252.94494817738214,-124.83142610511673,-155.76079349092723,-266.6077381625741,83.88405627087232
0.032,-329.52948669987984,-273.86583495589184,-441.73061538822196,-253.82513050594446,-118.47337645870833,-156.37400206642388,-263.57313758227156,97.2893554787774
0.036000000000000004,-363.35179889035913,-299.38138424129556,-487.72840167941115,-278.37342959062477,-124.64596630708678,-171.87454781046927,-284.59996242387217,116.46756778580028
0.04,-395.118891847031,-324.43929191706144,-530.8458256448639,-302.64806552542603,-132.82451145225716,-186.8933444222196,-307.16163107041797,131.1755058217002
0.044,-402.415154938642,-330.796115705998,-540.6995184727457,-308.711586973361,-134.5297533981289,-189.99254847436492,-313.9525451509446,134.95007285740132
0.048,-382.5204459191915,-315.5808079372288,-513.4557751370238,-293.7917019652282,-127.8220025012177,-179.52268481181403,-301.77275995551156,128.189266438215
0.052000000000000005,-350.2354391979751,-289.94542244060403,-469.1059641845753,-268.9262383717172,-117.08072080205525,-162.73613240958014,-280.41196488657613,116.87625744965717
0.056,-325.8095699385866,-269.78140152352495,-435.29691334224407,-249.76922968183607,-109.08029151166699,-149.84633774469617,-264.0744254778748,108.33272856377272
0.06,-321.6952034685418,-265.2774362930961,-429.4063074786376,-246.2937266800181,-108.33728777623901,-147.3942903941489,-261.7335277408851,106.84402765979911
0.064,-335.9969217787303,-275.5212900064081,-449.39488951094995,-257.4624317338255,-114.48231133250852,-154.75102834602706,-272.18017657140757,111.70655893375294
0.068,-355.56174253384324,-290.60880563729893,-477.6338401057888,-273.3455857309753,-122.966726055511,-165.43421829257954,-286.0628608827197,118.4601941065506
0.07200000000000001,-365.5835818781518,-298.97208914174246,-493.70054258432083,-282.4095387529462,-128.24840190665157,-171.80550590838638,-292.7494989557565,122.16820775073725
0.076,-359.0593240014773,-294.8019062797728,-487.26139588923195,-278.8795922610757,-127.22887920565702,-169.8809551359224,-287.1917071520144,120.5249282966721
0.08,-340.22718394864216,-280.9483247044784,-463.135133809065,-265.630900070615,-120.83047488709349,-161.35102837632797,-272.5056060494966,114.88859925765908
0.084,-320.3860215149175,-265.9032889116445,-436.08577807661254,-251.16377396032038,-112.84052053391933,-151.71882235624483,-256.990076090748,108.89443926682148
0.088,-309.71649468610167,-257.5581136788741,-420.0379258365506,-243.38021232960645,-107.14611758348508,-146.29393509627187,-248.1953706583173,105.82552124311266
0.092,-310.9553460529563,-258.2430140416181,-419.44695651335945,-244.64348979475733,-105.35589247135093,-146.9052672719991,-248.29733153915322,106.59811843083565
0.096,-318.82861717599997,-264.1252578986439,-428.12713572227585,-251.17540844905784,-106.27544251123895,-151.33532088259915,-253.62106967494307,109.57977401486238
0.1,-324.75659448631734,-268.68857074693256,-435.16986088082564,-256.55184288806083,-107.29437014213529,-155.46217007041915,-257.99166266677025,112.04647343822289
0.10400000000000001,-322.81950659619895,-267.26652797271765,-432.71964075448614,-256.2099397019222,-106.35330210913048,-156.12239806229843,-257.0014554062111,112.06367719201344
0.108,-312.98591961506656,-259.5832954787426,-420.39539566733697,-249.95021378530788,-103.16604530478611,-152.8241913019658,-250.34466936348196,109.50780910252917
0.112,-300.1227900184223,-249.14202722983308,-404.2615284353718,-241.2714988424001,-99.08761730838582,-147.50175238770765,-241.1969264670661,105.76259982505263
0.116,-290.21830100021384,-240.4921275504775,-392.0533369299004,-234.57167614797146,-95.99094663679782,-142.86290904550344,-233.66185535137961,102.54556345892348
0.12,-286.6047044926522,-236.42008031585482,-388.2608371793294,-232.34092425960176,-95.04847587179577,-140.65874109058106,-230.2148719051583,100.74087671380279
0.124,-288.306550759961,-236.62260942878885,-391.78949166525194,-233.89849926149475,-96.07668477617594,-140.76882759934608,-230.53884737762397,99.9507554424915
0.128,-291.1930980410141,-238.4054189569619,-397.2794587544426,-236.24337466362135,-97.797355216683,-141.57450599025742,-232.21511313460582,98.93476379409373
0.132,-290.95207337205983,-238.74757934319365,-398.9054946706922,-236.27616395919193,-98.77474627672106,-141.2270833045029,-232.60871741848493,96.57397717389853
0.136,-285.88007025336304,-236.3025675139569,-394.0749541255535,-232.8602331019026,-98.36921160816948,-138.9108384251838,-230.63302499137507,92.69731706475838
0.14,-277.70627503369076,-232.04283236005057,-384.71254495569144,-227.39875299566177,-97.09254731708286,-135.31690098578088,-227.2479225707355,88.22202333495136
0.14400000000000002,-269.9953180092401,-228.17388212621802,-375.31108662168754,-222.52751917083478,-96.07067751085572,-131.94397923460696,-224.3701520959471,84.56549358367798
0.148,-265.5213113694583,-226.3239924120821,-369.5414254380952,-220.08299034707568,-96.11317413560562,-129.92753342532689,-223.20704904381614,82.75931085920881
0.152,-264.6300163866958,-226.47110030042285,-368.03284893098487,-219.9262502277864,-97.11876885573432,-129.31943600551364,-223.37237568910373,82.89942432106128
0.156,-265.5961918674637,-227.2983096007148,-368.6948989174831,-220.3792603279486,-98.22102767166524,-129.27426758869905,-223.38450132205264,84.26117436387665
0.16,-266.2983723695129,-227.4246303834098,-368.84487678762866,-219.71984933463227,-98.49365249845214,-128.88590283433876,-221.96021753474497,85.84566120154466
0.164,-265.59687421256297,-226.29313824754502,-366.99671987382607,-217.31886468019772,-97.54002905623418,-127.78507443308544,-218.87860283360746,86.90535644481967
0.168,-263.56094236360696,-224.16194035474004,-363.24484867486626,-213.7476788508614,-95.64014139071895,-126.18120063480568,-214.88936193341513,87.13224117766238
0.17200000000000001,-260.84771259766785,-221.53843119840175,-358.5460276934442,-210.09467793330833,-93.48933607598096,-124.50543594734442,-211.03621722531403,86.557782580672
0.176,-258.0461929558255,-218.7285287427505,-353.8712357915431,-207.19853114916688,-91.79909570604617,-123.06306836525297,-208.07602855767377,85.38787637773979
0.18,-255.44008351630376,-215.8087870689444,-349.8330806542747,-205.32361968097592,-91.03165270784177,-121.97953748627273,-206.3175145613494,83.86044909231282
0.184,-252.9915826609373,-212.75108240365503,-346.48328254014143,-204.13385469179988,-91.22242243330362,-121.20243499613696,-205.63636827171712,82.16207439231341
0.188,-250.43084040732907,-209.53312006547645,-343.31819566311276,-202.9293735837984,-91.98439018220543,-120.57935760991634,-205.56271479622802,80.38637345648712
0.192,-247.49782515709632,-206.25623826585507,-339.63218139216826,-201.08541291944528,-92.74328041082951,-119.98617051290655,-205.49384293397392,78.55077519062294
0.196,-244.2603535475531,-203.2463545760285,-335.09509388585224,-198.4796096399396,-93.0791569736993,-119.4421798231556,-204.99401800628556,76.69007767234376
0.2,-241.2345278971029,-201.01458461539903,-330.1621413880006,-195.64386639617564,-93.00072535394747,-119.16457277508388,-204.01876611026972,74.901337690782
0.20400000000000001,-239.00101490192054,-199.89745114129138,-325.6946133796133,-193.33087026894162,-92.86065162076534,-119.31774896354143,-202.76955985232848,73.29197454523829
0.20800000000000002,-237.67572302300005,-199.685789707954,-322.21941048298424,-191.90212598683394,-93.05530582642638,-119.74878712984712,-201.37953359807148,71.86771150845448
0.212,-236.8002895367144,-199.67096588266568,-319.58329119238783,-191.0970273268208,-93.78307063276316,-119.99636922416977,-199.8115122391674,70.49890172643087
0.216,-235.78003193605613,-199.1445514054207,-317.2886008319247,-190.35076318733678,-95.00534597057089,-119.59680584969738,-198.05453764401764,69.02920493995516
0.22,-234.40955996618572,-197.908377270491,-315.09201184207495,-189.33217777082484,-96.56476474698263,-118.47393104248181,-196.33497112475817,67.39309115882858
0.224,-232.84765910224615,-196.24060924095693,-313.01096395291097,-188.05332699638296,-98.1865453547147,-116.92934532882535,-194.92803350907218,65.64752828270508
0.228,-231.2856477967067,-194.54088197927697,-311.07498306021347,-186.6840900948609,-99.47969120877275,-115.3993690598386,-193.85840005907116,63.93862254015845
0.232,-229.72729250551373,-193.04305801445176,-309.2405881165056,-185.36375546642165,-100.04550180239379,-114.22186158869096,-192.84231344864057,62.46015484376025
0.23600000000000002,-227.8069015422774,-191.59491966620686,-307.19791442713176,-183.9566038651424,-99.55941552781428,-113.39805693510914,-191.34128177894183,61.362969008040665
0.24,-224.90561139180818,-189.7476003624039,-304.4138501620092,-182.0608266042238,-97.90267314001733,-112.5960255669153,-188.82607590085814,60.66520834005753
0.244,-220.70622306006783,-187.24619881142888,-300.63786253745604,-179.41646244052396,-95.34794473853606,-111.46066018618819,-185.25088376829314,60.24899386513369
0.248,-215.6021600223546,-184.39729605610535,-296.26547593304156,-176.2595516485382,-92.57625636450541,-109.92333224856633,-181.26338184178513,59.89637796065504
0.252,-210.4571106144116,-181.8680954624939,-292.0138322378438,-173.18796916763569,-90.3779675725003,-108.19521159235453,-177.8169327368331,59.30093388704795
0.256,-205.95031163439774,-180.10512853499097,-288.2282978453393,-170.6708078186849,-89.19920805102734,-106.50373131226172,-175.48462226174547,58.11693259780836
0.26,-202.17888388641973,-178.96205974938368,-284.63322820891887,-168.7184330836256,-88.8902970207742,-104.89223325680517,-174.1070190468046,56.13936488949505
0.264,-198.8115723260454,-177.82527967026806,-280.73340465873713,-166.96460533213315,-88.81920015827563,-103.2303567387109,-173.0184498809149,53.54319718332886
0.268,-195.49014837021784,-176.0237927570861,-276.3362276295247,-164.97636678562475,-88.24255179375184,-101.3442903279167,-171.55274281547332,50.94633429919508
0.272,-191.99989134101818,-173.11976151650882,-271.5724966691473,-162.4451885467567,-86.66322808382591,-99.0802160914943,-169.3394130039622,49.14403963481739
0.276,-188.21663609697163,-169.009993709519,-266.5615298107905,-159.23621189605302,-84.03491255891012,-96.31895343059824,-166.32630696505242,48.64756205172993
0.28,-184.17797531172315,-164.02689861409738,-261.33693648768457,-155.5029159240725,-80.82674111098034,-93.0784651264103,-162.75593028442506,49.349134651432855
0.28400000000000003,-180.2918603034878,-159.0097487173711,-256.1432113028362,-151.81013592943702,-77.90166507376867,-89.64916951590112,-159.16436751871998,50.536348458225405
0.28800000000000003,-177.32067589247694,-155.09653194988832,-251.63004730582378,-148.9942881919753,-76.16999170415613,-86.56398736174387,-156.22779771084342,51.22433941856836
0.292,-175.89520956386872,-153.13126793171278,-248.48219058388474,-147.6485145594728,-76.10512437638484,-84.29644080743297,-154.35165647491127,50.59235254957085
0.296,-175.93039357722785,-153.09162835568011,-246.80762380151424,-147.61696064181203,-77.42818085382105,-82.91990321793843,-153.3146550769709,48.33408778341101
0.3,-176.56625932051426,-154.09090194977676,-246.0213311751703,-148.03669912046144,-79.26106933601943,-82.08308279897835,-152.40106786633467,44.80110165425575
0.304,-176.72834743200576,-154.98715373198004,-245.35293180387694,-147.94918993250013,-80.65993950426042,-81.32750441249671,-150.98206332785998,40.8916528791593
0.308,-175.794807442524,-155.08540226967887,-244.42134209783023,-146.96109097021446,-81.14372182290076,-80.44687922218367,-149.02815885040872,37.67571817104172
0.312,-173.7736526700313,-154.3599333951637,-243.24739866258074,-145.38004205436178,-80.8469093584144,-79.54488672508492,-147.08184621186166,35.85800539401728
0.316,-170.99618933360182,-153.15436747459782,-241.8213478749224,-143.80565437538587,-80.2442650355662,-78.7958816460766,-145.75488242968785,35.413120759280915
0.32,-167.80745080858674,-151.79672158652204,-239.8849855696905,-142.64713980046778,-79.7568517540634,-78.2040293137102,-145.27223321988038,35.653632885994014
0.324,-164.51823706399426,-150.4408464613644,-237.16577506417752,-141.92011343945885,-79.51126846762462,-77.54951447209136,-145.38703607372304,35.71132643735207
0.328,-161.45416174730627,-149.0887829271731,-233.70122835738962,-141.31891439996934,-79.33509131586376,-76.50812303572252,-145.58098889785373,35.08671869205386
0.332,-158.79995243294195,-147.574281323585,-229.7519077373725,-140.33462005155974,-78.88075363987168,-74.77301476270881,-145.26051628203027,33.89187869184766
0.336,-156.38295707390773,-145.55365117436773,-225.45261773138154,-138.4132739967672,-77.7977708548018,-72.16473508195722,-143.90707897912665,32.67110496281064
0.34,-153.78475983784324,-142.7229155574715,-220.7628828656318,-135.27340354350352,-75.94869272022349,-68.80930849363577,-141.32303668606593,31.98783676335769
0.34400000000000003,-150.73745630134653,-139.14328490197437,-215.76674783818706,-131.20594922821738,-73.52427941808011,-65.26009388738343,-137.8658513744655,32.0724189526943
0.34800000000000003,-147.40921843365257,-135.34694586041314,-210.89375040603812,-127.05345748931731,-70.9482491319896,-62.36684195614829,-134.39160702941945,32.692928188308414
0.352,-144.20947160770447,-131.9948211852627,-206.60981766097495,-123.70094870520569,-68.56689887829782,-60.81558595517137,-131.7472220345664,33.2777300899285
0.356,-141.3386805368566,-129.37658257946993,-202.89625299555138,-121.46000066790297,-66.3928388357697,-60.64733646422158,-130.18749044919758,33.21323547737181
0.36,-138.62540905055354,-127.26103521627971,-199.19008866646806,-119.92451260621539,-64.16682572780803,-61.172964570797845,-129.24399744000257,32.20396384557216
0.364,-135.8298638899996,-125.2377285643283,-194.9370802544199,-118.42869242406663,-61.714473195103494,-61.38520351168469,-128.18432413358732,30.47826983264295
0.368,-133.02345951041738,-123.17128639351826,-190.2041238988599,-116.66587415152483,-59.28170428508745,-60.56333950617028,-126.62010602726589,28.680783638125405
0.372,-130.5699483350796,-121.2959878793405,-185.66900662400283,-114.89468004992437,-57.516571480476415,-58.62302273040105,-124.72502288102945,27.46214304475197
0.376,-128.76933493729422,-119.94239211807417,-182.05335943001228,-113.64570208222167,-57.10353372915929,-56.070208976734136,-122.98201786289711,27.048281826769255
0.38,-127.59751909733923,-119.24774843684692,-179.633468015946,-113.29332393425935,-58.342584050971396,-53.72305951001559,-121.78894069606204,27.119820713273086
0.384,-126.79756541752735,-119.10939562354328,-178.20452534878999,-113.8232049960841,-60.960700999884054,-52.38249659470762,-121.2492171885408,27.09110153348027
0.388,-126.12060325830952,-119.2890548616725,-177.31183471584853,-114.83226297895726,-64.20593224112115,-52.533551154839415,-121.13989255121045,26.585137941000355
0.392,-125.38284978827389,-119.45056870790016,-176.3470006056832,-115.62007161376211,-67.10382121764053,-54.103249585669644,-120.92738677478954,25.716664744832684
0.396,-124.37675741315755,-119.16434432752617,-174.5721078377327,-115.38516174686842,-68.77618078780401,-56.42007225351706,-119.87766927238167,25.005711446743575
0.4,-122.91392434155303,-118.058043666814,-171.40713150572734,-113.61370353338147,-68.76664935518586,-58.522072548553666,-117.39006385306831,25.021491642838967
0.404,-121.03909744069611,-116.07565627921919,-166.9160630410796,-110.47847513716556,-67.22850036652173,-59.66401709422446,-113.41504286151498,26.007518039420916
0.40800000000000003,-119.13102187483248,-113.58062915665442,-162.0129275876547,-106.89324062254852,-64.84576750858008,-59.68324672455044,-108.61262297360341,27.690574121382355
0.41200000000000003,-117.60054437813235,-111.0655379742468,-157.94351693634277,-103.9920798819841,-62.45885503354694,-58.92774566240578,-103.99220383899916,29.368282547860773
0.41600000000000004,-116.44364134289438,-108.70554946611946,-155.41003944829671,-102.37665051563616,-60.62618933601138,-57.853817015878406,-100.29646834050835,30.251789044359597
0.42,-115.15570630695159,-106.22250072669135,-154.14843277548027,-101.75529568446424,-59.44965523564137,-56.68522084402633,-97.67122562213068,29.901549776713296
0.424,-113.16392450250382,-103.22034590161026,-153.30006800422285,-101.24090194214766,-58.74208775459212,-55.371094357625765,-95.8510258011795,28.517302804098307
0.428,-110.37145124762102,-99.65655630811528,-152.15018455732616,-100.00337087835752,-58.31142738109213,-53.7783206216764,-94.58402254808973,26.87586351808544
0.432,-107.25141015127429,-95.96090882020746,-150.4808160516781,-97.70857979568387,-58.0743699260329,-51.853499768869355,-93.81081648026692,25.89381098779674
0.436,-104.46529233300956,-92.73877668462504,-148.40518018707414,-94.54431700783978,-57.96111958725159,-49.67116065440787,-93.50938084151832,26.08345395825451
0.44,-102.4338586763503,-90.39655662974806,-146.10195559507815,-91.03094788410186,-57.80323949120954,-47.4563647274268,-93.48021048687967,27.278648786701993
0.444,-101.19614669466985,-88.9705718111828,-143.73582416516916,-87.80446721094927,-57.35047009807373,-45.594233626050766,-93.3255528275857,28.80867718594169
0.448,-100.51763018645974,-88.16215327387997,-141.4664421545915,-85.40426584075423,-56.38773657920197,-44.53890103377596,-92.59437441055802,29.971793351524667
0.452,-99.98218788611459,-87.41778577716059,-139.27688478682066,-84.01313855053121,-54.829811414066256,-44.559137344188954,-90.89857687715416,30.454784488347627
0.456,-99.04347925655287,-86.04933847631149,-136.77221668321596,-83.29154908444481,-52.742780163458804,-45.47280134351706,-88.00107379377894,30.448535483751982
0.46,-97.217736354518,-83.50718476524813,-133.34791257976497,-82.54068374068675,-50.34530528349711,-46.64123070749878,-83.9709871188424,30.451626917581052
0.464,-94.41562865829505,-79.74654411073197,-128.73574742841203,-81.15355002748045,-48.001929555203986,-47.27738654564283,-79.36588291948638,30.922965177442222
0.468,-91.10312683254449,-75.36682267626827,-123.44464964745085,-79.00052723747105,-46.14020045170584,-46.858705937059256,-75.18444864446121,32.00795149368426
0.47200000000000003,-87.99733610115952,-71.27564552531251,-118.52739482091269,-76.38528137137897,-45.056285936859425,-45.314991909202575,-72.4161635335892,33.43987141182605
0.47600000000000003,-85.51774873981236,-68.0961531671737,-114.84181385521973,-73.66816585218722,-44.71472184998686,-42.93083000295246,-71.44482905946325,34.67222633750728
0.48,-83.52299366546443,-65.82813230106663,-112.51291417363475,-70.98729849622879,-44.75722707693291,-40.16375508820545,-71.81065237196435,35.182381082296985
0.484,-81.56188389484369,-64.02662747709263,-111.00992828617146,-68.31586631324154,-44.73498263160651,-37.51497542472106,-72.55047517858944,34.776765753945995
0.488,-79.34714358379736,-62.27312938829171,-109.64379597503606,-65.71372510978533,-44.37311449495955,-35.44637347775796,-72.82247236452466,33.687183749658146
0.492,-76.92423204886904,-60.46586171285051,-107.88968613540257,-63.39956573337055,-43.64053727050104,-34.222629738263834,-72.29265749806565,32.364511289770775
0.496,-74.46372100941826,-58.761091866281255,-105.4065288046716,-61.5778666227436,-42.607291593651425,-33.756234778881236,-71.07730412626836,31.14840403744293
0.5,-72.02370851072864,-57.373900773572174,-102.06698235425121,-60.28386594586799,-41.31678150178162,-33.65700313492272,-69.50350058540063,30.048752046066255
0.504,-69.53048285482254,-56.42447454670027,-98.10478841301902,-59.393139569665735,-39.77629923668874,-33.4878208737895,-67.91067589705555,28.822148889499644
0.508,-66.94763087932938,-55.890392517799015,-94.20959377367198,-58.759161160177484,-38.05402807360423,-33.06189307905399,-66.54651278270555,27.242370988733896
0.512,-64.34213789389682,-55.55354111773296,-91.21528874711903,-58.25527395834173,-36.32294405305363,-32.503074921181934,-65.45727202146409,25.322427574622154
0.516,-61.809102398163006,-54.994706768107406,-89.54622055288,-57.714504472955085,-34.773336707678794,-32.04429243532621,-64.42708800262083,23.361678831807282
0.52,-59.40251060292788,-53.74275896647518,-88.88172486879375,-56.914865275422585,-33.48177650322617,-31.765282510774796,-63.075473991126984,21.79756076132624
0.524,-57.19147003522512,-51.57661355799084,-88.36030697317807,-55.71100156452765,-32.35561447451819,-31.49864701034764,-61.13092927457562,20.964951598019965
0.528,-55.36443980957884,-48.77198551980915,-87.18069764843412,-54.203578114898875,-31.18729175486358,-30.964880220913273,-58.70959936575383,20.91473900003956
0.532,-54.114585954550165,-45.96262814155857,-84.96586728422145,-52.649934727398474,-29.712042902810538,-29.90692690749222,-56.27601570280403,21.379377342514346
0.536,-53.37751849693255,-43.691337287845755,-81.7148322343528,-51.1702800630019,-27.66472799077279,-28.147602967469794,-54.31089126511115,21.901200557497503
0.54,-52.743682533998694,-42.04871618386301,-77.63238280464242,-49.57797469556877,-24.919714645711466,-25.661478294849474,-52.99447700787053,22.027215020636632
0.544,-51.720483059465096,-40.71320989285047,-73.11749338870281,-47.53999082017636,-21.68702248035771,-22.696412417316083,-52.18487192338662,21.47310461999446
0.548,-50.147167069897804,-39.318593501471995,-68.84684620731062,-44.93671628809919,-18.590918585903765,-19.844468394524142,-51.62099886205958,20.184984210419074
0.552,-48.30489376890343,-37.741207970934184,-65.55400094082584,-42.005699723299415,-16.439996195339162,-17.841088648050686,-51.04522387254674,18.266983355067097
0.556,-46.64876486073552,-36.11998325085166,-63.578192982253995,-39.16628266588961,-15.772684100212246,-17.167862465259788,-50.191706723910784,15.877549066861732
0.56,-45.447514680599575,-34.699329315708326,-62.60398270559452,-36.74284982867334,-16.497515073395775,-17.75311330880197,-48.780888733948785,13.191391534836953
0.5640000000000001,-44.676989919601155,-33.69730886882952,-61.89333455466496,-34.84925649087408,-17.89942880179484,-19.012222194058722,-46.66465478174034,10.447476537499654
0.5680000000000001,-44.19083834934692,-33.26110388344355,-60.847843336355126,-33.47329834077557,-19.006479094309853,-20.194357431325358,-44.04423846167201,8.024080066286174
0.5720000000000001,-43.81880077286928,-33.352423608933165,-59.26635776408537,-32.50873934237913,-19.028613708646645,-20.699350114636587,-41.432301819429014,6.381964168749562
0.5760000000000001,-43.33104860386237,-33.63015771285461,-57.17899345642819,-31.71501034422363,-17.648099012398873,-20.218199549366375,-39.348904562656784,5.859793156098064
0.58,-42.39598994037927,-33.4865957518803,-54.57207028523848,-30.740237843256324,-15.084131016833183,-18.75423356287544,-37.980720150875115,6.438157738431201
0.584,-40.7087086014128,-32.333753315346556,-51.38241797638854,-29.316085916252646,-11.979489919662385,-16.627835143256732,-37.107521128976614,7.637343734356094
0.588,-38.254375458624295,-29.994774112172465,-47.78083474796139,-27.517134197744753,-9.166205822754648,-14.452463472995248,-36.33411800230111,8.681564249203788
0.592,-35.35424662823135,-26.805154977367522,-44.23827311730233,-25.736093322203914,-7.306578422643938,-12.899630434416764,-35.324834513481065,8.859150809315395
0.596,-32.47155164857567,-23.38093482753044,-41.284535945997504,-24.389426483113695,-6.581580453045035,-12.330821211237065,-33.912675833212234,7.896431975393867
0.6,-29.975397433624188,-20.28994507771749,-39.215454646707585,-23.635588696768124,-6.652462158978153,-12.561236421772122,-32.117853170192916,6.114114520761689
0.604,-28.07143944805867,-17.891872602931016,-38.02832204252141,-23.351477459990278,-6.936792049859704,-12.964414684963515,-30.15201243830151,4.265294854586415
0.608,-26.897306282473103,-16.38986998331174,-37.600183423513855,-23.356178063535353,-7.0192218512521265,-12.877710821723326,-28.40309484689564,3.1380884447208075
0.612,-26.514139796456824,-15.853141744290696,-37.73538699570234,-23.56872761782678,-6.871922263994364,-11.97375363238271,-27.249309355312235,3.1009126486585785
0.616,-26.77982776512401,-16.140585563170248,-38.07071589460804,-23.970886313951155,-6.745118692069212,-10.390950399522296,-26.79187545429602,3.898794954382879
0.62,-27.3059508984893,-16.852981066636943,-38.09895906475741,-24.496206834761978,-6.88306251379484,-8.648027430404852,-26.770624548640214,4.831408103005671
0.624,-27.641925129052296,-17.443738263086033,-37.438499143736806,-24.986519110672702,-7.295320724883254,-7.4197788275732535,-26.777518645875816,5.222491113041116
0.628,-27.54565096718929,-17.435714147521495,-36.146744892995955,-25.221198325529286,-7.706890997426484,-7.252010033099822,-26.575926957913268,4.890785665851553
0.632,-26.987410615520027,-16.511635538843194,-34.60095519519288,-24.865500594512767,-7.638777281741426,-8.235408500948836,-26.152127401253153,4.269231894148035
0.636,-25.927215212924374,-14.490985923462418,-33.046375734203636,-23.428647035016624,-6.592171674584449,-9.849877186573536,-25.49277562809577,4.076600760193486
0.64,-24.17430690969863,-11.355997331132073,-31.29653423024274,-20.435733078783727,-4.3151176916209835,-11.191553692064701,-24.363234719410073,4.758321565716415
0.644,-21.530042073229936,-7.3828961382441065,-28.916641154901,-15.807506340399016,-1.0229188625860104,-11.515500744530982,-22.358691591318347,6.094220819805827
0.648,-18.139869951541485,-3.2614769646993835,-25.77447758858851,-10.208569596341036,2.5811337820182274,-10.768400751644066,-19.241141166069937,7.267345248609445
0.652,-14.618098348822699,0.08783428106099223,-22.319840870164043,-4.9370475819850554,5.601461321806823,-9.642521803047885,-15.208044085209835,7.346242878312637
0.656,-11.778260963475077,1.9725971675278657,-19.34348872371214,-1.3252742482287374,7.423269091376895,-9.079527971557297,-10.874076576918768,5.891591982207714
0.66,-10.168561829314015,2.339353466446667,-17.470927117235746,-0.05119185195526654,8.029911183069501,-9.60590300080895,-7.011050277022491,3.2922731878383047
0.664,-9.76478614402864,1.8110223319446277,-16.799988361444264,-0.8110985059688716,7.953416452589167,-10.953484121574974,-4.213269942160039,0.6176917531447685
0.668,-9.98545946890701,1.317830110050437,-16.87812784352579,-2.531831150690067,7.900753810130269,-12.215852472718922,-2.6379610696388056,-0.9629666261872813
0.672,-9.893241541760716,1.6443406975864434,-16.83712202101411,-3.8933845542315595,8.34384091933373,-12.386014578997276,-1.8460818157621617,-0.8947145477559246
0.676,-8.600003829282876,3.075573790207983,-15.749213027449088,-3.952726149589239,9.283807149039305,-11.006799361920315,-0.9346133598829738,0.3819619432733674
0.68,-5.787729656218609,5.243269900746213,-13.179813362816333,-2.6128058320382195,10.297101961623383,-8.565136801507748,0.9772436545322734,1.7030153134952428
0.684,-2.034279548509531,7.2760987319522314,-9.569887256855694,-0.6384175197873816,10.872364722213845,-6.290264680282519,4.18795315821454,2.003091211040285
0.6880000000000001,1.353278559816168,8.234777318081584,-6.109655973501361,0.8245386968483075,10.818961239402029,-5.418101425809624,8.149827205773946,1.11529119424425
0.6920000000000001,3.152327271542717,7.748304816850265,-3.9054548251386905,1.0873190039418859,10.532002198530492,-6.285753553585465,11.818725113162088,-0.059398087527611665
0.6960000000000001,3.1694183136405343,6.430146825592985,-3.0239383342677826,0.5493898702264346,10.882366841879431,-7.89972576542624,14.377863463934958,-0.18069603326752315
0.7000000000000001,2.5564855693573563,5.657331391295372,-2.262116108165486,0.5658751741405723,12.689280924680332,-8.419814385408301,15.761407270932793,1.4844167378619062
0.704,3.1567733698502494,6.740218184167475,0.08391094651109654,2.5585179867798047,16.07726211377306,-6.334634068134562,16.60544135698028,4.300891185595333
0.708,6.276938019920799,9.99609600295895,4.91330751301129,6.931837471475632,20.148588896792276,-1.6262458496864554,17.694649285194885,6.339720714534664
0.712,11.714629603652206,14.382939184810994,11.47627524931336,12.567773176226126,23.268020992710717,3.8993552165723884,19.369123237142546,5.297096785222422
0.716,17.630576691932184,17.91249830676435,17.511883454453482,17.22240516954919,23.83442236116575,7.375561541654662,21.244878343428226,-0.21546278132414898
0.72,21.305692193715522,18.56405339821461,20.21625767196538,18.564514966130943,21.094097183179073,6.316233077077243,22.34597029975761,-9.706421927448503
0.724,20.43574074496172,15.231935558311058,17.611348111654365,15.341369411834819,15.580361503927577,0.022525385612169657,21.601671504893304,-20.746994394773694
0.728,14.340109576460854,8.261309706532408,9.639509979518323,8.057677073454883,8.91400918625196,-9.874238864300835,18.459482786068435,-29.988660096165646
0.732,4.535286131696417,-0.6146139357285847,-1.5204371903585212,-1.1329742826384575,3.077719238409273,-20.048053232243888,13.323125861774997,-34.789636291077926
0.736,-5.75664555471041,-8.949608773596246,-12.246002203771695,-9.326816646407536,-0.45031162995985596,-27.01260352714067,7.491622817779415,-34.50823567888345
0.74,-13.044225378367187,-14.59550572826371,-19.12182275621062,-14.141628813840981,-1.2538318336968075,-28.766872421968017,2.5665581732300353,-30.663540218596935
0.744,-15.174497844379545,-16.51331540670789,-20.491906201609268,-14.63645889524313,0.09370502270365932,-25.57966879896742,-0.27725309374686447,-25.858954903048
0.748,-12.178697371838368,-14.948351417041366,-17.01049115052389,-11.41094660315526,2.6299389767322623,-19.538234866546702,-0.6916836538926958,-22.180189824655713
0.752,-5.881831108191513,-10.928595150375251,-10.867259457858793,-5.9097016797455595,5.696478810712506,-13.208686712267692,1.0021252521698756,-20.113256419843594
0.756,1.2970742929420283,-5.569137830944953,-4.362511852749762,0.4674535164447775,9.206831144899056,-8.31240473300754,4.2383869781880605,-18.638066320044345
0.76,7.455609425098864,0.248519402232958,1.0907257113421736,6.77507400369484,13.276452163867603,-5.2495649728820695,8.410276534678687,-16.371550715404197
0.764,11.642229675523133,5.7268325232994854,5.07657754064418,12.345608732120688,17.57467082540237,-3.5514674003998294,12.75788335469467,-12.929550227789676
0.768,13.58718451252237,9.835829517681645,7.571135466597497,16.357815952040824,20.92760347484056,-2.801556516162961,16.145229530978526,-9.611364480229497
0.772,13.217245203907549,11.313630575171217,8.337826078489812,17.703630555249198,21.58996892844167,-3.265947070937486,17.125525071148957,-8.943381027261566
0.776,10.42041570083773,9.139032716517335,6.836509594147856,15.398196991164085,18.148406448420033,-5.762722861086047,14.446233556775773,-13.250836823207088
0.78,5.217276206124005,3.2162557019725426,2.672471517674815,9.299671803871753,10.54447635577936,-10.870659690968182,7.782464102239736,-23.042172730663466
0.784,-1.8098353782888736,-5.1648670762398226,-3.7004213216011834,0.6707864901431293,0.5707247600130358,-18.02653983443848,-1.7005961901149718,-36.19948247000172
0.788,-9.17487686418852,-13.467564482829957,-10.557113076307118,-7.898482213206961,-8.598201117241466,-25.227318840860164,-11.375515046686758,-48.60682591270603
0.792,-14.580200483915554,-18.70519614021764,-15.167722260779023,-13.326023650804757,-13.709459232426035,-29.6705274867306,-17.921582680083418,-56.00540531328321
0.796,-15.712042104730859,-18.6886650780669,-14.918361311325796,-13.38626608915811,-12.968251652214548,-29.117628031956002,-18.664224510339707,-56.07280432108105
0.8,-11.483705779534253,-13.163241914185754,-8.825959191388066,-7.912479223739741,-6.979955433952409,-23.223617088611554,-12.906396069649183,-49.532121545292476
0.804,-2.8974241610395257,-4.107365437664807,1.5753496982640804,0.9639955332066457,1.523819251326067,-13.912094021321067,-2.460258369114946,-39.652074568369486
0.808,7.118698628656118,5.092211678303638,12.691313374410903,9.78054545896289,9.062392990567083,-4.503171597836669,9.054375132281695,-30.491576264285644
0.812,15.004874750073851,11.255103846774091,20.606613445615572,15.473731176773768,13.127598627307115,1.9422094586957286,17.88162292146931,-24.95215601526376
0.8160000000000001,18.286386605134748,12.905741201378685,23.080396334360103,16.872306305419745,13.282740688646609,4.078176224931273,21.848253711898426,-23.680937518112003
0.8200000000000001,16.677203632422383,10.7787906025293,20.553004234648434,15.059540200311037,11.048181057617846,2.6805664230915447,21.149578138684408,-25.277554468055904
0.8240000000000001,11.978389163341618,7.106022926703227,15.643530795501961,12.47239821984292,8.740176331495388,-0.108468579199819,17.84840474618135,-27.51313331388897
0.8280000000000001,6.915981753904744,4.186645118405277,11.50066268418505,11.331921705866742,8.004096241923005,-2.1689505763187515,14.483324077269131,-28.765758239022812
0.8320000000000001,3.682389311057114,3.1452550949761022,10.071772022175704,12.389801070947689,8.93115880766155,-2.55158762015302,12.682200416105655,-28.847444496994815
0.836,2.9763352899498328,3.549158342578073,11.236118993497268,14.680570500900691,10.226292359801334,-1.755722333205025,12.529442591310158,-28.81640583972412
0.84,3.9535232515261356,3.984883008803484,13.165001116857745,16.317767604716884,10.223764889825897,-1.091121426487133,12.916011515339601,-29.99488147996812
0.844,5.043263246031007,3.194916141540219,13.675218096936131,15.828233944878344,8.10295235917123,-1.5790804681337196,12.574345767831174,-32.88339544324932
0.848,5.078862159455634,1.044747234345477,11.710431880587622,13.16964954215888,4.513789527512769,-3.1626838867298765,11.086245780024372,-36.72490694181458
0.852,4.0603138857374725,-1.262978122453971,8.079376567852922,9.820816693553327,1.238528410017791,-4.728476864362566,9.235151856179908,-39.98569362316967
0.856,3.0726203521337077,-1.89017500361126,4.961038702736765,7.878746427330171,0.1199917633305283,-4.905137959812343,8.464334386062298,-41.36841354725192
0.86,3.4224492348547475,0.4279491590794926,4.458365589451077,8.71492940651429,1.9400973075303973,-3.0750813186208603,9.80216997229299,-40.62206221306609
0.864,5.642904526224422,5.465748824073128,7.215417271080582,12.095484136520891,5.975769078139937,0.16393276174921567,13.022862688880586,-38.61749831721883
0.868,9.075059075849964,11.497078505246783,12.011206516974212,16.32539618117213,10.468359299869846,3.388020036751797,16.649999729650368,-36.70817589145986
0.872,12.313860072645745,16.229856452557318,16.60593007370447,19.323207393934794,13.674623595247766,5.298049840491856,18.833946204627686,-35.86890209862354
0.876,14.163555053450118,18.092002679585974,19.21040651803866,19.909217170189606,14.818089115071771,5.55708472138798,18.506186199180327,-36.18909948658939
0.88,14.38527513425501,17.0405624985938,19.536184381996257,18.455082883560834,14.36048427909725,4.920482340733116,16.026230919160362,-36.99342890045354
0.884,13.766735274965981,14.443923089169743,18.820216972582706,16.54323283042669,13.519734194663037,4.623462918441234,12.933315975310748,-37.44691302021036
0.888,13.533329654170473,12.183912104244328,18.869636281103027,15.897363601663997,13.405106297077495,5.440574469382469,10.990875989168288,-37.2135127750128
0.892,14.551677462649181,11.58678383138978,20.824547529087127,17.301200353946243,14.352977045612903,7.072960915822449,11.160540464911108,-36.736362644297444
0.896,16.793747235032896,12.780640019757143,24.38620676038262,20.133897997982892,15.841214516290009,8.260152288542685,13.104510353606969,-36.94185871526818
0.9,19.358138350496013,14.801478364594068,27.951865282814893,22.766013564550917,16.97139119374458,7.557860175030186,15.474741623620844,-38.54498563131193
0.904,21.040709444524808,16.34808466165108,29.64243545007774,23.5973978626225,17.181174903072346,4.3462072853014035,16.808068318575792,-41.43371222860081
0.908,21.081175814378746,16.672877590133304,28.555556562164313,22.068767167570243,16.665977740503948,-0.617936721365993,16.4528728515741,-44.60675085962879
0.912,19.6519540263172,16.068433744110976,25.47810621883812,19.039480944470327,16.23578118439947,-5.484407394263428,14.964926130844162,-46.75575075583909
0.916,17.752914736010197,15.622925792445912,22.539195751039486,16.28611003751486,16.711365866962268,-8.307066079604795,13.70223892019078,-47.11998940870852
0.92,16.568160831336414,16.397965131861383,21.940328285528025,15.41968845581954,18.280263149752642,-8.165997233827937,13.860088814927678,-46.04914421378531
0.924,16.721953027334088,18.604119192224942,24.60246420037862,16.92868931219381,20.289280413653785,-5.673003209807632,15.616595603229513,-44.86584516345911
0.928,17.885758178677207,21.307947871842586,29.527672770642596,19.892855731460415,21.57783654150306,-2.590798485973636,17.915526661360445,-45.11580381955446
0.932,18.984426556579464,22.895213925845113,34.30265716480946,22.527115476580803,21.149819389793862,-0.8074474080868299,19.042820760554008,-47.677385884100914
0.936,18.829545674087484,22.00327045514578,36.42340233224718,23.19818079917816,18.762163114146887,-1.2912684519524191,17.63426987123694,-52.24718211089035
0.9400000000000001,16.75726326306706,18.331010397178503,34.615490923306226,21.289342474509937,15.057035778469526,-3.6475409010536453,13.476552167952093,-57.491209491527485
0.9440000000000001,12.955718671813813,12.878872836839605,29.4828739945998,17.483540666011976,11.215785317972745,-6.444340437121866,7.663543734073215,-61.747762273054605
0.9480000000000001,8.370301918136533,7.491151505934354,23.13626341074729,13.345352271563854,8.334982496364177,-8.090131202176224,2.0165774563604657,-63.8835805759482
0.9520000000000001,4.311310610226457,3.9812285875361795,18.09618570762663,10.49040681816004,6.892032628096274,-7.734323458586857,-1.8251528684868674,-63.863333375396024
0.9560000000000001,1.9188157010767952,3.2641379186984807,16.02256887976435,9.768237642060171,6.556884632613588,-5.70523183778198,-3.1917411391550274,-62.71937272797339
0.96,1.6918159917500475,4.938257708966091,16.92341084255588,10.869136754369578,6.439011834271213,-3.279529996831684,-2.632107479027411,-61.928049367913786
0.964,3.3267935949941148,7.569417379208232,19.34482421869373,12.59495930102156,5.644487826050607,-1.8835015279648815,-1.4806584222136507,-62.56612654524048
0.968,5.888705553836516,9.471193486292634,21.3133557658835,13.537369793116142,3.753202741441555,-2.2933608165246255,-1.0327057465364646,-64.78472245182917
0.972,8.216594812076721,9.539228799610527,21.434320503647456,12.762267222488532,0.9704770761566976,-4.312779638048994,-1.8248309694918987,-67.87364548233882
0.976,9.370939401973587,7.688867517749202,19.525329995777753,10.16931609005897,-2.066560202264526,-7.033286308979314,-3.446038682130677,-70.7791431986395
0.98,8.993423621389582,4.751965510141986,16.530207941064845,6.435591995196603,-4.6358610028187,-9.413867659216805,-4.89776023198101,-72.69601859021972
0.984,7.493834347508212,1.981952656140578,13.931879433589756,2.6934261422433963,-6.204278216496533,-10.753565418094638,-5.207122176857183,-73.41290783856962
0.988,5.930695637258623,0.4273699491411094,12.956608438569617,0.06781418168594655,-6.579328921689211,-10.893186379985025,-3.964635948282478,-73.28551466729795
0.992,5.578927580695364,0.49287453082513366,13.994917446038528,-0.7345539744536325,-5.917104257979929,-10.121378865223846,-1.5038221514937504,-72.92674994288046
0.996,7.250085877112127,1.809364971620937,16.44438351445507,0.3169628950250569,-4.641259978576045,-8.942382594218884,1.3024511382919854,-72.82224069481174
1.0,10.725564172926624,3.461364777422432,19.053598252251106,2.581320015880806,-3.2929861842820856,-7.833229804183986,3.510982176373261,-73.08002203876856
1.004,14.693407312201117,4.47588787816909,20.64240823970846,5.038703686705844,-2.333619192401727,-7.067443296845283,4.621495278523184,-73.44729072974616
1.008,17.21272761194558,4.2431388795130545,20.643870839342185,6.619073101183574,-2.0562282472420748,-6.7631975665660775,4.777080692380366,-73.59403320840568
1.012,16.537267172818957,2.6876067182190013,19.217322449002097,6.468089941173389,-2.589409664718687,-7.029935488110766,4.5696971628044025,-73.41489725751245
1.016,11.955198907678863,0.19155152825277355,17.000504951104745,4.158269658472989,-3.911552589528071,-7.997061749537636,4.610307646911167,-73.10809190374738
1.02,4.265482210227674,-2.598484167636542,14.752968822614378,-0.15550551624534137,-5.849172265806544,-9.658944278377703,5.1654808136564725,-73.00977604640167
1.024,-4.367259429670838,-4.958937262886309,13.129873562188948,-5.67492753465956,-8.067999371674603,-11.66000188203975,6.087525189794462,-73.3315064402093
1.028,-11.24574463259907,-6.290118488873929,12.49941933576008,-11.15650956312902,-10.156085435944533,-13.31872668850508,6.964204045614338,-74.00876693406047
1.032,-14.317217980060917,-6.3136740963162765,12.81226026612768,-15.337010285545716,-11.768349555053533,-13.94044954493097,7.365656121768893,-74.75537760235619
1.036,-13.078462306993885,-5.180676674092808,13.617348791992924,-17.37037556593515,-12.709450347383552,-13.203061407001428,7.0778238873608075,-75.24947267520639
1.04,-8.70587544635356,-3.4084422134164356,14.277281349805605,-17.06641414226567,-12.921571914683682,-11.357352039693865,6.22895881705017,-75.35128467151401
1.044,-3.3483250251396726,-1.6391668192926545,14.324039091379234,-14.837387223127791,-12.41057525696408,-9.092620077894821,5.280619318464517,-75.22560579646847
1.048,0.9309053209356932,-0.4014621416004047,13.635588735303429,-11.510611483610944,-11.250663842171434,-7.22570098332676,4.798615577254395,-75.30129202585749
1.052,3.003281583334058,0.03744837430190273,12.399251436819668,-8.073603118006872,-9.65532374125928,-6.351622415248812,5.135792782941337,-76.06218407092643
1.056,2.9510666357088553,-0.28649205224940033,10.964864588018543,-5.39549474153074,-8.006459879077113,-6.591107223125505,6.2271637071442,-77.77236265236871
1.06,1.7589563594672768,-1.075535138356713,9.71179773349752,-3.986079237169747,-6.774265458823663,-7.561482075057256,7.647969035228584,-80.31708628619634
1.064,0.648501539296177,-1.901796243450292,8.963698907683977,-3.877773235853738,-6.351010581750415,-8.597540500806076,8.868463455008282,-83.27050610279974
1.068,0.34273147935482484,-2.467532752125692,8.788438662406747,-4.768806028029758,-6.939874191234765,-9.18708956086732,9.454379807064129,-86.1512362032293
1.072,0.6671250495186882,-2.8358258586351326,8.846789016571847,-6.292489548469689,-8.51789799189811,-9.313444258945424,9.157593594109585,-88.68862136998246
1.076,0.6983040279234274,-3.4526289133670502,8.471871242747966,-8.213863949672316,-10.84921606732263,-9.440398345097947,7.918291664502021,-90.92594418127413
1.08,-0.6140217104330645,-4.87898706537203,7.034050814899729,-10.429237285723673,-13.54983014394952,-10.149167866818289,5.858677661786487,-93.13181603450869
1.084,-3.739323351295411,-7.3808592324425035,4.391367503631386,-12.814352610940205,-16.18695192576598,-11.680935133870435,3.2759215996585453,-95.58093996099672
1.088,-8.272427211933064,-10.699708919354123,0.9970428392448412,-15.151300148407927,-18.424020815920358,-13.763086701850966,0.5486981947818776,-98.32801794477336
1.092,-13.144939592026958,-14.113878762601473,-2.344113407180089,-17.151320610756386,-20.100204933180862,-15.779115751834183,-1.98755909962415,-101.09254934223247
1.096,-17.15589033211029,-16.74862063313435,-4.880594242138386,-18.52601783856869,-21.178393494884403,-17.118029094829126,-4.130076154914605,-103.3163271567131
1.1,-19.45603535998964,-17.936200071445285,-6.196007363944204,-19.04817116222671,-21.62253942083487,-17.469500532997472,-5.794969144381412,-104.41625753885944
1.104,-19.770110082777364,-17.466832247782463,-6.260881669580499,-18.609564729145063,-21.340020435304837,-16.92016753541361,-6.9528058994077355,-104.12515496760432
1.108,-18.45482717447726,-15.727590103384557,-5.456825570208139,-17.37914318306514,-20.3227048510513,-15.907565547673357,-7.6731400464458375,-102.71465274640184
1.112,-16.34024518534619,-13.589724647555101,-4.4465442832481585,-15.873882880624933,-18.83366564196092,-14.98122160491016,-8.162040220300923,-100.93792522040565
1.116,-14.386597595513763,-12.04023765436068,-3.873878433088521,-14.81293001118604,-17.45035525027663,-14.487630351120174,-8.691142052181249,-99.69599777323356
1.12,-13.302291526831027,-11.73229825645791,-4.064420379068224,-14.81339737701444,-16.898367760725932,-14.40412821999223,-9.434005155215232,-99.60992563349953
1.124,-13.313657653669964,-12.716254173001062,-4.926808163471492,-16.090373960901275,-17.718353625464488,-14.415055889504629,-10.34417449791988,-100.69297618453027
1.1280000000000001,-14.220153949950998,-14.524394990400879,-6.1673604829826445,-18.36018120186577,-19.953030752884956,-14.181692714208339,-11.200819666405437,-102.26800012656076
1.1320000000000001,-15.55910654260731,-16.453183897403278,-7.502854592123299,-20.915658187800545,-22.998310659696358,-13.540647920806578,-11.721443939856158,-103.2190789421345
1.1360000000000001,-16.770977273340918,-17.869920906993343,-8.708945293413308,-22.856686085296474,-25.771183197256732,-12.521214360075646,-11.68172897023976,-102.51477770318468
1.1400000000000001,-17.29736817205287,-18.384210925870775,-9.501581003888077,-23.396620154668085,-27.175138021322482,-11.227257813660572,-10.959989692551062,-99.77724427056
1.1440000000000001,-16.710924209660448,-17.909269240146614,-9.491404213174974,-22.19008616110159,-26.67021958269163,-9.747354897181594,-9.566251806602963,-95.57616539023536
1.1480000000000001,-14.969072776767632,-16.70424033017639,-8.43742227395694,-19.600502722505325,-24.657330908784502,-8.219758685773286,-7.718207954744344,-91.21446697203783
1.1520000000000001,-12.564796478014898,-15.311328332749781,-6.532591168201861,-16.640059171324424,-22.35192082309993,-6.915718924207795,-5.828895777022126,-88.05744350365865
1.156,-10.394351865487806,-14.344113256022979,-4.460495404620815,-14.517207045155146,-21.127575657668444,-6.21135827300327,-4.35619538879223,-86.7232854303212
1.16,-9.323874126425494,-14.181597595291919,-3.1041411237378043,-13.998666284217165,-21.696498304535226,-6.421819867619888,-3.57305074986175,-86.62815693333607
1.164,-9.709601687315683,-14.746237155793892,-3.0930349643123236,-14.965676634363149,-23.616039619221738,-7.583583872567488,-3.429807604142411,-86.14255913631746
1.168,-11.182919471827176,-15.523258476222509,-4.482645133783649,-16.450031110803252,-25.43996315904758,-9.311872811545982,-3.6143598306116473,-83.28706749056414
1.172,-12.6931979387046,-15.720528037540362,-6.563776885561765,-17.04417917251294,-25.423370812560393,-10.781383070245965,-3.6672825129591047,-76.69166218214025
1.176,-12.876132989907546,-14.564724121015047,-8.028429915562242,-15.55337763474813,-22.467353725719477,-10.977944130494961,-3.131388424075908,-66.36192757637434
1.18,-10.646676326513898,-11.665603473724104,-7.543564341391061,-11.615258860397603,-16.820543356053008,-9.195479442894111,-1.7221880835770662,-53.8438862920882
1.184,-5.806923408308592,-7.3286291935081636,-4.533598126061065,-5.993406848855216,-10.115778811415225,-5.53391550747574,0.49556872706284594,-41.60053703395852
1.188,0.603148525464519,-2.661037622317963,0.21488038621703254,-0.380839835625693,-4.671426805119609,-1.0676571796807366,2.983421222211973,-31.829857190522716
1.192,6.610277524848414,0.7937091586952647,4.754867652912594,3.359822978525699,-2.327025677565757,2.593643836164574,4.8840971808758695,-25.357072914364835
1.196,10.226899119184338,1.8009212507420216,6.976621214896795,4.162133307511226,-3.4352180569003394,4.157934708962557,5.4372276517297,-21.215165882540987
1.2,10.535603060769176,0.1892855154345625,5.867235503481538,2.3968418518657018,-6.603042593425698,3.4117885456644217,4.4507202876980045,-17.19582670213117
1.204,8.27664390985052,-2.873318191761996,2.2319228012440817,-0.2287224636576184,-9.357883556354295,1.4163091625775905,2.5176427274311663,-11.065442339984315
1.208,5.519451984090892,-5.339535285344482,-1.6493470864882056,-1.5237717881730077,-9.393779630083031,-0.017560878781978317,0.8037245471264214,-1.7465352304309363
1.212,4.6715596886108415,-5.198983574729482,-3.108459242107756,0.12805916987531418,-5.676178473942059,0.7631426020325307,0.5896178186384304,10.138869245514456
1.216,7.302755339405223,-1.424966182969456,-0.3926895591853281,5.016372377869175,1.1244019275974324,4.399572704278853,2.734299023009271,22.598249528948372
1.22,13.4021376993187,5.533469560945832,6.4872354189079715,12.026907946692404,9.054259570083673,10.165620471740567,7.313070231975303,33.26692548068195
1.224,21.375222936224873,13.920542007280346,15.732574597152507,19.215988981730902,15.882233813784524,16.288089438201496,13.547105676933256,40.55558788477242
1.228,28.715948993687107,21.38879970414291,24.49141602082034,24.682477030552718,20.12319250793348,20.776530491066296,20.02689815798476,44.37236535541808
1.232,33.15336904316621,26.02311481846425,30.159714840264996,27.403313294489294,21.612259955245463,22.413469842557333,25.267659667878206,46.04241752379028
1.236,33.69144749260113,27.151456831615064,31.547056301425528,27.599793261053833,21.361066031670475,21.335513296875206,28.308054872119328,47.49027757191311
1.24,31.018267500644413,25.54967609028631,29.324191194548348,26.477037865178318,20.839925326879097,18.89172628287338,29.08702301608355,50.16181821770783
1.244,27.005534323230165,22.891989461418916,25.484667309606607,25.469588905811406,21.10669143299492,16.870864132655925,28.385434999510494,54.31153874821689
1.248,23.608935852396883,20.76314310605028,22.1360399349702,25.432686366138,22.285638264595946,16.55289846410551,27.323875476093463,59.07721951688927
1.252,21.932448118412083,19.904827636511754,20.5190440016828,26.33521500820507,23.709907193606455,18.190744195277148,26.841960520474686,63.207984075666445
1.256,21.898676989077273,20.04163134055159,20.68621876553948,27.5195977036135,24.514562487963303,21.106057130110457,27.39961295233968,65.91237789311538
1.26,22.655872032917387,20.324333619235745,21.875508267732584,28.2937982620997,24.25280247444698,24.221941012975094,28.965781737979,67.28184559002023
1.264,23.304035580501647,20.006563828392586,23.162177266249387,28.410347130964965,23.162575720413315,26.648607060321638,31.181281785949068,68.10316298107148
1.268,23.398036140740032,18.883406947110757,23.8767383395774,28.114394058859716,21.954104985974254,28.000097519949804,33.50907692054329,69.27622528949973
1.272,23.073531357631964,17.360431825396176,23.782694184442335,27.889857159323583,21.350004905546484,28.416256333257024,35.40404004106517,71.22818667775675
1.276,22.807327508090737,16.171292540715513,23.02334182180539,28.09872915258859,21.667143265822347,28.34399518994519,36.45971433000341,73.66447896059958
1.28,23.045161090247007,15.959646803721967,21.9731999435146,28.755918254808194,22.664915637961712,28.2421812813177,36.52388687515713,75.7675773098988
1.284,23.904204434455437,16.932956063880283,21.05863959672115,29.544412997118684,23.714555300635652,28.362917915075514,35.72404837370436,76.73247912156376
1.288,25.060219721125918,18.72735651432481,20.55467157596445,29.998225631262812,24.16167981652586,28.685015625852202,34.37014711825054,76.3315253438675
1.292,25.96940488832456,20.62343717911847,20.57179298575693,29.81322773795432,23.710762387532668,29.048820928043142,32.87866185338612,75.11776727675965
1.296,26.248994494508793,21.957602005886883,21.145352575347033,29.07175223506306,22.6085693797188,29.332594877725796,31.703656111694727,74.12503475156086
1.3,25.971999337880106,22.497294017598392,22.32101207499477,28.23743977321442,21.53321605534029,29.527162880638116,31.25778187473702,74.23120608896943
1.304,25.62122869343898,22.518121189884823,24.09543128147493,27.892441336204456,21.255560523860254,29.671790064684956,31.76955052555695,75.6131982722111
1.308,25.697090506884592,22.53175002604644,26.21721999152055,28.357420961317075,22.26145187895486,29.738814619894583,33.10714689461565,77.66923112586392
1.312,26.36563263757637,22.951780899401683,28.20215623024228,29.524753523552818,24.558826003519926,29.660526972440266,34.78972958843087,79.40321376928023
1.316,27.37519492089598,23.893437477777866,29.565157725814743,30.969418354377012,27.709490120475266,29.453492496961644,36.2041562115096,80.011639949558
1.32,28.291107086301167,25.200721218866875,30.132484903489058,32.23067432001744,31.02116140090493,29.299635227585213,36.924587465886816,79.28630003711828
1.324,28.79562445797353,26.58310410342517,30.143910246777523,33.03699234073781,33.78700033997643,29.473490223176668,36.907782659887744,77.64042881300679
1.328,28.792514911830153,27.717779754847015,30.006899404594833,33.32616340491245,35.49996708372578,30.135058959280514,36.42643711856226,75.84821830518558
1.332,28.406362275271476,28.381975648548405,30.056229022198522,33.202790981176804,36.04687717570755,31.214891484010423,35.90630127452823,74.65541976318536
1.336,27.91787109517645,28.567618008382397,30.45939489068701,32.879976724096764,35.78463398035251,32.44381530308465,35.75375954204151,74.45818785923007
1.34,27.70086203420317,28.536609936646073,31.300460104528838,32.63535815473131,35.419208566378074,33.49427549270649,36.259655382054916,75.18100781802445
1.344,28.117814775778015,28.727518373757107,32.66110319937843,32.738992109904984,35.68759040413693,34.13960909557818,37.533998850724856,76.40473059014994
1.348,29.330152303398677,29.496854348506986,34.522601770548135,33.32227353595317,36.96428491641427,34.32219196358051,39.423221598644886,77.67797792254373
1.352,31.20701715333746,30.918172234721055,36.697520195806646,34.34427028659161,39.051414788696775,34.18134487203929,41.5423645746032,78.78867419590756
1.356,33.36796983073691,32.74491338739233,38.82664047392177,35.64847854848199,41.25808465366913,33.978796292137986,43.413399497649834,79.82825489464017
1.36,35.36056080110802,34.57224008520507,40.49846464843813,37.08454434212217,42.74416720311433,33.95813114057546,44.670602019155695,81.029468378724
1.364,36.84427778340637,36.06667834080713,41.41375156798972,38.60470537800097,42.97815892262838,34.230978819805614,45.217216722488956,82.54774599216694
1.368,37.64760088872572,37.08361568264638,41.44475616515706,40.22694095114275,42.04009399277015,34.700245056511676,45.21689942177113,84.35999813861986
1.372,37.815936607532194,37.71354981043362,40.73418524348472,41.97581130893127,40.634202276904034,35.142740010864145,45.02292978761784,86.2937685256993
1.3760000000000001,37.635779048134964,38.23445675186838,39.74040144424771,43.811454872367904,39.76575203278412,35.37213238394179,45.053446002994406,88.12595098899146
1.3800000000000001,37.59235103029448,38.98121879778023,39.137742861589004,45.55976917371686,40.21140925213831,35.325307299002816,45.625543312923355,89.62496747839305
1.3840000000000001,38.16524577647647,40.14656707074937,39.51453667326746,46.86820754327118,42.06557157788734,35.01681923397655,46.77153722258117,90.5582058452942
1.3880000000000001,39.47387765636995,41.573923334572555,40.94058575924214,47.21594361338339,44.63071329153172,34.40606943924013,48.09055916225793,90.76015810678041
1.3920000000000001,41.09718843203564,42.76984823284522,42.8512273793001,46.13032250854917,46.77600305115243,33.382481408865715,48.865851249890056,90.23599650518054
1.3960000000000001,42.2245684168297,43.157954760729126,44.34379128526939,43.514638125501506,47.547803943150484,31.881955078892588,48.434324842860406,89.23415881059714
1.4000000000000001,42.0900054534477,42.42598150464096,44.70857023179383,39.85943078432456,46.64996089886108,30.030660945896216,46.61365943768669,88.18638086066994
1.4040000000000001,40.39569733492692,40.70712821526581,43.80624212863859,36.125112708003144,44.51521660367689,28.18649425620515,43.88624341213517,87.53265302628893
1.408,37.42159856793114,38.43192595406026,41.97775036449161,33.26969558821975,41.93097505637593,26.80532517614438,41.14053642777094,87.53151679385564
1.412,33.88573845322355,36.05326269021725,39.74931617548691,31.779399565381254,39.53782875469369,26.27255209175155,39.19929426468116,88.13155863915449
1.416,30.63581456803297,33.82747161306543,37.530724609036724,31.460463090594885,37.510895228698246,26.752714695743634,38.40329392826925,88.95841308918739
1.42,28.357931531349323,31.80169054067119,35.51928826626727,31.623480624700733,35.60456971941494,28.103834578049373,38.495169315442126,89.43465292104656
1.424,27.375847097536848,29.962843199677536,33.79827849813773,31.54274535827335,33.514801576433,29.890555835019768,38.83140198550586,89.05224918428848
1.428,27.529074958291062,28.367442231493442,32.422681266262316,30.861640120516313,31.270500590488155,31.472386804153757,38.756471698425,87.69000072473523
1.432,28.289194286268184,27.227042443780192,31.551395050992596,29.80421401327999,29.406939825906193,32.226812612997946,38.00512208547252,85.76474772518964
1.436,29.052716721502748,26.87308565745775,31.486758793986155,29.04734535437433,28.759798173092577,31.79408190265076,36.88347755554241,84.07008785792573
1.44,29.434392468189117,27.578017120998993,32.52811999947244,29.28729116551699,29.93618706395364,30.201554029348245,36.09146388368117,83.30781267993757
1.444,29.376500999220866,29.309959589389337,34.69517105503246,30.745075106917966,32.801127127125255,27.832546996331985,36.2556450678253,83.60564486543171
1.448,28.996258905491572,31.544450522987063,37.43582001547793,32.877172742375706,36.306271376039604,25.24647557639264,37.413878481761,84.34566355719721
1.452,28.366484876597497,33.33834500508328,39.64468563153264,34.54102625258929,38.841643927973564,22.978703465926174,38.84422946919699,84.41233241480427
1.456,27.368505124280205,33.6626184990123,40.04026738284006,34.53612238511346,38.95792615851087,21.38056070529774,39.36782807498889,82.7587789365225
1.46,25.761077491898845,31.87025529458856,37.76368812515216,32.24167331106855,36.07815785048729,20.545951222401982,38.00052572798404,78.97942410797918
1.464,23.396242025514653,28.03961232574534,32.87383795231926,27.982317160657885,30.812263255537573,20.338885578209556,34.57689618318932,73.58070749245098
1.468,20.3642874530442,22.941125129259035,26.33489206297304,22.838872294980547,24.662848675930036,20.44268355607892,29.914649865712818,67.79939580895325
1.472,17.0392047561362,17.695760880641274,19.59335613616213,18.07997489553236,19.317025421146127,20.475910800559177,25.46241696396396,63.04850284913732
1.476,13.999795774363406,13.327945178249365,13.996748490143545,14.563458556515798,15.925177991632609,20.164078107112346,22.634758792429466,60.28932906916316
1.48,11.89333836301671,10.46253261828474,10.393779318338375,12.451381149227018,14.724969630028909,19.48978481359154,22.212249055354732,59.61577287188106
1.484,11.268785198768342,9.27075216353387,9.055893774035894,11.362414440229259,15.162109492370064,18.73234504262973,24.09304230880298,60.2691792732453
1.488,12.331130926428841,9.553838705854787,9.725364020745928,10.731050518261327,16.335418497514183,18.283716647601977,27.396244681434837,61.07836340448671
1.492,14.76416222915168,10.896097777231716,11.76490437022494,10.173546489667615,17.50314813258592,18.380670129814007,30.848992143160558,61.077277790917606
1.496,17.747217308767176,12.798240614609767,14.339974548135388,9.669829803774974,18.37752658822319,18.92930267212523,33.26798126014546,59.97969699827536
1.5,20.255111809034588,14.79377712923906,16.64537100626876,9.51581865079038,19.09370923475626,19.548989418497513,33.96184560570873,58.246973723054
1.504,21.512230653924007,16.523650929322912,18.11686391934836,10.10737369636422,19.929976417007992,19.824744975877366,32.89857365278249,56.75238858434341
1.508,21.287319580235817,17.70523457302488,18.44189262381451,11.614894238645093,20.940770377952504,19.556182337477367,30.537494167891055,56.274276153568735
1.512,19.91360339606001,18.09141614745772,17.50049005934511,13.778994097335271,21.763407164723276,18.88529181402737,27.506818718752584,57.094244564676046
1.516,18.04767295286547,17.498474584217547,15.344056090818867,15.96656434928991,21.741798966346778,18.22587273416093,24.344868042363032,58.91544640279835
1.52,16.334517372134314,15.92272777783478,12.265745624268675,17.458862313398868,20.28606673697891,18.02464443101644,21.42342668327592,61.05974292600149
1.524,15.134206749685518,13.649680063875394,8.870217359195522,17.787297286586636,17.244640953467524,18.478957823116616,19.001504440255758,62.793646447854826
1.528,14.334735988141801,11.165887743814892,5.8721336876783425,16.838679268766555,13.007995012942274,19.300152481310306,17.216470545063203,63.62097581227226
1.532,13.379314680240668,8.91889880040435,3.7611790527062112,14.738156030076425,8.319974582192344,19.73628765227386,16.01516558365347,63.40131419300042
1.536,11.54128447579842,7.082145737153041,2.5594055308210955,11.673618740297115,3.9502180724696245,18.929967874919384,15.117265618861438,62.30632713175055
1.54,8.381580690112514,5.521891417846064,1.902670807190134,7.848679570044169,0.43993974053501006,16.462702075659763,14.14232463121698,60.66736631372032
1.544,4.135797452546967,3.9891426351125574,1.4175518721576736,3.5846625961416976,-1.950123513745666,12.767575058017883,12.881243261314921,58.81012510355549
1.548,-0.2900478025692337,2.350364774974878,1.0222417125469292,-0.6122040032162204,-3.1452629117893594,9.057447271413821,11.49300705334872,56.99120922919201
1.552,-3.7075046175493753,0.7333330276744618,1.007833540901629,-4.090949914686689,-3.112141464371234,6.788530308486315,10.507892142210494,55.41851297861422
1.556,-5.190000427906398,-0.475771945207498,1.8805675509793218,-6.19872768620894,-1.7646766571356238,6.944789484287867,10.601561565659267,54.30173703882792
1.56,-4.431469567171689,-0.7580085845263511,4.0915319013879525,-6.454424854147419,0.9960530496250612,9.529626259369707,12.242905876854365,53.841585125677284
1.564,-1.795694357952243,0.2989709464650332,7.742264489996614,-4.724650541116944,5.07762939006966,13.509770320481948,15.333423890514041,54.090132660345716
1.568,1.823223731917551,2.6656195642594867,12.247770212158684,-1.4231492499516207,9.898063362857101,17.164812770051412,18.932384939820622,54.7653436300734
1.572,5.269363999378356,5.658408565089985,16.23500916416333,2.4413385431203096,14.250912162306804,18.74389900939923,21.326886459605248,55.18502356797171
1.576,7.42688086369003,8.040474578982412,17.856559000156267,5.488063667748293,16.52871781022486,17.174476563416192,20.56127532335313,54.44385348503238
1.58,7.521896842439446,8.4800381564703,15.515445171166903,6.43697768023776,15.277994092259632,12.515931347193145,15.313284983485573,51.75893394410696
1.584,5.350921436882118,6.170557149279148,8.705628212509055,4.6485852602827435,9.867243412047628,5.96796805367012,5.72744563986862,46.856908190887225
1.588,1.3079159429696574,1.250584392604651,-1.5910108905068228,0.414632994292333,0.904099950246291,-0.630145805059783,-6.320845501387794,40.25822343090522
1.592,-3.7526430234694317,-5.177830973274922,-13.126723477753103,-5.114043535448445,-9.8151120699888,-5.526063340311339,-17.727795830668583,33.28572067610162
1.596,-8.744890052308051,-11.44511808301337,-23.125971191052145,-10.322384005272738,-19.823421857013273,-7.653908142585124,-25.2485185754756,27.740632891938617
1.6,-12.54223992749047,-15.889661846289357,-29.159053084838547,-13.65692751012648,-26.755507446120873,-6.852898866924193,-26.67242797803931,25.308364162070234
1.604,-14.135384577511786,-17.36977842002557,-29.81722814421596,-14.095224315052974,-29.065759486886236,-3.686602515351751,-21.588024244478447,26.912559950312698
1.608,-12.89787049436427,-15.615041582244203,-25.141991378238345,-11.52512969452846,-26.486094116600725,0.8700579667756756,-11.50230368664461,32.287191075162355
1.612,-8.883331492887919,-11.281708845581761,-16.617295466314772,-6.855240612961097,-20.03873106541687,5.752791777725179,0.7514432753300753,39.98183311570938
1.616,-2.9501231991780514,-5.666506748156962,-6.660471667920319,-1.719158170508308,-11.575459632510956,10.07097436701224,12.083972017107953,47.860207075325434
1.62,3.4638767154795005,-0.17484015548211573,2.2426916416684435,2.1673779786019622,-3.0631725593730152,13.270932967345743,20.249430935182318,53.84650551884488
1.624,8.873713771055463,4.224286185540677,8.430691316990305,3.7576246986079695,4.087268100800429,15.219600507188261,24.488315314724787,56.619742557990776
1.6280000000000001,12.264213333793577,7.234916186328519,11.452735488690905,3.091404464868674,9.320531849642066,16.119100500649438,25.402923193752486,55.99124267199977
1.6320000000000001,13.376028397428854,9.110253576078321,11.875084285333287,1.2049170347395375,12.815528508208672,16.320604930271656,24.24831953685498,52.83457464068306
1.6360000000000001,12.677974229471602,10.326688622486245,10.738802054817825,-0.3824016007361024,15.12591875483713,16.163562576075492,22.120481449546332,48.648116378153645
1.6400000000000001,11.113959019203321,11.291581112409858,9.034594932885284,-0.34325777049502904,16.803010092954082,15.905533159928837,19.54532131543283,44.93462556912209
1.6440000000000001,9.72296306978592,12.194458146409943,7.418187852354549,1.9006778680029583,18.141809320128687,15.709815817484014,16.604610705897812,42.650926829364835
1.6480000000000001,9.175658241043948,12.939684573656905,6.062825543546751,5.871703196533872,19.062790149272132,15.578296810841493,13.310422107635077,41.94066330528631
1.6520000000000001,9.459198237069813,13.18023559897938,4.703767850429813,10.155999599329334,19.172406414517354,15.31380922922699,9.917604191029568,42.232181731234505
1.6560000000000001,9.910094688846357,12.47136608192568,2.9088150702386883,12.974014054573672,17.988906118575187,14.601159583186018,6.976196853044712,42.609099511638306
1.6600000000000001,9.564546142944891,10.476465179394154,0.40362133262760835,12.936976330107882,15.221539880281853,13.177058796671645,5.078635143492647,42.25546875383861
1.6640000000000001,7.678733985826284,7.171927118661415,-2.6895817584572796,9.650865102555144,10.990424322700164,10.99674851637974,4.508894791374587,40.75707494799599
1.668,4.199507324883598,2.999392258657508,-5.768750931203613,3.91303898093679,5.916898389612925,8.319346247509202,5.100564655794642,38.15796525746191
1.672,-0.1442794369920648,-1.2112540747566527,-7.97991673658089,-2.662483084432779,0.9834598656816524,5.61229469231057,6.354400806601461,34.805782184165764
1.676,-4.217412385329453,-4.579903118260972,-8.695686215595742,-8.41943719599817,-2.804706939292373,3.302975987251102,7.714112857015607,31.12904149701717
1.68,-7.018256465708191,-6.54903514236571,-7.838384418183978,-12.347701380874241,-4.775449159758864,1.5967158367625416,8.887559453209633,27.46346924417776
1.684,-8.074397716584258,-7.093915172139077,-5.861139157830621,-14.359232501230736,-4.8336199229140675,0.4213826995319323,9.992793593247825,23.954877655608925
1.688,-7.570315929573667,-6.714102310009139,-3.5004840041403895,-15.101388640630375,-3.515583739902013,-0.5004703092490672,11.37092840625246,20.56791694792446
1.692,-6.209101709275728,-6.230641462292169,-1.4993654962470373,-15.474627749776573,-1.818249301752985,-1.4970919575457629,13.144785611718817,17.218926725119672
1.696,-4.901005529147142,-6.4622435098290225,-0.4403204704503878,-16.127435920677726,-0.8197099974202047,-2.7843886185178235,14.844587795887492,13.997315542057777
1.7,-4.314687061346831,-7.822675498357967,-0.5754207100408166,-17.092116557997088,-1.1999953908532461,-4.288495537901326,15.51414636203117,11.30467338299286
1.704,-4.476859623992027,-10.02132673912297,-1.6860993180753212,-17.73181751530592,-2.9068523403866493,-5.593579120979484,14.268166271650443,9.762007932421284
1.708,-4.700764271249341,-12.100418725412055,-3.1136499887920763,-17.05816064582268,-5.156609458327466,-6.086786002700137,10.947479410672713,9.936029543415998
1.712,-3.9648651455175923,-12.886717143012447,-4.041074836136204,-14.300431800383194,-6.818911136874021,-5.263492539450908,6.4050169102615655,12.015948197192301
1.716,-1.598077683549377,-11.675881793142707,-3.955516405626895,-9.450997955964567,-7.011613553745974,-3.0607667889294135,2.151538403433733,15.635037073558124
1.72,2.2102169589493315,-8.690049994188485,-2.9021813345154897,-3.4016091186363155,-5.547182824019501,0.05323990505803522,-0.36500201019202905,19.939906015569704
1.724,6.409655319495641,-5.016721687846939,-1.3907393474114542,2.404999052289213,-3.0150447228033954,3.2683720542459014,-0.4225575047616985,23.874628049228022
1.728,9.562258668277309,-2.092359362436582,-0.09137407099728989,6.593587024556882,-0.4733833840286934,5.787883512488406,1.6943769949100442,26.589744397170534
1.732,10.518395396214714,-1.022725191600557,0.479699696679063,8.403304471215051,1.0790293208301591,7.1675216997605276,4.892511632849164,27.79140751003206
1.736,8.929968074187059,-2.100033183439791,0.1286803115310704,7.897520554192397,1.2016196612032672,7.467460278482122,7.827363055108208,27.885907272297118
1.74,5.435264727470212,-4.696940215860877,-0.9118147651340678,5.847298945960802,0.25525960604659303,7.224841059567552,9.550424139559482,27.771035601660742
1.744,1.4555540574928045,-7.554834114024288,-1.9648067061405072,3.375943928419474,-0.7520315160659266,7.236520699449557,9.903958880643586,28.32473187983942
1.748,-1.3764526768351288,-9.362330836286219,-2.0983335706036996,1.493199688571167,-0.6635409890038773,8.209259462618775,9.454943203212679,29.867599279180467
1.752,-1.9182323962168084,-9.351862177972635,-0.5205120206965148,0.7144283678635475,1.232531557839593,10.430413596712697,9.048255962359917,31.9085754208013
1.756,-0.05491543458401793,-7.654053549122409,2.9260295264798515,0.8999822945497726,4.802738376339676,13.600974711385788,9.254582585860817,33.3542595950189
1.76,3.2993758738767838,-5.1595791662055035,7.566762743558911,1.4705851568373873,9.107034354658254,16.98638212522974,10.123642789329551,33.0913280234563
1.764,6.7937251143378035,-2.927365722986451,12.176196032820599,1.8935364667104295,12.862982890650073,19.776893926280536,11.365260178658446,30.599522373520358
1.768,9.389625147121478,-1.5725856982610367,15.50179299038382,2.081096496863438,15.031438102072798,21.42112090619048,12.678324883406503,26.24993335567069
1.772,10.823201366894637,-0.9972809645819325,16.73903905252928,2.466030775344052,15.230706748250668,21.76890428310844,13.927717485499898,21.167494308781215
1.776,11.523818043178494,-0.5989094916740214,15.721965533334924,3.695025797939252,13.792767168118871,20.985561615232655,15.027270401747046,16.730520478961125
1.78,12.159382488980896,0.259209622684466,12.892643457885242,6.187714257326434,11.498873397040597,19.41530611693679,15.724103286227546,13.961130773756395
1.784,13.143213848561686,1.8402202201589262,9.113126229444333,9.824504359738967,9.156434197984254,17.473813790343684,15.547417392300986,13.107251181191032
1.788,14.346263191112484,3.874104104667367,5.342044904110708,13.892208622682574,7.222747741649528,15.59124438065328,14.007916399743863,13.63611599590422
1.792,15.119190778910365,5.673763101845225,2.2664305804621563,17.276219100085427,5.63850108529482,14.161704801741507,10.917893296827515,14.619229307616251
1.796,14.566917363760808,6.4278298754547905,0.026696647156541076,18.804835180813143,3.9479095794254135,13.4584617239193,6.623097285722679,15.309701284315679
1.8,12.037461497116624,5.608908964529519,-1.6731499548441207,17.70601412183737,1.6962315633270464,13.585284595258145,2.0669564085792445,15.585025471037852
1.804,7.579822983790109,3.298602875567667,-3.155604539632577,13.958702502903861,-1.1654028708389887,14.437271488184706,-1.442667307010197,15.940865060293845
1.808,2.0719993037354243,0.2224552608158774,-4.395089664857551,8.343189716151755,-4.110740248566344,15.706028870387854,-2.7246695690396336,17.079667032496218
1.812,-3.1055183741819974,-2.5629908064065603,-4.987133968142643,2.137336015812707,-6.23310595757107,16.92176403611529,-1.2679543408671634,19.35536310155294
1.816,-6.699018507963842,-4.182429085924923,-4.51408837494705,-3.4021534670289384,-6.713021939184273,17.55711753649439,2.4395616933088604,22.42606137933035
1.82,-8.082184277745682,-4.307540053073012,-2.9182578420698064,-7.430070276267088,-5.2442061276808545,17.281762940808676,7.075160826532283,25.32802800575837
1.824,-7.3771392342827085,-3.212476543391631,-0.6266359092967377,-9.641971506098344,-2.224761174699097,16.171988696539984,11.04785989760876,26.85929989619285
1.828,-5.22065839879815,-1.5530327947044498,1.624617656111468,-10.18241360945217,1.3793280439342652,14.712618510756329,13.143637036780547,26.084855391397696
1.832,-2.3957771631279456,-0.02867732757010799,3.1438008061204528,-9.458691120961703,4.442143918064858,13.550259928310197,12.918008570839902,22.75013176976904
1.836,0.4513060963611224,0.8886950909605957,3.5790476555018813,-7.987859641322302,6.1619157515094685,13.109246777084309,10.677330702647396,17.413773509473913
1.84,2.960505675750028,1.106982533540645,3.095164047127355,-6.26638663486051,6.391430106450343,13.347857643538418,7.188567592428171,11.209984007124831
1.844,5.09541333561242,0.9391047112626438,2.342524598727323,-4.647127356097826,5.653999916397879,13.810345173048972,3.355096055251579,5.385242652849229
1.848,7.063451681474135,0.9727709672672518,2.1692455623183378,-3.2672317233013928,4.833001564809592,13.93372986576719,-0.014932556079884307,0.8421891113039237
1.852,9.12207063976075,1.780383126111019,3.1564838619069633,-2.08895182069341,4.650142703648498,13.39144526056566,-2.36974898816311,-2.1286043933382643
1.856,11.332290015261833,3.57269993612465,5.199721659955003,-1.035469587458465,5.225593520183793,12.26038450857709,-3.538038662782583,-3.7877174602228934
1.86,13.463210477980965,6.0405274901461325,7.5290829882653725,-0.07477830533275664,6.021171893648443,10.987783310595432,-3.716022391293336,-4.624367627036918
1.864,15.11897979837272,8.486135072286402,9.184387541193246,0.7725732715690583,6.173974448489162,10.14473152341111,-3.317477603674888,-5.020742197651543
1.868,15.986291893103271,10.168724371546887,9.640359296087581,1.479054005657531,5.053797780532932,10.105052335725077,-2.746858517262808,-5.0316084668293115
1.872,16.029542378873202,10.664586522343257,9.154353818590153,2.0475874522165896,2.716090704034741,10.838328142157025,-2.1944542835638003,-4.354528551074509
1.8760000000000001,15.489066348411484,10.031975552360791,8.569946310502928,2.4864015663724786,-0.034482191244251226,11.918801260726468,-1.5698246042959454,-2.5084601966834725
1.8800000000000001,14.783265379471004,8.785429503784144,8.823057139246202,2.8253735815200116,-1.9637338425413873,12.813838638937796,-0.5267662654352989,0.8747322732369867
1.8840000000000001,14.382224819347698,7.7064605010494915,10.451998786315244,3.1504795440915814,-1.9750166387298123,13.23660218983241,1.4283577112416879,5.749034102036148
1.8880000000000001,14.642826127559033,7.5286030612476225,13.318866848044763,3.585297069041644,0.3474286604248391,13.308442063604161,4.707102953120966,11.500066697348302
1.8920000000000001,15.635097100391476,8.611763694370097,16.648864379262932,4.195404199974746,4.50317391016074,13.424323242668834,9.357065451096787,17.063942755046583
1.8960000000000001,17.008779869499676,10.733642633402951,19.332926632735962,4.854694963499128,9.28858285943545,13.89947932273708,14.8800942675648,21.332290075209585
1.9000000000000001,18.077791803120476,13.173086114831563,20.45511673730266,5.2636645005659375,13.392168611464626,14.712165121742828,20.32962542434734,23.65965857259721
1.9040000000000001,18.190718543255343,15.103144326686106,19.821007924003652,5.180380949489745,16.06350603594467,15.524711888070897,24.693661206474417,24.18568001699896
1.9080000000000001,17.150334908378227,16.05517060301827,18.145159391252946,4.6971585045131405,17.468441633068664,15.95004099824996,27.324259576519125,23.76185395293146
1.9120000000000001,15.3936243899675,16.166033172866833,16.733028461822187,4.344382279552292,18.511545077997766,15.858991750960513,28.15447708531906,23.48455011472379
1.9160000000000001,13.777907240795003,16.056195614543753,16.752175776211516,4.886583565623823,20.21646073893453,15.490313982328871,27.57539972653649,24.081074405706204
1.92,13.112488086054611,16.44793147238397,18.562975709417742,6.922772066698599,23.027094962949377,15.325472159868696,26.10452869663345,25.449180004608593
1.924,13.719452056948967,17.762294911018785,21.50114252560195,10.500481134451888,26.43277277455104,15.779874164419425,24.108736283125836,26.620595660368053
1.928,15.230234393232251,19.875475472922062,24.169332114998042,14.94625667536593,29.128327368806026,16.892383135272667,21.723207730140075,26.246744901009038
1.932,16.725289326569452,22.13553208074893,25.067007165499263,19.02513558112605,29.635423856590478,18.203347295904223,18.951096459421024,23.37735716889665
1.936,17.156169110145925,23.623458419670328,23.2338223744963,21.391622843594632,27.08258069330327,18.920154069232694,15.81249505581377,18.125210515770732
1.94,15.89993227841262,23.58143034360387,18.7262263145833,21.200010695229707,21.758746220375542,18.358094740900242,12.478011672678235,11.801736149435555
1.944,13.158817750970059,21.80856007639011,12.721273641706148,18.547929776107367,15.108726074572814,16.365754430772995,9.289753892095064,6.329785568742068
1.948,9.936280330867021,18.804662059725956,7.1332394518560704,14.470008695593037,9.145192323843958,13.46135676705876,6.63943340082028,3.221926849788474
1.952,7.540995597067877,15.555195136861357,3.8350296682446015,10.432511726074836,5.560899443510152,10.57494299273867,4.776738738904214,2.7238372448604196
1.956,6.855444892560968,13.042256117294755,3.7806702651196247,7.576461658867515,4.988263874641007,8.538671464377103,3.671022301508401,3.6750296131081086
1.96,7.816206736128265,11.77627037600871,6.558604098780961,6.184015566939024,6.811704950285389,7.67872013565875,3.0928944366476117,4.209297425983323
1.964,9.443815438986519,11.612172572114446,10.633311403086282,5.6839415028590565,9.616616208825803,7.732124859456235,2.8537383806241223,2.8979182695776444
1.968,10.409994585270056,11.92285736631186,14.139952939962882,5.170673811729216,12.012371139644642,8.107417418406612,3.014180553035544,-0.3297481119237773
1.972,9.788447920348347,11.999227292905061,15.791675977413547,4.092125213907252,13.355703739251112,8.285892121109327,3.87286756706726,-4.0517009902241625
1.976,7.5167724809629135,11.417723194966356,15.381304602161208,2.6346402403531783,13.967276567385397,8.074336835131817,5.675205982797365,-6.123218295450329
1.98,4.382334587178377,10.243389681627946,13.742390896280767,1.6221271901000591,14.772315683079114,7.622564784015594,8.280723230465242,-4.9506575611723065
1.984,1.6044245354776194,9.015203360938017,12.2332047649262,2.0064557652660824,16.59636959840259,7.228758526371848,11.048168054713642,-0.5357449812823916
1.988,0.22367646233163896,8.497415480106042,11.971966284958626,4.223552731550058,19.51532797541131,7.074396130386731,13.023897265698338,5.355779857952598
1.992,0.6119399194898278,9.304123641142837,13.201567409536096,7.803425502483151,22.63766928245616,7.079382052577785,13.349429766442313,10.073563148698327
1.996,2.2981275666965644,11.534842098123818,15.057530637548098,11.456788481122885,24.42946379720354,6.953518343793576,11.625471796072816,11.539817466168074
2.0,4.247179930866935,14.655984584691566,15.981496990465871,13.674526085624734,23.44096801883495,6.443217754166653,8.0819506001925,9.395021959487735
2.004,5.432475807484764,17.69734830056592,14.582064382187014,13.509092017601006,19.030448165377493,5.564778710825976,3.4675974080191736,5.118035268622521
2.008,5.333266726475983,19.635254445781072,10.429141723672728,11.056289070905109,11.682028282004353,4.626735240601761,-1.2826028650760009,1.0530650103768266
2.012,4.093167266402759,19.782277922282162,4.332158529272419,7.35439911536298,2.773658214053171,3.997327161071098,-5.42688053139932,-1.0695062193296963
2.016,2.240134999168504,17.9588698907545,-2.111719961988456,3.722367991616011,-6.073428184241607,3.7482366804219964,-8.683174277255034,-1.2026899614943432
2.02,0.25634138067096046,14.470241755755069,-7.313494702729031,1.0128182201967775,-13.641398066913666,3.4938922727205863,-11.191363921569632,-0.9743801129520762
2.024,-1.6965830462597182,9.961606169236859,-10.360540450134863,-0.7729206607216383,-19.422805031802227,2.5551111993612494,-13.211804013348114,-2.633646674452166
2.028,-3.79512067803023,5.187429996835078,-11.259277190475018,-2.351070438479553,-23.51168585668836,0.3455030893295543,-14.809823204986174,-7.6124092892818
2.032,-6.345906130203161,0.7887023888251292,-10.692943724569886,-4.616260803463092,-26.23126823465327,-3.266154182643618,-15.773699836515789,-15.573987212812085
2.036,-9.540294118353586,-2.8734864162635745,-9.549871158603764,-8.065456012703919,-27.788853731726363,-7.865889379468513,-15.846023237541658,-24.522009344741605
2.04,-13.287220911567488,-5.749742328930154,-8.454953236474807,-12.499919177418576,-28.181751723542675,-12.72087906147442,-15.06543860966292,-31.94601883753637
2.044,-17.17895575727448,-7.98178043872565,-7.545081062066856,-17.14803659992566,-27.386566749217877,-17.204768834420747,-13.943664718710693,-36.31101355484566
2.048,-20.616232734934158,-9.730955420175917,-6.615318143928448,-21.114823432154765,-25.66674427525544,-21.159822292888407,-13.358973272726871,-37.95847721017981
2.052,-23.081868169446523,-11.100039293843963,-5.544308926836834,-23.914340537960584,-23.77244248391753,-24.99251245795631,-14.22875578930973,-38.89253340514995
2.056,-24.50115290972269,-12.229704537747466,-4.750048852895588,-25.808418912369575,-22.865566592352934,-29.439739488557393,-17.157852669371778,-41.57275783517116
2.06,-25.404305288596845,-13.425228489770348,-5.247657717818242,-27.678363034127585,-24.114771243830035,-35.055981296734785,-22.189450017187596,-47.42279764017269
2.064,-26.77193164320596,-15.193040713559128,-8.228176533512396,-30.518380748407537,-28.18159719054438,-41.759124598046014,-28.78691084379966,-55.98442641294912
2.068,-29.629027003772194,-18.134152801164248,-14.412800216882033,-34.860792949632526,-34.88920227614062,-48.71527139205489,-36.086016612526805,-65.20101372635042
2.072,-34.562094489716884,-22.724015031435215,-23.57085879843055,-40.472070925273385,-43.279989707265884,-54.660028022354936,-43.26905722717652,-72.61958357479938
2.076,-41.40870342223195,-29.10233319954989,-34.53708852373836,-46.506245530250794,-52.0536505700008,-58.522899677473674,-49.882776873555144,-76.75476735339328
2.08,-49.17872394375922,-36.88991071897948,-45.588361165117874,-51.91455027812782,-60.0782139579801,-59.93091957714398,-55.87636604956424,-77.80015541601182
2.084,-56.29127768889754,-45.152601479628856,-54.99289060128217,-55.89387538326184,-66.73314031938025,-59.340532483911716,-61.35255032125144,-77.34959021234323
2.088,-61.12108818448948,-52.61370554661215,-61.525024049304534,-58.175761498657494,-71.95756048600691,-57.7669912233589,-66.25035950751419,-77.35091509354777
2.092,-62.66905358554146,-58.07254932407989,-64.76046126194382,-59.050449655922364,-76.03282757686497,-56.280161352676146,-70.19785600174941,-78.95948626049807
2.096,-61.105426950417666,-60.887070999412174,-65.13628216569481,-59.197753180909615,-79.26760453639054,-55.567882601584415,-72.67113683780565,-81.9544304866505
2.1,-57.82324617044384,-61.23868219132987,-63.69933172888631,-59.377132906917836,-81.75138576656315,-55.73701716878338,-73.31792525009888,-85.00674467817527
2.104,-54.89562261598593,-60.02492738062932,-61.666799706801896,-60.12574267629253,-83.31273364331253,-56.43462180028894,-72.23449937068392,-86.5928457176575
2.108,-54.17678171313389,-58.432329890830545,-60.00122035560156,-61.59561464268171,-83.66482003241532,-57.1831807358667,-70.01955247867755,-85.94248118782758
2.112,-56.43205708410645,-57.368611090994904,-59.12052608645075,-63.53461298901817,-82.58992663290479,-57.689177231981944,-67.53062895088522,-83.42712750180448
2.116,-60.97390202954273,-57.06676582269708,-58.863235399163216,-65.41696086156401,-80.05457933514231,-57.96120684460652,-65.48544247841642,-80.18985216020889
2.12,-65.96086985960255,-57.03273160865166,-58.61704937677399,-66.61266159296446,-76.1815082046545,-58.165089604025525,-64.10276770316909,-77.33622352031404
2.124,-69.1810742810622,-56.33319872114731,-57.55590241898034,-66.51646563292974,-71.12899091223426,-58.35312467343948,-62.9792309754755,-75.23180965314765
2.128,-68.96941177550968,-54.1038436794322,-54.96889677663097,-64.65667432463573,-65.00862829473334,-58.28124206328749,-61.31525906625188,-73.34199052893541
2.132,-64.89443604516461,-50.06120365312918,-50.617067959549104,-60.83878579988624,-57.951215219830715,-57.48593145084777,-58.42149783947707,-70.6990713593135
2.136,-57.90337622227517,-44.7664498699817,-45.01269907754147,-55.286211196123986,-50.28307874288032,-55.58367616186325,-54.24269144384078,-66.6370703802121
2.14,-49.840868766029104,-39.448279121667724,-39.35848474225213,-48.65193755860636,-42.65810523932993,-52.54503552766408,-49.54344638909123,-61.31988190121672
2.144,-42.635829326823796,-35.46350511222647,-35.10523279270734,-41.8856518771976,-36.03100092117933,-48.786364061505424,-45.61074862705715,-55.76316500363703
2.148,-37.55904395542953,-33.656410011106914,-33.296103868849286,-35.97168998447049,-31.41297559641248,-45.00832002614948,-43.61016274231463,-51.336742747117285
2.152,-34.84722409257219,-33.93203438282552,-34.025050282829454,-31.617966806740583,-29.49812719047867,-41.84841782221878,-43.93768287692495,-49.040442649273814
2.156,-33.87883668287799,-35.32248371435216,-36.39032641475734,-29.091603603974363,-30.38271732120245,-39.591218937406836,-45.974533075169234,-48.982043153341806
2.16,-33.696007537093635,-36.486736752146044,-38.9286309040549,-28.22802640581895,-33.51537819794626,-38.081180535816884,-48.38056590189757,-50.36842869467017
2.164,-33.52997560898609,-36.3743868766953,-40.32962633853322,-28.595544554960668,-37.92251716388455,-36.88689645601198,-49.75747601673379,-51.990168845396
2.168,-33.09185989241337,-34.73243935792786,-40.08307177726698,-29.740177420392598,-42.59836475982104,-35.62254797983576,-49.340506561881796,-52.87080229610012
2.172,-32.56751166973842,-32.21845137486565,-38.722713131797406,-31.393221803752425,-46.87120597960819,-34.23411840064193,-47.36096234410087,-52.70479928593127
2.176,-32.43495330489391,-30.082612956164667,-37.55908144847555,-33.55408052173735,-50.56000888988132,-33.0680733261766,-44.9052806759297,-51.844695595001525
2.18,-33.147560701654655,-29.513066688220192,-37.91621762274676,-36.342298821323,-53.79580376412375,-32.63230893949492,-43.2859221922202,-50.87421682836626
2.184,-34.842681547451434,-30.969184896245366,-40.27759281275948,-39.71208735549729,-56.639934631690636,-33.21202582107486,-43.26214533725545,-50.088551516151256
2.188,-37.20378906407417,-33.874713382601016,-43.8529981684413,-43.220282189274656,-58.7630233134349,-34.58271662758693,-44.57432017072537,-49.2145775946025
2.192,-39.5100584445824,-36.82728964013441,-46.825908314964664,-46.00282410358136,-59.38321479698871,-36.02044809163067,-46.04140053331935,-47.52698855225418
2.196,-40.896168715418796,-38.253951488785106,-47.221552463485466,-47.038546379403726,-57.53857158645704,-36.647528340421104,-46.19197320468345,-44.281916121906676
2.2,-40.675295292615615,-37.1510911795709,-43.876944570378555,-45.554050058107435,-52.545989970983754,-35.87729267299193,-44.03364350980195,-39.20271641413552
2.204,-38.615555040602146,-33.537825197084175,-37.01304048079098,-41.37670157467198,-44.43431171552206,-33.731974801825174,-39.54866937132746,-32.75235622270958
2.208,-35.05181788427345,-28.384738010980726,-28.110542076879824,-35.040689313795866,-34.09625559208402,-30.827124631063725,-33.65523595151279,-26.015786037013925
2.212,-30.761872554150543,-23.0769753317404,-19.197981193544365,-27.597935073979954,-23.080893952060848,-28.0342031271328,-27.70678743210206,-20.26255951105523
2.216,-26.697991507369835,-18.752178658260718,-12.018887468574036,-20.26061453750438,-13.141852948258247,-26.044096317278246,-22.88147451866675,-16.403308818135827
2.22,-23.589672493006972,-15.794014429113645,-7.388722539148006,-13.97843518623398,-5.687366638341302,-25.018966008457824,-19.73507532685315,-14.626407171121059
2.224,-21.604352138250334,-13.762941566172259,-5.051047081181423,-9.171452486278383,-1.3998517225520573,-24.538450791198215,-18.128824058237484,-14.401177267001628
2.228,-20.30207811741255,-11.787136171180705,-4.055369045523435,-5.729756822660306,-0.15634201455063135,-23.85356371764928,-17.509318320506026,-14.793377502289246
2.232,-18.857979774848516,-9.170382841084631,-3.3822329504141067,-3.236681034122469,-1.2333869825868646,-22.29923639632713,-17.302736542050155,-14.90968038239464
2.236,-16.582725315987574,-5.906676171355485,-2.519789107929455,-1.3195864659867453,-3.6827400472857903,-19.66298622029649,-17.207032693248436,-14.236147069473787
2.24,-13.36891285700547,-2.7654458787525016,-1.63583346694125,0.11946988293709637,-6.665833567382464,-16.286381272806892,-17.200315633879285,-12.73052806838055
2.244,-9.77083974171984,-0.8433229047808481,-1.273490887740138,0.9502656738128366,-9.591854786730252,-12.852286528616816,-17.264741850551957,-10.653114850879376
2.248,-6.680023514220622,-0.8652568693735105,-1.826526726098308,1.055283417794243,-12.071572071752442,-10.00423252747126,-17.119447244173813,-8.293653549226178
2.2520000000000002,-4.7771553923115135,-2.6539821943488278,-3.1342360040696775,0.5767260595320209,-13.801916762728226,-8.030404480032615,-16.202888737545607,-5.787172641136891
2.2560000000000002,-4.134975851052872,-5.125548738966927,-4.49109950204884,-0.041137743909970936,-14.512956082247868,-6.805365014737276,-13.970241592694478,-3.1158902938419715
2.2600000000000002,-4.2072459615407,-6.812555584357725,-4.9916394929120145,-0.2381413908770469,-14.0052713646311,-5.945428218330079,-10.31113809295698,-0.27561230722847085
2.2640000000000002,-4.1841751696020495,-6.610307236955251,-3.982447512176904,0.3665102343677944,-12.242361810176718,-5.0666376174243055,-5.782875133830643,2.545249275698623
2.2680000000000002,-3.5400568726927446,-4.365848897837594,-1.4060282047104522,1.7279243704675054,-9.434916389852162,-4.007786558705362,-1.5031537695760875,4.89414920299491
2.2720000000000002,-2.3977700910858317,-0.951647415914664,2.1614175272153062,3.360569818104935,-6.033078354271311,-2.8867537044882567,1.3016375393779782,6.1739714177330995
2.2760000000000002,-1.4649290989877102,2.225744295664491,5.766361364033955,4.588345958277785,-2.593100475434909,-1.994266668749873,1.8517597561632329,5.940575458078754
2.2800000000000002,-1.516307459237872,4.044352653103765,8.551876120288085,4.971195442549416,0.4504392907089567,-1.5774659086882394,0.21164520046907853,4.188021286784675
2.2840000000000003,-2.733929662313919,4.338138041170389,10.179657717154242,4.636144818672676,2.9571914538763053,-1.6801535586063636,-2.7230010312812283,1.4011436312647305
2.2880000000000003,-4.391048332718967,3.9969994557587825,10.953921563266931,4.280921085641559,5.0860613018811875,-2.120500416874478,-5.651064321505984,-1.63676571705642
2.2920000000000003,-5.1311901475529,4.434588448698115,11.606263150479322,4.819943153632856,7.1310173040573375,-2.5946028540981985,-7.451182726243587,-4.181854329058794
2.2960000000000003,-3.756737717187633,6.6943131070667405,12.802151757219477,6.815610010258567,9.249236174758238,-2.8599015280862403,-7.655148000068564,-5.841061469639385
2.3000000000000003,-0.05539382737843823,10.730364630114778,14.690013168374321,10.05271631413563,11.262957473500904,-2.8634743036577106,-6.5459768659652156,-6.664168990071865
2.3040000000000003,4.88693692370768,15.321167907913903,16.765436222318563,13.545304109231687,12.68145194776416,-2.7403310053663574,-4.838793796719216,-6.9577691255955045
2.308,9.127714208424788,18.68302639490259,18.12830943808674,16.002758753449342,12.948093773427416,-2.699747359299934,-3.1785439570931757,-6.963928471791817
2.312,10.885603383838976,19.46505343823629,18.030038706263362,16.533779813630886,11.806833813776102,-2.8706649815253513,-1.753302086091388,-6.621587134116744
2.316,9.541017092212893,17.535358831025093,16.360363050367297,15.168492196188105,9.565301579091184,-3.2221810100385255,-0.2648489226184907,-5.552320051600262
2.32,6.042781754477993,14.105752046745604,13.817314439710536,12.900514288395428,7.089470062615327,-3.5792548560007305,1.7494343073948713,-3.322736127571801
2.324,2.4557848449656667,11.115927855700821,11.637079773931347,11.18701373843874,5.496067904862926,-3.719172931520184,4.487080537171352,0.1678075541305617
2.328,0.8803502673690549,10.215019579095788,11.001329498901953,11.16831511757637,5.68060865696123,-3.4836768287147777,7.64725159742909,4.4719296644585
2.332,2.3600626230886093,11.916233178520095,12.438913097850431,13.049021103929352,7.90893756896477,-2.831827294196387,10.550322966734779,8.704669246094895
2.336,6.362310681132611,15.37381219513061,15.504948606663437,15.972785853584679,11.673219964409878,-1.8267520966165804,12.52280108771319,11.958459737084528
2.34,11.106860662075272,18.891441086970683,18.961422401241993,18.477939384792247,15.891242179687627,-0.5705023511431122,13.307062762478843,13.77486957925515
2.344,14.514265715710403,20.841131584718834,21.359360711094734,19.269963073864503,19.331119955186104,0.8293055240025531,13.215743921278166,14.369058819112164
2.348,15.23717106919721,20.460636558889732,21.696199087009262,17.88365030784898,21.03938464773781,2.2401224049099326,12.871292283440516,14.421622911089852
2.352,13.20635827443516,18.1095557643939,19.82600898608432,14.868308107195315,20.581464136518306,3.4409399104619665,12.6698790044159,14.505259765371818
2.356,9.38788810006472,14.851430642043265,16.354858339895053,11.357308863137456,17.989632457047925,4.0293834547186,12.281619075618714,14.498321937024642
2.36,5.0507227113840045,11.713540096045449,12.166802009286798,8.342859343159146,13.549621291354711,3.425755364477796,10.579257772097307,13.399805349344433
2.364,1.051835881379577,9.10644715644189,7.8897058807733815,6.098892634663991,7.601178648126349,1.014730742302298,6.115698014067065,9.719461714505636
2.368,-2.421633511603101,6.758481872566135,3.654243293610455,4.125193469259514,0.521272399451858,-3.5738685625589115,-2.0183752013486522,2.347635531791417
2.372,-5.5489260583791316,4.175570357548552,-0.6943207305798449,1.655563936965053,-7.102808575227851,-10.148723496501935,-13.360789364136942,-8.532905002120263
2.376,-8.360275659135409,1.2344331590208846,-5.169185457220131,-1.6451624684331474,-14.31907129025328,-17.809893171557697,-25.832218018143145,-21.046884897950445
2.38,-10.39337489115312,-1.4859690461259873,-9.261738716881768,-5.213635601606832,-19.827210880093453,-25.06118622711168,-36.255610499520955,-32.044074416237024
2.384,-10.817717287485037,-2.8975998239162806,-11.92888882774315,-7.691471401815212,-22.282893255015217,-30.202581475354837,-41.48927721058821,-38.2319437191599
2.388,-8.980905871318464,-2.032905496977145,-12.031831573101513,-7.593790447684945,-20.81496760452014,-31.875130381932173,-39.69447224545401,-37.50989402983072
2.392,-4.972332338214718,1.299140526694945,-8.969055167927635,-4.161345921969094,-15.488481106752886,-29.538131216795556,-31.124172294438562,-29.874412321687608
2.396,0.2042530427817617,6.254239833740799,-3.1463657092004276,2.0973935607742007,-7.44035412144423,-23.673302190293818,-18.061031327810447,-17.42789037432688
2.4,5.038738608548323,11.283204393983478,4.030738489859459,9.525667089098317,1.4374496741394118,-15.614260691316865,-3.930349599983529,-3.4904772693687534
2.404,8.263573913917106,14.8597881572368,10.674755288357183,16.045429658241666,9.149515960629714,-7.09069606427223,7.986595101487136,8.729185549983207
2.408,9.461631498074318,16.17525778051263,15.174943346494182,20.086031824128444,14.286278209673114,0.32952762142559777,15.635582040099592,17.264905739328633
2.412,9.199366487119356,15.436522472725422,16.834005837063565,21.24272759748638,16.457350322386176,5.6768105149992465,18.649515107354706,21.818593913924392
2.416,8.592779204347053,13.606660076146792,16.027579911193016,20.31163509923047,16.27174704841446,8.718274725502873,18.066587754848257,23.38620722298328
2.42,8.591147978421478,11.774251984860797,13.843348672723842,18.720070922982465,14.90897054680498,9.799714619110688,15.543180436904318,23.404348637596442
2.424,9.43842139512399,10.55370775932472,11.445805611838203,17.70813528814077,13.527923743808941,9.510711303547254,12.521977057847423,22.938518539069253
2.428,10.637017879804084,9.861499634829602,9.528515531149367,17.731091195523604,12.805903766774627,8.37999777664875,9.733065329400638,22.32943400225686
2.432,11.435316651024193,9.187921792088332,8.169780050419178,18.41668932009987,12.823672976872224,6.763319435904279,7.219433887042257,21.397636970511712
2.436,11.457830023893699,8.122270860497707,7.071368663215139,19.00682546095124,13.262392272807048,4.907635766238613,4.729387047873182,19.95038974836912
2.44,11.03869415203167,6.7566923776832155,5.963915311328982,18.95617078815647,13.734998582089084,3.0890462792994526,2.1662351319316,18.190647355047766
2.444,11.025005351555972,5.6948603946001555,4.888157705841515,18.302484236208137,14.053404098286038,1.6734975749660492,-0.19827473206661494,16.73704947697462
2.448,12.180889407102732,5.658963974938722,4.1818286860176315,17.593782193778345,14.294925473937177,1.0286190248133948,-1.8495752893733837,16.237845362394843
2.452,14.622121278442307,6.97863585863314,4.245608661040272,17.48474210369124,14.704312730596286,1.3514290526714632,-2.332828669917461,16.902041978924764
2.456,17.6814653278299,9.312868060209311,5.2692468288395915,18.30405220695544,15.552961708700671,2.5300640986174585,-1.509216457043138,18.312082697540845
2.46,20.270314241112466,11.758428503960026,7.085365620934951,19.848332450604524,17.01646959762784,4.13606469902561,0.3615696098614052,19.642598243567626
2.464,21.511240309768297,13.292318814780678,9.240317866301552,21.521970537106938,19.126605572448156,5.587204161903017,2.7577926025666173,20.18253651788261
2.468,21.23167704183281,13.297416249943744,11.231815588508944,22.727241618675592,21.79665366747524,6.425255945150639,5.15565032231239,19.842246901171507
2.472,20.000121949814453,11.86522993801718,12.755735190548933,23.227433300065698,24.84726399924358,6.5507334086525475,7.25823080594445,19.284436939634872
2.476,18.67662906112067,9.700678648555375,13.77297081771141,23.227095817123292,27.990853613634187,6.247819737895398,9.042470701828847,19.56211571304197
2.48,17.810498165245622,7.7211220102359235,14.397790907075454,23.157892382332967,30.828753662759247,5.995708163315555,10.628023392909753,21.4838340344784
2.484,17.303772794697593,6.593102832367023,14.721717414746408,23.333648459388925,32.910693961330466,6.171301835202598,12.079509073098833,25.07356451734077
2.488,16.571230271365472,6.4727565873899024,14.714307600694553,23.722237840157973,33.880732668011355,6.81847391234092,13.277775174755817,29.463237144985754
2.492,15.114518909087423,7.085692061092729,14.307141476142235,24.020901058753637,33.6760857189854,7.641758928236513,13.97904740354059,33.31450397260737
2.496,13.065064554095223,8.004851907520013,13.538569088687666,23.9355294632591,32.625292397996255,8.194436932311149,13.980028734496969,35.50294263651983
2.5,11.26968118449635,8.90550743969289,12.618069544182035,23.450895262193306,31.346588505473648,8.149483466765957,13.269769960457907,35.66551532956345
2.504,10.839071040244498,9.653476214623296,11.842590093622093,22.90062529274713,30.47590201697338,7.502585917773928,12.08559003704265,34.324404682591634
2.508,12.418677422394438,10.202520725542662,11.39818650640143,22.767038317745133,30.34687097231933,6.599536579438322,10.8127214933059,32.533124408730416
2.512,15.668578618622092,10.442901877567884,11.209624003067276,23.353953792831042,30.809199571890538,5.9774018560572415,9.795498336985986,31.26967591283487
2.516,19.30613826853874,10.138047892007023,10.935388599110638,24.53410497500318,31.29534105915866,6.093448232078131,9.152554229447517,30.955267884380746
2.52,21.750787818588577,9.04456517381454,10.179777448743522,25.77273689356288,31.138715795214786,7.112528860264334,8.726718093962432,31.370281094792247
2.524,22.034957970222855,7.165800365276468,8.834390545532628,26.454462835303488,30.000644920763357,8.862489891709899,8.229090759075277,31.991025861840285
2.528,20.40714803637889,4.94331949227962,7.320451241632824,26.31108906029037,28.16023276784692,10.961957604947756,7.499742214016578,32.48848336627502
2.532,18.261902607312816,3.2223795971919102,6.553689372295125,25.685019720221447,26.478367037512243,13.027477702962202,6.729700850420883,33.03065378525993
2.536,17.383237105891634,2.9265443952392687,7.5400289340090865,25.410949147053827,26.010659487081966,14.809885293605774,6.465193714939815,34.18859821831565
2.54,18.905493427751924,4.582231807361239,10.784736920125425,26.349854461292715,27.455718991175395,16.207236763411785,7.356343536883585,36.51867263359774
2.544,22.597938362132133,7.958693152252465,15.846713539069043,28.837313695601793,30.725347928386263,17.17978374179272,9.761334909560645,40.09970493468199
2.548,26.89972028885861,12.059981774068952,21.335361401318565,32.37281788959142,34.88013448537296,17.670098176833292,13.42259578860515,44.33756643678677
2.552,29.692140742497664,15.512260539965588,25.42661458221427,35.74174792857923,38.47758299507547,17.589643843854105,17.419510865745167,48.15974440121667
2.556,29.36154581118494,17.1563707308108,26.62890969859032,37.51697597178415,40.163682110321645,16.864717690075153,20.45309110012053,50.51263680422906
2.56,25.588778224995124,16.567178526450505,24.46207664536773,36.71348020229131,39.24099477252308,15.542303515454137,21.385613371483785,50.885434915037095
2.564,19.438031862927104,14.208480108438344,19.673895355134135,33.2350685993039,35.918080270371476,13.848703516543509,19.764352461648315,49.54967393663185
2.568,12.764704864598194,11.159209083356586,13.881729105762446,27.91184039650534,31.138213807404668,12.15709154084226,16.076435969881885,47.39191017319783
2.572,7.32607525247402,8.568690909425058,8.826611114707092,22.133984537212157,26.08842820437347,10.873117600438519,11.581413665854939,45.44031579972463
2.576,4.022486196426762,7.086936175195056,5.562340839270107,17.229828295660553,21.63181406897384,10.260959748461204,7.748939755160805,44.382435267761124
2.58,2.664589500372884,6.586310112157221,4.03225780523708,13.939191440796009,17.97427289850002,10.344404768895359,5.5907643698240435,44.33913771994321
2.584,2.3555417856760243,6.335623826520788,3.2539438008157333,12.251519583125713,14.730980046445524,10.943496698594856,5.235223934328133,44.98456951097964
2.588,2.1449362146541304,5.487880166185441,1.9845502698114075,11.61708145997612,11.317459863783498,11.82397642161682,5.955340258103831,45.87554057525098
2.592,1.5830979339409197,3.6207739896601296,-0.4844050593919178,11.379190339249519,7.433753039470432,12.853445911134571,6.6374502944803595,46.728447417853616
2.596,0.8725235886587157,1.0110106150578488,-3.9032929271693746,11.154114446570773,3.35990790667951,14.051432998273114,6.406019853650989,47.50341826624778
2.6,0.6012329786082873,-1.4945803585410715,-7.1964406779040075,10.981510469812036,-0.08537122821074661,15.527141264635688,5.084046391206442,48.27863647437836
2.604,1.264240263282538,-2.923422778799136,-9.050243617859593,11.196729095160379,-1.8961545000986888,17.320656247242923,3.250017831831343,49.04299871537181
2.608,2.903567227273136,-2.6697265679790405,-8.604356579207092,12.159259572305245,-1.3416591454809748,19.284031207042275,1.8901820193351853,49.60476979277101
2.612,5.089806000092416,-0.7509663390904038,-5.83810816183788,14.019323137655796,1.70148362838421,21.07258763781671,1.8590946917262698,49.68540444281794
2.616,7.1814737711599435,2.265726365593274,-1.517078030070337,16.614827795029164,6.685222726810451,22.228076728905947,3.4101080344203467,49.14169819312623
2.62,8.685390933746518,5.606943924667036,3.2629045742124987,19.554460039144388,12.617486011039617,22.361134471057014,6.066038129021081,48.14701488480952
2.624,9.494415210484732,8.685397873211507,7.632939634476529,22.390623639367185,18.427719195974888,21.323675890601407,8.875256216528726,47.165280070536454
2.628,9.863386832247834,11.304259070325031,11.273196572002988,24.74953677243058,23.26896904338747,19.27486275773616,10.89383945805912,46.691135975517355
2.632,10.163338921173832,13.563251203983384,14.333883919047807,26.342707047678168,26.612184785545743,16.599583032978074,11.62910057647349,46.88081250921496
2.636,10.531093503993624,15.510862220371145,16.97412738060126,26.839116291367205,28.11594907871337,13.683594868045788,11.163234798523902,47.32204053253989
2.64,10.66458879282336,16.825080838767498,18.91039225314306,25.772588553672605,27.46328094948514,10.718243177151876,9.952702425505038,47.14156034065087
2.644,9.900257479022805,16.76993653518764,19.30605207915397,22.608211728428238,24.329642936152098,7.642286955781984,8.455500924907696,45.43528184615403
2.648,7.539397019198539,14.505152897828253,17.12515617838639,16.990820036871234,18.541808542353564,4.270380465704079,6.824106616606869,41.80310148139999
2.652,3.292012893936267,9.62076111226223,11.800328375830674,9.096251049655386,10.357204129105497,0.550400322558886,4.871085598001514,36.681573338206306
2.656,-2.4386707863810315,2.559851077342209,3.7613303895784327,-0.1561498790532454,0.6665268871333438,-3.228704888701273,2.2853450438348517,31.279565587385463
2.66,-8.580468485138248,-5.330249872814072,-5.480530843403642,-9.180735476364859,-9.035800793397556,-6.390634417534898,-1.0178313564299657,27.121316625202198
2.664,-13.737050708537112,-12.20671361347123,-13.802446692804736,-16.137097985382567,-16.981565868466987,-8.064842807759803,-4.635759027471607,25.40829029735994
2.668,-16.698204952428434,-16.43125443332243,-19.28021233183925,-19.531732261031763,-21.651710788610046,-7.545796163344406,-7.68813398126386,26.51032974663569
2.672,-16.87854261974409,-17.21845002784236,-20.929406097358964,-18.750960693777017,-22.276463316621275,-4.659220660462822,-9.12270348391445,29.812189027934053
2.676,-14.520908592080836,-14.931281929174254,-19.0581754437477,-14.30399695557098,-19.0964945429846,0.02953352599300274,-8.21647328460024,33.98686961436003
2.68,-10.53973643909076,-10.843985379040895,-15.020005100100178,-7.617255211144439,-13.242416372619346,5.333048286855728,-5.004525620753142,37.56029624006156
2.684,-6.121940645084038,-6.513361805876308,-10.532330043706907,-0.4894810612140006,-6.302610317460292,9.846636001194838,-0.3989601216979537,39.480094854625044
2.688,-2.2433773933940415,-3.070663792793475,-6.918247320440841,5.56853907763567,0.2313141522311355,12.490486050291196,4.0965691192226785,39.43602899526885
2.692,0.6674875591241545,-0.7928522452622104,-4.634895632944847,9.804103358105884,5.39381916439585,12.932935153676908,6.981132558989501,37.81084537022502
2.696,2.7394604535894373,0.8205834989968679,-3.340911626783509,12.276096075749273,8.871483763764253,11.663663932033685,7.36249415017987,35.35880683553144
2.7,4.373422283821526,2.5414982936838157,-2.367154437885546,13.529521736859095,10.834480231192032,9.703446005914344,5.305586079309549,32.79684125953439
2.704,5.841038809411202,4.784304829892342,-1.2823960818234639,14.101296784001839,11.613437217236644,8.089930444787058,1.7565393367883502,30.512666549740985
2.708,7.015057058529479,7.228765222442249,-0.21159000720706445,14.153359452212143,11.42350623096236,7.415569148654754,-1.910298282923094,28.515030945619486
2.712,7.4112912758801315,8.918982421929059,0.2711546707631385,13.431442910936724,10.27247347887647,7.630143292548155,-4.493580986099843,26.574770823910193
2.716,6.47407276088963,8.746744832814514,-0.48219917444002647,11.504961982301516,8.053926743747674,8.161030852453834,-5.456109762129998,24.44677657984238
2.72,3.9576575730317387,6.074268283691346,-2.758839725697328,8.154060266665319,4.762730014577485,8.300369520577817,-5.056644149723468,22.054610002706163
2.724,0.17982864541084354,1.150004475185682,-6.261294740686438,3.6532189253328085,0.6806620681451534,7.624346598747451,-4.083286965698306,19.537815565844184
2.728,-4.010170478164515,-4.903713235486649,-10.203752427818884,-1.2190753079958085,-3.585098622758437,6.2307737988464424,-3.3457849107460618,17.15869897384603
2.732,-7.544156401198755,-10.515695709963936,-13.631569417352097,-5.451254879762722,-7.249153506462875,4.671174777670942,-3.19061228271606,15.127193083054273
2.736,-9.600785486481278,-14.320614876522349,-15.834090182054325,-8.231736977255878,-9.630010979777218,3.6097755004876007,-3.338790132694058,13.461819975730009
2.74,-9.944882085144144,-15.69382809813596,-16.590085737663827,-9.275095822010016,-10.405650587023686,3.4483334425902115,-3.09751954536344,11.972329932377917
2.744,-8.956617090195998,-14.906800863248733,-16.136713876886702,-8.867403022244964,-9.71257173959605,4.1165038551935,-1.8062888541292352,10.366143295111648
2.748,-7.354984418914945,-12.866835057330775,-14.919442543474375,-7.627414459179278,-8.047217475641801,5.129521055813996,0.7390676091066837,8.410769320803944
2.7520000000000002,-5.764438848054418,-10.59849752736406,-13.276711482145515,-6.127250852220406,-6.027924792611309,5.860302191309927,4.131909088483482,6.040661150767761
2.7560000000000002,-4.417596288776306,-8.786358452958808,-11.307951995647144,-4.630208225622297,-4.157513534297692,5.8352606949103745,7.5222013464850335,3.3600066303326486
2.7600000000000002,-3.149212636324865,-7.5931503631174735,-8.963886911650427,-3.071967467334744,-2.690526058189633,4.922895857385555,10.013617423862037,0.5547019180577593
2.7640000000000002,-1.6585435370719992,-6.795949449443086,-6.279193267645958,-1.2729151411334172,-1.6512301686568662,3.3361877676881164,11.059761844849206,-2.2247864786521703
2.7680000000000002,0.1401098828215126,-6.106024795445265,-3.566076481820545,0.7783265004067133,-0.9571678236757393,1.4911433038444528,10.645742232454978,-4.936933220562487
2.7720000000000002,1.9250951403998933,-5.4352861448772956,-1.4001519417781196,2.769776761059248,-0.5610828756731507,-0.17728046324732816,9.190714184850137,-7.650693667250316
2.7760000000000002,3.0382072921294885,-4.975769557166899,-0.4346279924292773,4.1167954335071,-0.5357593765367596,-1.3661402669745115,7.228095824018062,-10.474414213846764
2.7800000000000002,2.802162788674817,-5.0543236913563305,-1.0920368027679714,4.221655365515389,-1.0305030258912637,-1.9428584677334584,5.082526276484529,-13.462143734819861
2.7840000000000003,0.9064080438499147,-5.867845471554958,-3.3071830957037207,2.7957401534341173,-2.1338716894890837,-1.912194203670623,2.7457575774589387,-16.563090357779146
2.7880000000000003,-2.3753708910730964,-7.297562377904875,-6.4826674328054,0.04124279959201971,-3.755844442796672,-1.378410191287557,0.012268156697707866,-19.641207698540924
2.7920000000000003,-6.226510997314879,-8.905899305540757,-9.668792676128767,-3.396817514138853,-5.605785387437834,-0.5280066835179724,-3.2157061204850237,-22.553084653639075
2.7960000000000003,-9.60935581925498,-10.153765894841932,-11.954513436074478,-6.7121424189437136,-7.318214766874661,0.3493851186342454,-6.698229860834786,-25.21451440137325
2.8000000000000003,-11.692385205377548,-10.697399324364483,-12.84067445541929,-9.278228134348169,-8.639239872836725,0.8932785436677904,-9.842447152693168,-27.582605038110685
2.8040000000000003,-12.164860663702342,-10.584293115697534,-12.429620581968727,-10.874168580283559,-9.566401719771683,0.7750290445181633,-11.929989318076984,-29.56389862183886
2.8080000000000003,-11.297609386474704,-10.224760134579228,-11.338012063262745,-11.683625538829759,-10.345219036124647,-0.15006965551994256,-12.46918931804354,-30.926284017260144
2.8120000000000003,-9.725141883468233,-10.130234711463252,-10.343238730024318,-12.062973828310987,-11.294387365987184,-1.7202386225097683,-11.440513245879856,-31.312900279429073
2.816,-8.126222801960246,-10.596869933414418,-10.003859361700144,-12.265658950367133,-12.570292786248416,-3.49627565693838,-9.333439948702924,-30.394549489058193
2.82,-6.955762412176561,-11.501739795613325,-10.404239903477333,-12.266925137703637,-13.992714432841758,-4.924471158564003,-6.932309034588414,-28.09814627980166
2.824,-6.3293074072156195,-12.332444805229493,-11.151888339814192,-11.787537251576047,-15.054532218985408,-5.5854563788787175,-4.973119121990813,-24.793013561662896
2.828,-6.068087796767749,-12.428150018184702,-11.603382937002046,-10.486052331433115,-15.125119370062784,-5.390061598379447,-3.851601133307554,-21.302748558191034
2.832,-5.81664177980328,-11.280401801651017,-11.15335714141846,-8.184549775042811,-13.75084290977027,-4.609287884070213,-3.4998735484050485,-18.695228551802252
2.836,-5.194105479058589,-8.765965905399817,-9.503413376993521,-5.028908293960981,-10.91176205353019,-3.747948532170355,-3.4976166394108006,-17.901575022555505
2.84,-3.9215543013590874,-5.196180069296318,-6.769903629087061,-1.4816080894617727,-7.080017975431396,-3.3029212074645926,-3.320712096586817,-19.320466122123015
2.844,-1.9153615691535002,-1.1837306596997976,-3.4220278385005827,1.8392821135065773,-3.0531732773312825,-3.5453422539128354,-2.5916129569437203,-22.599492364150052
2.848,0.6655088507261624,2.5888911529287455,-0.09047337804629763,4.3942815231374865,0.3692606249941619,-4.423945505689105,-1.2072393573403204,-26.710951488244667
2.852,3.45019611617273,5.588581585744585,2.676927554410838,5.9226143146121615,2.6965759778250913,-5.615777872918855,0.6816752682879184,-30.32226406237087
2.856,5.936549782573621,7.521808865906678,4.551645497450124,6.4878162306253415,3.878323975519116,-6.701811608127599,2.754560534664897,-32.3007701521061
2.86,7.637725936857361,8.30115573409141,5.451082069659982,6.390874321638819,4.222307927844561,-7.340146397268995,4.614911483931529,-32.12426844574123
2.864,8.26783955825794,7.95769597499989,5.488118215737572,6.005685611280093,4.164920565973652,-7.3583095379350425,5.864370410176129,-30.017051451469513
2.868,7.883228253831771,6.582501167455579,4.899634527941913,5.624970289227015,4.032975512794408,-6.737410110924969,6.1695567047285,-26.768815042605034
2.872,6.90015581721098,4.341764187717462,3.9883579725051916,5.377718979804129,3.917350241176358,-5.547563682108802,5.352722782205568,-23.352113315788124
2.876,5.937118032428803,1.5273724509643714,3.062838958252776,5.23032605922079,3.7153770241120796,-3.9067733437369583,3.497027371641046,-20.511034657463384
2.88,5.545061973601552,-1.4145954945122519,2.3822379926873296,5.059983244772592,3.292358632614203,-1.979572526248603,1.0123461065255697,-18.507368007803613
2.884,5.945676515079118,-3.9443817947905444,2.082791445496028,4.737880757424566,2.637423673767934,-0.008801970302428685,-1.4207149882988261,-17.11989535871387
2.888,6.927559964090037,-5.573965327651624,2.1223431943761284,4.201080738749123,1.9273510262419649,1.6885630013994302,-3.0562866613158164,-15.863199725050428
2.892,7.991933097000146,-6.008852456424638,2.325037543378258,3.5061065108740834,1.470693327253052,2.7995477585991893,-3.3628781688055867,-14.319053631400642
2.896,8.657064032959074,-5.220345680551219,2.49994482411703,2.828978690290416,1.5599813849867843,3.133978337698281,-2.254240520622055,-12.401547125147118
2.9,8.766840604141752,-3.411640875674596,2.588473734050787,2.425493617918093,2.325258943310928,2.7300459993755126,-0.13807187956948752,-10.432614541708055
2.904,8.616537867628786,-0.9023268803928346,2.740809635037003,2.5525940217602994,3.669899748133588,1.8635774068088082,2.260869824624862,-8.995621965679604
2.908,8.799956354915063,1.9878582698959661,3.2547781994164637,3.361893613574839,5.311281360979962,0.9437126963183431,4.232386481765651,-8.642075823041132
2.912,9.889179497517297,5.012544770526123,4.42158548290319,4.828753825854523,6.908791731044907,0.34900145251835113,5.413010126868777,-9.602340971189108
2.916,12.090705060923584,7.973815962055806,6.313054151656324,6.718610149519684,8.178141653620962,0.25369726552143135,5.912101055179882,-11.664793823238277
2.92,15.066789904767075,10.635322789464588,8.634222898095132,8.617962272796422,8.946116152125796,0.5363451863539836,6.170256088502349,-14.275043607649856
2.924,18.006328924091477,12.646569617581143,10.732435720078037,10.018071744737334,9.134941250861843,0.8067767112174096,6.621165341333054,-16.80228223085502
2.928,19.919985381327116,13.569408169627998,11.812548263463306,10.4464212856188,8.726355115963727,0.5661703849683377,7.380600973311616,-18.81715133053656
2.932,20.03906631702788,13.038907863950712,11.292429880202228,9.6222843967182,7.745589864880159,-0.563909819006021,8.16415694979873,-20.25269388739001
2.936,18.121277731927158,10.978896365683491,9.103326278530268,7.562822918328187,6.273266698543466,-2.656238382974017,8.47947443948565,-21.365626015862524
2.94,14.527772592113697,7.732752974551627,5.766774074887856,4.587126903414717,4.462489831362106,-5.4174444107799715,7.961409728589594,-22.53073702808721
2.944,10.040646686938528,3.9877088426285,2.16048436048138,1.1946439764658834,2.5112319388809894,-8.294321377439012,6.606314474536454,-23.998932826878693
2.948,5.519603848241243,0.5003131436989783,-0.9091734917002334,-2.133676321273658,0.5873139426999465,-10.691141498579661,4.75897220153265,-25.756357887947885
2.952,1.5908581853030146,-2.229089228233182,-3.0794636261371586,-5.112665789791812,-1.255032335299692,-12.19835143302516,2.873128593621672,-27.57829071027392
2.956,-1.49979941212316,-4.160063715471395,-4.563794550913052,-7.732704376890947,-3.116445116996168,-12.752911697248237,1.2134889226600265,-29.23044439219533
2.96,-3.839358562484424,-5.674679987228281,-5.972143861633565,-10.197249492311254,-5.202321498252267,-12.655316146969135,-0.2964059276018318,-30.672425349126485
2.964,-5.666012347099345,-7.301691333970055,-7.928925207038173,-12.750824478759746,-7.685578928074964,-12.433413853590395,-1.9686397199791514,-32.113606451961154
2.968,-7.163438707524804,-9.350337689550212,-10.693166137460654,-15.478328283363883,-10.548914225875581,-12.599277487707951,-4.052602773166079,-33.86280136677744
2.972,-8.3181432391575,-11.64707975166656,-13.949730820718408,-18.16320250104418,-13.492616881627143,-13.397527996331384,-6.437487519448467,-36.070958918426754
2.976,-8.920612885266983,-13.55663065186748,-16.90945364308757,-20.315220564252098,-16.000279045626336,-14.687376921813637,-8.603913805346679,-38.55372825483686
2.98,-8.70362182867234,-14.30933976455962,-18.67263803678356,-21.381090089014233,-17.55209381600478,-16.02858498191742,-9.896374979036743,-40.829411137693086
2.984,-7.55905874033146,-13.479441266120965,-18.6839121034578,-21.052400989036784,-17.885793431080607,-16.93960881235631,-9.972451173006217,-42.37546666504673
2.988,-5.703566602026676,-11.33257297185105,-17.029498648725667,-19.4958632162349,-17.148579781334462,-17.18130708665467,-9.117654084607562,-42.94661219677722
2.992,-3.661175716129499,-8.795102032478386,-14.397833253287722,-17.341198807118648,-15.831682906068608,-16.88440483968121,-8.16722667327232,-42.74628098144102
2.996,-2.07441874504563,-7.03751319252504,-11.753429981292687,-15.421306516957504,-14.525002758549448,-16.457213060383985,-8.0451045265015,-42.331260754575865
3.0,-1.4322516180414624,-6.882599483032758,-9.906749883320884,-14.38077390273251,-13.623633598704227,-16.32315811463333,-9.188233683948393,-42.2878449547215
3.004,-1.8676859274190196,-8.367248885850325,-9.213737994811048,-14.369291703951088,-13.158479515931493,-16.645353006789392,-11.236058161874233,-42.86869442952288
3.008,-3.130325412686606,-10.709204715700324,-9.524991836245825,-14.983457493151896,-12.838918158947795,-17.19801684739464,-13.199973538542164,-43.80631472003657
