Timestamp,O1,Oz,O2,PO3,PO4,TP7,TP8,Fz
0.0,1.6484591469634324e-12,4.433786671143025e-12,1.8189894035458565e-12,-9.094947017729282e-13,1.9895196601282805e-12,3.979039320256561e-12,-2.2737367544323206e-13,1.4210854715202004e-12
0.004,-0.7343552185808448,-12.761403361346197,-14.310162834186087,-2.6189929557158393,-10.768704478251436,11.922628510435061,1.525043847269444,10.909219841389415
0.008,-1.065870235935222,-22.252999232996615,-24.70910147072391,-4.971255136796003,-19.662899522838018,21.304838357612084,2.672852728854764,18.500616658400475
0.012,-0.9654802787860604,-26.540544155442717,-29.115101322939807,-6.93768033158949,-25.667431632687283,26.564270914941744,3.1558831002665784,21.083017803049643
0.016,-0.8711781542960466,-25.71156171364902,-28.151434120531064,-8.603141726244871,-29.004094243620102,27.612687948522876,2.8599992046633815,19.335878893172094
0.02,-1.4078979281554211,-21.57646613910498,-24.603121775895573,-10.161369151744339,-30.806479375458082,25.70490436411785,1.9040657657656084,15.780920388734842
0.024,-2.919927018805595,-16.635853192232275,-21.818992903936504,-11.744119823090614,-32.34466769437,22.738724470044303,0.6369151305251535,13.328209747656672
0.028,-5.111386147762914,-12.879848592048745,-21.943459468302564,-13.273643193305702,-34.26443464421513,20.385252860730816,-0.4443584798947313,13.733061203243324
0.032,-7.0730621562353235,-11.064225445629347,-24.950526016581165,-14.465315642618293,-36.317353892908216,19.47146627933455,-0.8653810298909548,16.819642372350415
0.036000000000000004,-7.747036558796822,-10.785873977475944,-28.96529423618432,-15.013551441478057,-37.72740817889493,19.874491155091846,-0.3737180372863804,20.838816632501846
0.04,-6.564300271923173,-11.142377305990635,-31.57152720815995,-14.836005693834181,-37.87987020089244,20.876165315005323,0.9406997793239498,23.64836499939645
0.044,-3.88171601634906,-11.493618301066363,-31.299022657750072,-14.221101942209202,-36.85987911265528,21.70085087196219,2.6520846151586284,23.96615642882955
0.048,-0.9281400528607264,-11.825284133236892,-28.419337430134647,-13.755058928918174,-35.452932158797466,21.911793622907226,4.17066771957235,21.97858580008284
0.052000000000000005,0.7560911397438872,-12.548471092901764,-24.653031208498533,-14.046209546528246,-34.61348081256361,21.511854448260806,5.029218954099235,19.064810754694406
0.056,0.09210417319178532,-13.970760452574552,-22.05508368347091,-15.395955641428543,-34.7892629291477,20.795486520236864,5.13998374960687,16.91960927531545
0.06,-2.972690181665996,-15.846015444093496,-21.768781671100527,-17.581305923938146,-35.543806722357346,20.088427926195095,4.883911086843682,16.644109658769878
0.064,-7.434285242097701,-17.373204971088512,-23.401426492678837,-19.899848867238006,-35.77764610782674,19.543819917156043,4.94820497590581,18.306592897434882
0.068,-11.744695946289028,-17.65257214349782,-25.33207529593338,-21.45707713582607,-34.41764434700718,19.109175901746767,5.973783665573649,21.120726963835295
0.07200000000000001,-14.57242171140706,-16.311318960899257,-25.74086741447161,-21.55963663237128,-31.16636017901581,18.646352311802048,8.181713590075503,24.0218241148047
0.076,-15.396974880658263,-13.884677392934918,-23.73380783270136,-20.025561101995777,-26.83548332938844,18.096470688727095,11.180981107992693,26.245232026431268
0.08,-14.626977340798561,-11.641601563899656,-19.869827215555603,-17.232772466620816,-23.003525730541952,17.573096472293855,14.080319243828058,27.562269237523083
0.084,-13.220159606636543,-10.927453574126389,-15.829779199502184,-13.89075607485131,-21.188180011955836,17.333033122453344,15.855836324368454,28.132696073231784
0.088,-12.066738677586642,-12.380926892176149,-13.434206577970713,-10.661589496867236,-21.988625379900014,17.63688054228487,15.808064774556215,28.181419154162512
0.092,-11.512575739784666,-15.515879950372039,-13.62604125365263,-7.858211881727925,-24.730310387473878,18.60237777609194,13.867112307436173,27.778137520465947
0.096,-11.291990110624681,-18.949634464099404,-16.015821317574392,-5.402653125700169,-27.84275004285655,20.14127948571712,10.5964677440615,26.882630470488436
0.1,-10.83595644366045,-21.133051568657294,-19.185877649171402,-3.031884550664131,-29.732462215484816,21.98657195452199,6.90982422313283,25.56471132288965
0.10400000000000001,-9.746282379069243,-21.19215750432329,-21.549019539974267,-0.6292764259437718,-29.660895722235978,23.774489475233224,3.6517860205321995,24.172144039495436
0.108,-8.111801169233132,-19.38173183218811,-22.217113666872024,1.5500698930521821,-28.09899924036486,25.14272227335192,1.276339689546262,23.274919031976992
0.112,-6.477193579873585,-16.91699721149641,-21.399899317760884,2.90959067820188,-26.386909213371325,25.83124572971343,-0.21937451695271193,23.408094438125033
0.116,-5.512569086443364,-15.303894947432639,-20.162999548684496,2.7874431320602184,-25.92751180467917,25.767828699087943,-1.1142911308353405,24.786409677079433
0.12,-5.61647876871487,-15.530876780768125,-19.71223285253882,0.8418600700330785,-27.364226090721928,25.096482323672376,-1.6804780576064218,27.17040515666767
0.124,-6.714142610125208,-17.59352112422775,-20.670311741623493,-2.690316596916773,-30.23524299791859,24.120403480426432,-2.0055447376661277,29.965049533002684
0.128,-8.32767296677983,-20.561141316900034,-22.74014307505044,-7.001754492204725,-33.24946714011671,23.168471337065114,-2.0069524762481024,32.484591122503275
0.132,-9.853675878918438,-23.115260141065477,-24.93038765091231,-11.02237277156604,-35.011041283377494,22.448083528099062,-1.5932993528035695,34.24205082354018
0.136,-10.85777370263338,-24.24856823935542,-26.189632217785743,-13.889547211591207,-34.775009844038976,21.965485412798728,-0.8226119223685942,35.10828549988
0.14,-11.195015867247946,-23.700324224388282,-26.013575488361028,-15.305651029795172,-32.77047428174524,21.55946048716214,0.09415047725713066,35.267510801842036
0.14400000000000002,-10.933553151339368,-21.935978313265707,-24.676475268733924,-15.607520945193187,-29.955249956445584,21.013940381668817,0.9530931571515566,35.03386662953466
0.148,-10.179861435659177,-19.727116881913105,-22.962584086659888,-15.497604954947235,-27.36464931005702,20.191515324268835,1.7690973414971722,34.65215497317621
0.152,-8.970027427081618,-17.65102322452617,-21.620609148547004,-15.602576934266608,-25.479800739256575,19.128963148869275,2.865070888104185,34.203895841222504
0.156,-7.3024859939697535,-15.827074745746245,-20.91364772756029,-16.107452753314988,-24.00449937470853,18.045096128324758,4.723737247204667,33.647309429693166
0.16,-5.257353858649537,-13.992108691547855,-20.50594746763599,-16.644740235782933,-22.133038699219412,17.237015128688085,7.659948321314346,32.916546168520995
0.164,-3.0810044617027756,-11.838267106179217,-19.755144637913986,-16.495876128271334,-19.137964236312087,16.912251092045267,11.49971328197455,31.997675134915028
0.168,-1.1329575419140383,-9.34544567940327,-18.188457717772252,-14.975873319654966,-14.891330295803186,17.058682858160182,15.49242089870063,30.927681318855207
0.17200000000000001,0.2853502388291531,-6.896492321416247,-15.869782035185779,-11.811879214180067,-10.036640663359549,17.43979217408196,18.55266582342267,29.757145098127637
0.176,1.1022026395315265,-5.103931905570107,-13.44246326429709,-7.334580736833459,-5.733216760079699,17.733549550945554,19.743809842263317,28.537362177499006
0.18,1.5151787043660647,-4.435411279210541,-11.802505693382784,-2.3784017574645304,-3.1090741902281707,17.71562335020758,18.737695678767864,27.327152585660485
0.184,1.8419892760335301,-4.890902919429436,-11.617428381322554,2.0311708926972187,-2.7595337301852965,17.362185403823673,15.9933528738095,26.200106109993897
0.188,2.2731728830394218,-5.922652150280442,-12.963309151505314,5.050018681771803,-4.535413689151824,16.821458396425783,12.557514166182727,25.224832107388977
0.192,2.681628891271089,-6.693341899958682,-15.324905736385347,6.255958169644373,-7.740804975722369,16.282384791783215,9.56917997959431,24.423783242888817
0.196,2.6355860896796344,-6.539882708234472,-17.951220371018337,5.6650627992610225,-11.594846720043051,15.849127598808991,7.752505279415686,23.751245640442335
0.2,1.6459464402332742,-5.351036046427453,-20.303536895862862,3.5975883897425547,-15.630125282699794,15.487942306493437,7.168951660988228,23.109280820523736
0.20400000000000001,-0.5104981534474291,-3.6580820890118275,-22.32318433061539,0.500964273101772,-19.81362967133998,15.067837648886325,7.332664287902276,22.402844705822815
0.20800000000000002,-3.583197616663142,-2.35454974288416,-24.340684370756037,-3.1564599458463363,-24.322904417139853,14.474348489887234,7.6054090173786335,21.609322173134956
0.212,-6.898733541117849,-2.2085166431119205,-26.706772596171277,-6.900784269201836,-29.163429507741228,13.727865986541701,7.628644585138318,20.8262660708192
0.216,-9.653809482620773,-3.4462038341278003,-29.395831328386464,-10.229937108972763,-33.901830550226805,13.027307190876854,7.542886605885769,20.263697525317298
0.22,-11.27099219850129,-5.603643994819663,-31.820657103952215,-12.613776720455121,-37.67205053757351,12.678843654630782,7.8885010446691695,20.15443234371969
0.224,-11.637298318075977,-7.751783502531907,-33.0056253636551,-13.587354016563609,-39.492293155727054,12.939164556157266,9.261461242661767,20.621257832659012
0.228,-11.091260772313376,-8.950377286064509,-32.02396941831449,-12.900558017020899,-38.70613815183265,13.848103995490192,11.933012711658534,21.584512905998054
0.232,-10.194927215182474,-8.688794046694738,-28.471959708235147,-10.652806679474338,-35.31552205533916,15.168949274366696,15.643914676526265,22.78068710769969
0.23600000000000002,-9.424291116392624,-7.073728334556904,-22.72477391957699,-7.320486679039163,-30.025372280347938,16.466130228981683,19.680502454130192,23.87471407755845
0.24,-8.95692356024415,-4.669357411505985,-15.839221496389996,-3.6300001591390583,-23.974614028820895,17.28495559582393,23.16184177909463,24.596189091031533
0.244,-8.667850186565033,-2.1262410539270604,-9.184669186752672,-0.3335416445208921,-18.326362516834877,17.35955150076711,25.379493821136748,24.835839476302226
0.248,-8.288335896810963,0.18250394104961742,-3.97345093260094,2.02540934024114,-13.904653845035057,16.73061713911784,26.017329003498844,24.63247800454144
0.252,-7.617520741780595,2.299915087879185,-0.9061547499941298,3.2556365757327512,-11.029546151914587,15.707714075686908,25.177197551143763,24.067557927808934
0.256,-6.671622710114434,4.507722881135805,-0.06230486538254354,3.5130607789035366,-9.59310593885482,14.697391788774212,23.238075377061477,23.161844991704015
0.26,-5.686100324596282,6.962895197750413,-1.0172121008704949,3.1728917470027227,-9.279872711187863,14.004175388741487,20.665268159383913,21.868767651206895
0.264,-4.995500304863867,9.385661427194805,-3.096287299744972,2.649324755239604,-9.796863546971622,13.72360813207274,17.881707511234026,20.193338371489403
0.268,-4.87182202668464,11.045927346856274,-5.6086587721691785,2.2615227566400335,-10.983010837273468,13.7582176390913,15.225180565659002,18.33497671020143
0.272,-5.400926418741506,11.115851241504515,-7.961977366557903,2.193686384023522,-12.761348964725357,13.926296327911132,12.964199815392476,16.727662171433167
0.276,-6.431031325989579,9.203135776289741,-9.68901859797063,2.524946493293328,-15.009978628544559,14.102515498726916,11.309981159824929,15.917832448679178
0.28,-7.5985685968609005,5.748475710910611,-10.455285787251796,3.266972402704141,-17.463878924822666,14.298032796841653,10.39222515467577,16.31755074209582
0.28400000000000003,-8.433686664483844,1.9928344141542311,-10.11456049233027,4.346843130974776,-19.74467687925653,14.63887728415989,10.194517135441174,17.953355342454984
0.28800000000000003,-8.50994478178302,-0.5102808831290986,-8.773349209190656,5.566743171867756,-21.480490816470933,15.239860174613796,10.507250274387161,20.354507478414234
0.292,-7.611052877488419,-0.6130827714259794,-6.792904919419129,6.598441562985727,-22.42992160933045,16.0376299272732,10.959583700056328,22.66906624626995
0.296,-5.842828579253705,1.854364431475915,-4.695820559218532,7.065648510140818,-22.53854862229514,16.72372147695205,11.150735129188206,23.99099852307745
0.3,-3.641638492713355,5.9792712401866766,-2.988428621632238,6.705134332042917,-21.8984480115148,16.84665287619623,10.838157570998874,23.767328378455204
0.304,-1.6604071066927872,10.190214379496524,-1.9830367090518166,5.524980763778558,-20.65542333218707,16.06347562496967,10.084318151559046,22.085436344617392
0.308,-0.5432202617868143,13.014684306106233,-1.6912307319730644,3.8690204474021357,-18.908386897340733,14.386600593014919,9.266024468530532,19.65444020841653
0.312,-0.6786564424902508,13.772854793842612,-1.8392027767088166,2.324488467492756,-16.657848464237645,12.25234339497456,8.915788937448724,17.466242401512886
0.316,-2.0544191818360105,12.834108701474179,-2.0173624883984758,1.4765286888186893,-13.851687753389228,10.348033692202307,9.464699517687677,16.304880226706246
0.32,-4.270897825675775,11.321015903416765,-1.889073470414246,1.6308393134713697,-10.489025736155554,9.284927922936276,11.023472311102978,16.375611723080738
0.324,-6.710607419353664,10.435273432404983,-1.3714388721995192,2.647233473337792,-6.731709932741865,9.294555853742168,13.309303051153847,17.255860397464858
0.328,-8.770025348679042,10.813425423869262,-0.6719317878789752,4.000401501011083,-2.9341984045809113,10.10636439504151,15.757469814787328,18.190100268471838
0.332,-10.035434573359908,12.264654573650432,-0.1531569418482377,5.059101877318653,0.44412695397898005,11.073346930059415,17.75481233438336,18.54624437851669
0.336,-10.334667711234601,13.978929085486243,-0.11554193115625822,5.426025057163088,2.9930094196224672,11.503897588467225,18.874648902059562,18.182047994553727
0.34,-9.683362069681834,15.027199341729556,-0.6205690035400266,5.130492415773688,4.484028461451999,11.026681959298003,18.997293727714123,17.519201117929697
0.34400000000000003,-8.205784595077375,14.82291487761563,-1.4637128771616972,4.548419333940728,4.902413847217076,9.795086523155078,18.275670272065554,17.288458727806074
0.34800000000000003,-6.107001821422955,13.29480182229031,-2.2873829709598112,4.096661855948014,4.384342977108304,8.41637197350019,17.002854114154616,18.078855867000243
0.352,-3.7106583007079053,10.7389895879071,-2.7667269249814126,3.8946508957715196,3.11531676311688,7.640492148466137,15.481449909962521,19.945855283719766
0.356,-1.480001725429588,7.528847079439629,-2.7663026154028785,3.6247587609600487,1.2646850456994798,7.978454389140552,13.983917802549968,22.31995744305641
0.36,0.06133907891057788,3.927371339373849,-2.388150870752611,2.696143074083693,-1.0007097313099393,9.456699699647288,12.79952220237169,24.2845090566193
0.364,0.5347719214134941,0.12362829104768025,-1.9065828012732027,0.6370375808733115,-3.4467802234797773,11.630196717388117,12.289489520488132,25.07784580075713
0.368,-0.06353577259392296,-3.565335158314383,-1.6212336462776875,-2.514830816666745,-5.700248133040532,13.796339920109858,12.829022037694813,24.511566636709176
0.372,-1.2642784088620829,-6.546127560737659,-1.706884882166264,-6.071207137185411,-7.265555294434648,15.276119940781427,14.608595527123498,23.052100170617905
0.376,-2.2784409300309107,-8.055730994047508,-2.1398875188214106,-8.930677527058151,-7.674032784246606,15.630797398860977,17.39749917941117,21.53614528113758
0.38,-2.385804341045514,-7.534181016701041,-2.7293501325506213,-10.10127183927193,-6.711170815055311,14.762924595084769,20.437635744769295,20.69155340159955
0.384,-1.367760858757265,-5.061098056504079,-3.2294657389329586,-9.229088205619519,-4.605461201341086,12.91889184979118,22.616918807113052,20.758237087606176
0.388,0.28750008925885595,-1.5162595418437377,-3.440945744408282,-6.816703758359381,-2.0162943117302348,10.615066452041901,22.92089813344478,21.426255013343507
0.392,1.575056154482354,1.7228905493632283,-3.2473557735330587,-3.9876498637786426,0.22274029569337017,8.504522323486526,20.944483747750382,22.086393526697066
0.396,1.4930518195435525,3.4366331864005133,-2.603062898150597,-1.9275353932259804,1.4901249206036482,7.200738878735137,17.180954452626338,22.226898762960445
0.4,-0.37739471515806144,3.221469236205394,-1.514983012589255,-1.317444354128611,1.685868929053754,7.065410998840434,12.879577545657867,21.722650033786522
0.404,-3.563928940106962,1.7473001633495642,-0.058037959136981954,-2.0644179172602435,1.2684793139413841,8.039804306918086,9.508964910112127,20.857560648493745
0.40800000000000003,-6.859559766121265,0.44161002109558467,1.6095721728651142,-3.443219361683987,0.9990896675701606,9.60509339184182,8.088654946119732,20.089650884707908
0.41200000000000003,-8.904024427527702,0.7362030822444012,3.2524203277156403,-4.540559558828818,1.511569812918765,10.926003330007006,8.737325670996142,19.723020252873084
0.41600000000000004,-8.880576755798984,3.278221154011362,4.609212404687014,-4.72360705625897,2.941920189093935,11.196463572305674,10.695131653603312,19.727192260078937
0.42,-6.9535303281800225,7.539837706429125,5.478710144260845,-3.8904308657599813,4.828187077227312,10.061042154407914,12.805977480746606,19.813999859558862
0.424,-4.206208242129151,12.032853917799684,5.777063020277524,-2.407834315101809,6.336376984889398,7.893740934198831,14.174797933495938,19.716236722427084
0.428,-2.118977830467202,15.00303722087392,5.518818262335458,-0.8388807303576868,6.6875488457587835,5.709114400290673,14.57696488907277,19.41864174090142
0.432,-1.8708592708026117,15.23295751451792,4.736931610598845,0.33758856087752065,5.5557172692673475,4.678581821290663,14.402013352837457,19.16066132561923
0.436,-3.8360166447037045,12.525752207746791,3.380663016303288,0.8507476007825971,3.2065047317950075,5.487396648612503,14.202960085684936,19.204806207241745
0.44,-7.496942852320899,7.683352389844686,1.3000420391008447,0.5968632672238527,0.33420701727391133,7.898326780846219,14.199435558005462,19.56076066936521
0.444,-11.740735074411077,2.070473955519219,-1.6306062724520416,-0.44530097328924967,-2.2803222728014134,10.812213925818924,14.104071252747872,19.904889049177655
0.448,-15.346027243930394,-2.943392691716099,-5.277021634131756,-2.2003594279472054,-4.06630271545373,12.854556931381921,13.41530150972585,19.796448694510445
0.452,-17.42142831036699,-6.385491298349052,-9.050568409468951,-4.375982079282949,-4.7585342074976325,13.156960547115887,11.966391861572447,19.05949414884094
0.456,-17.640243419680473,-7.829686655605201,-11.948974153262498,-6.3913595039439315,-4.31833075030795,11.862924473829935,10.293030667753555,18.02752522237688
0.46,-16.257885043944952,-7.37154979320826,-12.924525755977584,-7.5153925758327205,-2.827986748908188,10.027596876310326,9.460743398548857,17.405244535232214
0.464,-13.992971586709018,-5.571377856810386,-11.475565833136216,-7.254633269833448,-0.5122314285727043,8.918377307131323,10.344394824347091,17.744216875966686
0.468,-11.846039067291713,-3.4059034693043486,-8.135311456928775,-5.7981899343217265,2.1242444951237758,9.103467404231196,12.768687208941628,18.82315953563443
0.47200000000000003,-10.8661563708406,-2.1433759136659774,-4.507834919877837,-4.18762762017559,4.201867818485198,9.909724804499547,15.111744455361986,19.37093594163821
0.47600000000000003,-11.850640832713225,-3.038331531370204,-2.7108340405832223,-3.9780664122386042,4.599054906365836,9.645011111632357,14.770984653787764,17.44677786551074
0.48,-15.000870822246952,-6.833491217332039,-4.400151902428888,-6.4353175210080735,2.392705689855802,6.547707366664781,9.417024458164178,11.42557746092939
0.484,-19.66563498533219,-13.260940173341396,-9.841934039165835,-11.6574992319579,-2.558116944394442,-0.03176464517673594,-1.5726183312372086,1.1334262994184883
0.488,-24.36366975230908,-20.832995888809137,-17.528600579360045,-18.148843215588386,-9.207206099957943,-8.924256887235515,-16.32655181885184,-11.536528051196456
0.492,-27.21533852052471,-27.173050631663045,-24.62960779474338,-23.218693662406167,-15.431419732432005,-17.410886896195734,-30.88997689943949,-23.012707612522945
0.496,-26.673493817161443,-29.86248890959382,-28.14204763757425,-24.125983659968142,-18.749081984714053,-22.400822793282714,-40.75390569980186,-29.379733793329933
0.5,-22.269842558510618,-27.4713677629793,-26.23060127847998,-19.44700962396996,-17.393390452064978,-21.91904361339357,-42.804214618616015,-28.06366930137756
0.504,-15.002052118365327,-20.291104976594397,-19.11091417251714,-9.961894137015406,-11.23903065425543,-16.11428642604642,-36.70774732906307,-19.025699570688857
0.508,-7.062697324925466,-10.331306524317142,-9.007270407851252,1.4975635064104154,-2.043593868387461,-7.219451892226061,-25.013841662411323,-4.837068530887109
0.512,-0.9693642696668121,-0.5329686353495617,0.8071546281810242,11.235136160819366,7.188090877112586,1.5123472122918429,-11.93017595276956,10.420273623523144
0.516,1.5050631313356462,6.428384309250305,7.409396913505361,16.325361147142075,13.450126914469024,7.323931930739036,-1.420641996769291,22.888973175720594
0.52,0.08126489949449933,9.166923421594447,9.383072912326952,15.864223562131883,15.001541364975196,9.135238858403227,4.412557817218385,30.45212254281728
0.524,-3.9901794778215844,7.9429455768251955,7.192768701460068,11.194494765954232,12.013064069524603,7.796421458677742,5.881098018482362,33.31789577548898
0.528,-8.609437506665472,4.251136296421919,2.6790620197701855,5.048309034521935,6.309796621193414,5.36415906404136,5.036857169487121,33.467654694262365
0.532,-11.86433478807703,-0.05726469175442617,-1.9756082722055908,0.12185554241750651,0.3950792280767246,3.869267019154904,4.268018686278765,33.34940083887409
0.536,-12.867749767626947,-3.6119566848058184,-5.229521963144293,-2.125732798006993,-3.6999235448884065,4.28977521259776,4.99587471253858,34.565149837455465
0.54,-11.981552849495756,-5.906106599715713,-6.631996246082053,-1.8456197625794175,-5.1532750134194885,6.2641459985293295,7.1450185033661455,37.22452993059119
0.544,-10.36959536824304,-7.133540485889853,-6.631426801802718,-0.2681831315155705,-4.385546679018262,8.591935658413604,9.55545540182834,40.19259851838842
0.548,-9.18558975159715,-7.697842891365099,-5.967870046856206,1.3127100036647334,-2.4775384810228616,10.106331072138346,10.933494580784782,41.94818091538468
0.552,-8.89806525285178,-7.774010625216761,-5.078329141013796,2.3740319929815996,-0.3938259046836947,10.349661876223308,10.71606827100959,41.487070718740824
0.556,-9.111026925765145,-7.204270159091493,-3.8707099765518933,3.34221226297268,1.5073670310408716,9.681193813381924,9.34683728445134,38.78123762673931
0.56,-8.9139755710504,-5.723941684291276,-1.9361651861371456,5.099884007952596,3.453645857164588,8.856730492712813,7.87685334052594,34.633889401475244
0.5640000000000001,-7.518070255381872,-3.3040169558546495,0.992144674987685,8.199168504427462,5.819312167469093,8.43739067894785,7.237193740696512,30.141840108099473
0.5680000000000001,-4.757684365219461,-0.3182501036258145,4.687598590726338,12.340997985895228,8.633206801390429,8.432098714694348,7.674431459546668,26.144691557243505
0.5720000000000001,-1.1658093812492325,2.5961686583032133,8.42906694274177,16.456743919911105,11.383968459868811,8.3759729179842,8.67815220955572,22.962236141270182
0.5760000000000001,2.3542811913063133,4.871483426668647,11.325965360977875,19.295748271787943,13.232378159610676,7.735923305863253,9.384343433649974,20.48978828327165
0.58,5.015280491124031,6.300442925588413,12.747928204863229,20.11564414364011,13.475126370299563,6.328424066756497,9.13518842677081,18.478268885334842
0.584,6.482342233531881,7.074259261115799,12.575379594775086,19.031188703697808,11.935559189373521,4.474983181934249,7.832351709592103,16.766804063039444
0.588,6.8815963813742655,7.56297606608689,11.150523844686745,16.82790914508223,9.044959920524548,2.801352950788896,5.899218867142508,15.31943105962091
0.592,6.534217067519876,8.015113144347083,9.000762327677194,14.412830982555988,5.5841291828952535,1.8288022988162993,3.9369360209370825,14.094158116728863
0.596,5.659944885971868,8.395803357254977,6.542071323037931,12.290699067190417,2.265656623085306,1.6746045851214149,2.3553678171076626,12.914501941363255
0.6,4.274869065684243,8.46769945978997,3.954685937311865,10.392185454525361,-0.5820456342665921,2.057844756588338,1.2187743881725055,11.479638301088471
0.604,2.333093901582629,8.022618757006853,1.2733148014594917,8.309262783433041,-3.06084560313559,2.562346729465162,0.36553057229070873,9.524080103397978
0.608,-0.008453153811956327,7.088076774767387,-1.4065524434448662,5.744555936449842,-5.474993045309702,2.951573268141601,-0.3388391222847531,7.009385244661644
0.612,-2.2411583413068,5.940851839269271,-3.789373866707365,2.8398739442154692,-8.002208314290442,3.2907808172894875,-0.845065325630685,4.193938476992798
0.616,-3.6250529100201447,4.90914984681865,-5.441443202789856,0.1517762713290267,-10.484356336319252,3.7851564641637196,-0.9884521496951493,1.5133057345302632
0.62,-3.536881624271359,4.13105704788461,-6.0195115674608815,-1.685891470383467,-12.453715807186654,4.491335249513668,-0.7075384451643458,-0.6381965291465121
0.624,-1.8514430001730489,3.4539542967426087,-5.516393153364902,-2.3761026510892407,-13.367560929256342,5.143736437059715,-0.22651393486853522,-2.0745708158004845
0.628,0.9042876839764631,2.5790073563250644,-4.325211506902519,-2.1474541661445983,-12.886533894675722,5.245042615019429,-0.02750160504933774,-2.8388950822851484
0.632,3.7513771455811593,1.3632098932616827,-3.0411394073018982,-1.5871514753575866,-11.029702097035056,4.38235970550636,-0.5791426226569456,-3.086789507369417
0.636,5.71349504829891,0.03586420918782096,-2.1170448479703055,-1.2497377057823087,-8.146506241389261,2.5567486424185972,-2.0196435155419294,-2.952684245975661
0.64,6.2897977532365985,-0.851015001076803,-1.5874719940946989,-1.3107134465813033,-4.749960881625952,0.28843095240790717,-4.019304679523884,-2.5077945831448005
0.644,5.671444074528381,-0.7646435382447407,-1.0723226276268178,-1.5080482639057209,-1.3439870675597376,-1.606115667854283,-5.939306189809258,-1.8336003907829763
0.648,4.589110934775249,0.3922371323870948,-0.06478998879845221,-1.380947791171593,1.6855990668643699,-2.4412567251451947,-7.201180429591432,-1.131709445784395
0.652,3.8826510132665817,2.084794900880297,1.6655475835779612,-0.6309578501618489,4.0957152252020705,-2.034010245765785,-7.628678181324403,-0.745281245388469
0.656,4.0322315989755,3.3371714526841743,3.8083059655810985,0.6435163370017563,5.759957101034729,-0.7957055273800506,-7.53552544375566,-1.0239734371592704
0.66,4.9125492329293365,3.2503344795283056,5.581901392084376,2.0088349795000795,6.653258224648994,0.5201799472595212,-7.486790807990133,-2.0899054977581955
0.664,5.890447428432708,1.5346942359883542,6.10475965227846,2.9872723516293718,6.844475397156771,1.2636433099871738,-7.8947676619992535,-3.6654268653040845
0.668,6.183913654065691,-1.2699225951286053,4.878279811873199,3.3688550039493066,6.488328343857347,1.2353150307940268,-8.730725479438547,-5.1287043143827304
0.672,5.25757999884479,-4.049536328791191,2.1004477444859617,3.3166489896084386,5.787788181172687,0.7141397382717969,-9.565947050031923,-5.824084435419877
0.676,3.0728673841297223,-5.703777382471344,-1.3842256060048612,3.1998784919018135,4.922388638473933,0.1877790286655454,-9.909256355004686,-5.455767271207151
0.68,0.08598139831531171,-5.722726291234949,-4.47904508513119,3.2795775419594975,3.982554106288603,-0.01568743890402402,-9.603524746083735,-4.311703990270871
0.684,-2.993275609974148,-4.438507785207207,-6.376809903909134,3.455165670494921,2.936268283295931,0.05427802234430601,-9.008651049025275,-3.15163162919805
0.6880000000000001,-5.518694293030762,-2.796558119465203,-6.928692694053154,3.281649646546043,1.675684509124494,0.04502313548641723,-8.810596986441283,-2.7916439219560516
0.6920000000000001,-7.143903700852661,-1.8007115742323094,-6.648528999952646,2.262317555521804,0.12053416204099676,-0.3995363081978667,-9.573338734386084,-3.6149858871227707
0.6960000000000001,-7.889611372922786,-1.9748461396495713,-6.3673057712885,0.23598804627772552,-1.6836469969832706,-1.3476147629562547,-11.32232590929732,-5.305007844470424
0.7000000000000001,-8.047446451213318,-3.150072808580603,-6.738856710840821,-2.3894403561058652,-3.525368478188625,-2.498487716162572,-13.445228912365792,-6.9756874560908955
0.704,-8.004669761626928,-4.685270871473904,-7.886512526544152,-4.733804263460229,-5.078072758109727,-3.353482498372159,-15.001951821756506,-7.636604771059979
0.708,-8.056731691198593,-5.916252285081896,-9.352713190798852,-5.819477715013477,-5.983958536734349,-3.527296138492602,-15.244246915604663,-6.72188572389507
0.712,-8.286488329262966,-6.52310482599205,-10.347003621342651,-5.0260570008290415,-5.9267802882633305,-2.996338668364615,-14.025603627898818,-4.397485651410193
0.716,-8.549959450016388,-6.593460399785954,-10.138741838819783,-2.3840117123125992,-4.680521223126732,-2.103634220407912,-11.843413564994194,-1.4783091559768309
0.72,-8.55313509083112,-6.371749233697415,-8.37285751287584,1.4469758205927974,-2.135069097637313,-1.3216662054323933,-9.487391012559783,0.9930128722044174
0.724,-7.994617838402917,-5.927275147028922,-5.191962241306044,5.473851881052838,1.6399702522738835,-0.9507996316954177,-7.532410218324117,2.255830958366573
0.728,-6.722440656264325,-5.005909551450259,-1.1420893560031118,8.770841501008704,6.3062461533315854,-0.9551930387588072,-6.022789850484514,2.1395922602248447
0.732,-4.843368512681309,-3.1920627156029013,3.045249636959568,10.785372153525145,11.20357707626033,-1.037278498849446,-4.554746151090399,1.0306729298898745
0.736,-2.729713938436362,-0.28147720692652456,6.66853960101389,11.4342664260746,15.423033224443145,-0.8839105702138568,-2.686960201520151,-0.4297739585489353
0.74,-0.8944545627705907,3.414801005290542,9.209185184849048,11.009356026533965,18.06671889933949,-0.386423824984945,-0.37220319851951444,-1.6946006143782597
0.744,0.21986831371981452,7.067016001571801,10.392315337983518,9.98528100775684,18.60695031294773,0.3297623152619735,1.8990373092245818,-2.4968612047454712
0.748,0.4351402802150801,9.680613447400106,10.200786417054758,8.841282489153514,17.181686808758798,1.067508862503587,3.359792385640958,-2.807028347043172
0.752,-0.09594683604916554,10.620023272140088,8.865079794328267,7.949588359942027,14.625624677274686,1.7673858591215321,3.4598318783685045,-2.6683851870957938
0.756,-1.0021515683966413,9.977742708460141,6.816737687601574,7.5234912464571835,12.14852675991716,2.57975468834627,2.2531775308098076,-2.072743576872142
0.76,-1.9504262618047505,8.540984642794456,4.579413717277987,7.582004133055648,10.767126142150005,3.7084622847373794,0.4056385271816225,-0.9835414900222759
0.764,-2.8970543019160573,7.350802685815779,2.5960784789071454,7.919147233657213,10.757805446854888,5.135705781580782,-1.2062170392603093,0.5381880018186393
0.768,-4.151882141156875,7.123419976179832,1.0773917318571762,8.13868035038115,11.471278963034024,6.451246138100942,-2.03438380844284,2.238400873170008
0.772,-6.187096716479857,7.881060589792867,-0.03855894214501632,7.791126869791924,11.662964886549048,6.966805374481169,-2.1725216644844068,3.7211798450268816
0.776,-9.287689461603463,9.002874551637717,-0.9776774739836469,6.582540705769588,10.203303169659364,6.102248023985112,-2.2328698653645915,4.648200169200095
0.78,-13.234759545987572,9.66199247094113,-1.913144580777555,4.5854481931107784,6.8042905982382536,3.830058956312314,-2.8519837731124653,4.969363449352613
0.784,-17.227864834542004,9.354133673583988,-2.778716401459576,2.324511658727829,2.3262054466605946,0.8824894172629456,-4.150734768473853,5.022613079535745
0.788,-20.1471654205709,8.192982529843107,-3.237236782993989,0.6496248204173298,-1.5420868336109947,-1.4814875280683282,-5.528953093027326,5.389312161679015
0.792,-21.05516628825552,6.799476318724032,-2.844514888862875,0.41065308398196976,-3.09578582429225,-2.0834921811137974,-5.955070439512042,6.562365971917984
0.796,-19.682420891384368,5.867856842245487,-1.3342724595036657,2.063858393464784,-1.5024519635682623,-0.47924225588189984,-4.594390177763444,8.615339984027514
0.8,-16.61561039613889,5.706266287366532,1.1554868266894118,5.41079363371648,2.7333830212243697,2.727741815991635,-1.3819549527083836,11.08879605538175
0.804,-13.071533228043563,6.033656289480291,4.05519110879419,9.596437510221335,7.975200976925635,6.124530667287331,2.8216357806004453,13.182911133610503
0.808,-10.345608834502684,6.180056381552333,6.586639679142081,13.40304578302539,12.249724900216677,8.186588073134317,6.619795334030073,14.16575192006627
0.812,-9.205666781435298,5.56263917430698,8.131047261612366,15.730997643608816,14.21380281150374,8.05189190552187,8.790112683240068,13.760297514780802
0.8160000000000001,-9.545637801130965,4.127181291643751,8.535570084823007,16.04677131736878,13.7697467754395,5.934692110497849,8.906983849312269,12.286794265737626
0.8200000000000001,-10.471360499760976,2.470205143830981,8.18651442024526,14.593582402707625,12.021252891682195,2.9598468811216208,7.526243630319641,10.483389933112505
0.8240000000000001,-10.775976911383339,1.5379947128658955,7.791456429857817,12.25602735828511,10.612916936954207,0.5268744811503439,5.836574646239683,9.121051704657248
0.8280000000000001,-9.552165393474013,2.080266004168891,7.997310557657386,10.14821818186806,10.83681731082288,-0.42475119154460117,5.002181690107022,8.632291378678303
0.8320000000000001,-6.629673673798777,4.183757068540444,9.05619875416562,9.107379686712306,12.994470016947332,0.1519349121685991,5.596501589821514,8.959198811969316
0.836,-2.6378574532155312,7.158716045971289,10.705296537170653,9.317554994353827,16.31793398331581,1.4808927736556825,7.412229522379334,9.679347357688016
0.84,1.3130023248123734,9.860381478388035,12.305911544957013,10.245737180636297,19.445793182537443,2.4582392154092076,9.698946777095102,10.297541728422345
0.844,4.140313642335627,11.259766575092613,13.129166143309163,10.900976059174923,21.12799369041295,2.263138240344233,11.628958468246765,10.509090349933444
0.848,5.253681759714198,10.964164686703498,12.654937837035988,10.321472587178278,20.78301641283167,0.743296604015768,12.704304039190504,10.292753878121061
0.852,4.774881262215615,9.409180852212899,10.75226883687543,8.07216456322493,18.654917076363347,-1.5843244088001711,12.900947129670385,9.81899869304749
0.856,3.4364842688667636,7.618180102135625,7.675861552812648,4.501609315605037,15.541845261882912,-3.861050062426443,12.51972494920318,9.260168736539526
0.86,2.2376021667622013,6.674445288430036,3.937182652350259,0.6274358222775618,12.321851998795381,-5.303341563899721,11.904870241601941,8.660971508333148
0.864,1.9952565965902522,7.1545189223318175,0.11360570776875534,-2.33865585950349,9.535367087933707,-5.488966533275402,11.21968630883913,7.9499327043074
0.868,3.0018382254546054,8.826667460304122,-3.310347074833743,-3.595952677232617,7.240587952672314,-4.427907682372506,10.40368987099447,7.061197315824586
0.872,4.9201522469986685,10.754524762652238,-6.036122266433608,-3.1802260382063423,5.161265753657119,-2.475392865268077,9.284699309235407,6.055411126962895
0.876,6.937476541308911,11.738039028901142,-7.975851996884273,-1.9789646545004302,2.986963856531702,-0.20134977163684198,7.734023304783818,5.1321356008465955
0.88,8.11935867331394,10.888383009455822,-9.198937604669482,-1.2856612548966382,0.657173308408801,1.7254461573729714,5.781077352030422,4.528659306527686
0.884,7.809955592190136,8.049353670532525,-9.858165382627334,-2.114263036929515,-1.5410707454381338,2.6521937639588486,3.6358663494759185,4.3708142628661335
0.888,5.953132131165262,3.9165518643539485,-10.07559167978107,-4.599887051779774,-3.0544817650826985,2.1080366908372525,1.6527171154644407,4.595960554762655
0.892,3.166185562991359,-0.21222215639005526,-9.844690498881477,-7.83088562786952,-3.2771024378147047,0.012564503082330702,0.26586532464375523,5.0062485845279525
0.896,0.5049708496823087,-2.9429022686379653,-9.006756538812738,-10.241557906102344,-1.7983184259973655,-3.1692980390562298,-0.09228654213791287,5.425045247644562
0.9,-0.9785064208491576,-3.3223596325028666,-7.331892009882608,-10.383825162439962,1.4160076055579793,-6.4604225035872105,0.8724432214939384,5.835739842141493
0.904,-0.7091396217034003,-1.2112364735138499,-4.698156778269748,-7.7038637149298665,5.942852109431669,-8.66936786979852,3.167944120061634,6.401282169247395
0.908,1.1357200795750373,2.661004699129819,-1.270379937504572,-2.8983224099383733,10.960745615991868,-8.87446359767705,6.406300724692528,7.329780136689465
0.912,3.6895121128650317,6.9801228597077625,2.4462951902484065,2.3565187313345177,15.457457635488367,-6.8693290406394,9.820508878642613,8.671730149908058
0.916,5.768329940156718,10.343233305101137,5.733687732508997,6.159051530542456,18.519583209123653,-3.324233076635892,12.47765971992601,10.179425616393587
0.92,6.389094271067677,11.777755169566603,7.940453980916914,7.247677681541404,19.627751525470387,0.4730390920958598,13.634961475274167,11.34500122801245
0.924,5.176548132195421,11.063649852295157,8.769533688568742,5.527931954645965,18.832255572972826,3.1787086611349196,13.075050045372564,11.62174779869224
0.928,2.4956498046951765,8.757130295895536,8.426363668348586,2.0295302278541385,16.739598320288906,3.9949058787901777,11.24141576262673,10.725672654173309
0.932,-0.7564043892405152,5.9085721430822105,7.521063028387857,-1.6602112894302081,14.288034672580068,2.9871881544243024,9.055673299130035,8.84942286929811
0.936,-3.557529915917712,3.602726822501836,6.759032365062808,-4.1521616640436605,12.384245710819187,0.9608732785368375,7.487607938882775,6.660829118719448
0.9400000000000001,-5.134757716092736,2.536154932976501,6.590838545214467,-4.794943105272523,11.561380420766625,-1.0087483361226077,7.103147452453641,5.061883934310458
0.9440000000000001,-5.167818402139005,2.779685809359421,6.989453668304236,-3.790868782453117,11.787861852695585,-2.1241814203722242,7.828927919765874,4.82134297241123
0.9480000000000001,-3.7912877828771343,3.8126224240386364,7.477256150900871,-1.9137264223913917,12.515743612741062,-2.1952655714776483,9.049752837155552,6.24801069607804
0.9520000000000001,-1.4374340778324495,4.802105453219724,7.384457998531957,-0.04953993192384587,12.940830496107935,-1.6022044969222407,9.96359137089371,9.047133516626218
0.9560000000000001,1.3451911627007576,4.982017026768517,6.191847760799305,1.1677552827102318,12.348241929604455,-0.9716314020802201,9.991390455327746,12.422103712450394
0.96,4.002815105687773,3.9670796453979165,3.7870878485864523,1.471186574186504,10.395553637935109,-0.793147123088147,9.0062782444395,15.373268154785478
0.964,6.023339764986986,1.8816563675734415,0.5222418345747428,0.8715646062375981,7.227851485772135,-1.1856265578701368,7.28221797086735,17.072620362150246
0.968,6.990269092119888,-0.7163366916572613,-2.9296882771934634,-0.47630467873295856,3.4096574125710504,-1.9181953452605285,5.245400946966583,17.164921527918523
0.972,6.683472107597481,-3.0629287985595965,-5.823421381298431,-2.3237346999956117,-0.2764013848875493,-2.623558698769557,3.20898826206394,15.878620515278499
0.976,5.208388143620596,-4.461294781706783,-7.572966465266745,-4.281502858930253,-3.065728532208823,-3.028067884386928,1.2760209785826646,13.925559553744051
0.98,3.059866993501828,-4.504371803047093,-7.8846506436646,-5.789103674689159,-4.404600845613004,-3.0763093261643917,-0.5679727817923776,12.220919454679006
0.984,1.0229053135315098,-3.1951825278260912,-6.7887959205886546,-6.233054951719851,-4.073986204547737,-2.895133744726536,-2.2789804605758945,11.53327154714907
0.988,-0.09496126176429698,-0.9319133303206399,-4.597048668493699,-5.216261159151372,-2.2288796920270215,-2.6753709587133017,-3.6642464879018917,12.18877857753796
0.992,0.20156424933645667,1.617178403989783,-1.8264026285878572,-2.846166525155013,0.641082741072978,-2.5700488625980142,-4.462923627820146,13.937625461003336
0.996,1.8777937342211999,3.716953170495799,0.9008154897295526,0.16622883340642147,3.8334645920111825,-2.665956267141155,-4.53505671886569,16.053604299823974
1.0,4.396483077897983,4.7947653754376915,2.997535844208983,2.7382778809758292,6.629967614126144,-3.004328985240136,-4.001657188826357,17.64269599905674
1.004,6.979049654308028,4.61067399097783,4.05542213630406,3.8967739418385463,8.497714308886316,-3.596275225718273,-3.2316659041571256,18.03427388360251
1.008,8.959502000391694,3.3276632781041826,3.9701471448344137,3.2717692834362424,9.242229895070295,-4.391668960104198,-2.633363396400455,17.091537473354038
1.012,10.041373823198455,1.4473671364319216,2.9838215861577737,1.3242677203675157,9.039500185709016,-5.217066932716989,-2.3856343467605257,15.301952966033696
1.016,10.32287919510759,-0.3839272525437991,1.5989797031056696,-0.8615902068063406,8.310696939828517,-5.765531891618139,-2.307556235780794,13.584310755973775
1.02,10.111044764279995,-1.6179997786921376,0.3943243465099613,-2.1231858003300204,7.507174553479672,-5.6860960788872035,-1.9582818794433479,12.88573337421144
1.024,9.662889748326506,-2.014134020696929,-0.21150798178553032,-1.8234844821056413,6.883107997198067,-4.744245428381873,-0.931576538576337,13.749733732584446
1.028,9.042032747267967,-1.7051540593124628,-0.12089380884822276,-0.16619246776895125,6.386692465232272,-2.9651678268237447,0.8474406290163188,16.06777137751601
1.032,8.17633773621219,-1.1002012730286879,0.42306078278022596,1.9495801865346039,5.720456977462163,-0.6645849198521319,3.0202566241771365,19.132624734028468
1.036,7.040499836558865,-0.6812824276494212,0.9575086797885888,3.4379089506828677,4.533624588102839,1.6540371422779572,4.961608276622428,21.951082606293767
1.04,5.818208251117085,-0.7780280446118013,1.008675599969365,3.61963385695708,2.6607908274063448,3.4972293646396793,6.111541932864839,23.664677879837654
1.044,4.899855932550963,-1.4471776813277302,0.28172735339330757,2.55881729034445,0.2659255276607837,4.582131301665868,6.272567885253011,23.872101628177006
1.048,4.662005560468742,-2.5248544118062455,-1.2524755219274084,0.9483900488935433,-2.200401390518209,4.9056561230559055,5.657839318981587,22.678125674137846
1.052,5.172707670062664,-3.7888294977637997,-3.376774983415771,-0.34780518013030814,-4.197727782572429,4.675328975424691,4.672606295245259,20.495500846057666
1.056,6.035169292143564,-5.123094567991757,-5.718462692221465,-0.8095485615417601,-5.337952151994614,4.162673047192584,3.581089241917198,17.748589502650702
1.06,6.508115433250168,-6.5768746879857645,-7.860488942041229,-0.5282737272514169,-5.54011481652833,3.558424297108104,2.281261289656868,14.658277908582932
1.064,5.877283647515242,-8.281303081468877,-9.434779583349155,-0.07654538545102696,-5.022102974143081,2.926745211843354,0.37813887942138535,11.247558325231012
1.068,3.881597826944926,-10.269247111748882,-10.185768506416707,-0.0835860519068774,-4.135158787760474,2.2584230335210123,-2.479867611393729,7.537883388297132
1.072,0.9360862378548518,-12.326596202408837,-10.01961343504695,-0.7930364584940435,-3.147999060061011,1.5541689374867929,-6.207055176374524,3.775956456959193
1.076,-2.020207284181879,-14.00152350579765,-9.053573646322775,-1.8900798602917348,-2.1265668900314267,0.8646359969952755,-10.10530295257513,0.49654852374396796
1.08,-3.9891516998361567,-14.775621079801567,-7.614644514808106,-2.6990921214355694,-0.9516007379620532,0.25902773421512393,-13.058474017314893,-1.6635489764203157
1.084,-4.444993230644741,-14.333065954745052,-6.183031252636056,-2.640800938513621,0.5168126288458552,-0.2482438909719349,-14.05443006381438,-2.3276697282637997
1.088,-3.6300347439514553,-12.762560365686568,-5.253858571470801,-1.65042614780441,2.2481519260841196,-0.7422533836588627,-12.737226214701877,-1.6779864548016121
1.092,-2.449826039415939,-10.578607988930344,-5.163780606877253,-0.30050870148988906,3.937879646555757,-1.3835439970662264,-9.68570326608824,-0.4989004144781575
1.096,-2.0056816403264293,-8.524334254849236,-5.9394598782432695,0.47524705792193345,5.084294144858177,-2.3175398511029925,-6.217123510807596,0.12438676284136818
1.1,-3.0284573466140046,-7.25393956600783,-7.254904594358095,-0.09295289254032468,5.214237686281422,-3.583256280828209,-3.794109650710652,-0.6827466555650972
1.104,-5.527302159110377,-7.062500514692147,-8.547659458871522,-2.1433445598613616,4.125378680604399,-5.077108521280934,-3.324107721256496,-3.1319926124619997
1.108,-8.830891600548057,-7.795941718250106,-9.255769245776492,-5.0423447272073645,2.0121536667634246,-6.585681529384601,-4.713174189469555,-6.625809973520518
1.112,-11.990058771825261,-8.997779814088062,-9.096077695600115,-7.682995985087473,-0.626086223054017,-7.865957649621123,-6.944353267704628,-10.04677272716981
1.116,-14.288979505061434,-10.19121172869609,-8.24652509156931,-9.05942916125332,-3.2506114687387253,-8.71717833403818,-8.639192469609497,-12.331192079753237
1.12,-15.53865622252988,-11.109666770419608,-7.309673129155726,-8.77772533859843,-5.556094507484886,-9.004534111680186,-8.801165443846457,-13.015835907902328
1.124,-16.009699215736873,-11.76635585228496,-7.078835043414301,-7.22597772709878,-7.6067218221037365,-8.64572093091283,-7.3579231978728785,-12.45373492633098
1.1280000000000001,-16.081451222521082,-12.33251431084227,-8.172837382998978,-5.309100825483711,-9.725212881454581,-7.5999683259960875,-5.1978298773910865,-11.571034818843145
1.1320000000000001,-15.870724123245509,-12.930230598373782,-10.711582509932214,-3.923361397928147,-12.199666264828238,-5.904930683827843,-3.684347722723942,-11.315436780256277
1.1360000000000001,-15.105408500024168,-13.481153987366724,-14.192762109565365,-3.4853367477976462,-14.982594254254991,-3.7485815238069335,-3.914926776161792,-12.11548735327051
1.1400000000000001,-13.350074346261408,-13.709805025147489,-17.642635918230553,-3.792099188743123,-17.577203426188817,-1.5263019529547819,-6.129229139163272,-13.675545903660804
1.1440000000000001,-10.44413658790927,-13.303204209171781,-20.004095792040744,-4.28915897520983,-19.217322724385212,0.19098893540285644,-9.593301393321326,-15.219926734091132
1.1480000000000001,-6.852656850896892,-12.113703943208293,-20.587912796069304,-4.55623395648945,-19.259864905788618,0.8184806164017573,-13.010855059862479,-16.030096266488727
1.1520000000000001,-3.64845864648305,-10.265014548604086,-19.373665196986167,-4.677106498082139,-17.570568439766248,0.002709173908442608,-15.22044892453323,-15.934397321781944
1.156,-2.0570356615930905,-8.075629586031482,-16.985603701293257,-5.2191494986873295,-14.649163372768271,-2.159250683555001,-15.754927981414767,-15.419769251733214
1.16,-2.7932359901878954,-5.85219152144964,-14.342575188311912,-6.811863444025221,-11.386946091464779,-5.0492875405607265,-14.961762917480883,-15.29180660289694
1.164,-5.5902686351296325,-3.714493293914529,-12.171568939832468,-9.601990265271525,-8.586266632856677,-7.677664075190478,-13.639178751167492,-16.082202041618075
1.168,-9.231435909049196,-1.5806475129043065,-10.651415492140586,-12.962272448701697,-6.525280862490945,-9.032499182294487,-12.436632899300093,-17.592037725688442
1.172,-12.126473148175592,0.6439740972682557,-9.408866415862576,-15.705642974518923,-4.863916051644992,-8.49870292007381,-11.443757738739805,-18.90449088075229
1.176,-13.154361886401603,2.7899191184087613,-7.881712125619288,-16.744947978278105,-2.983233417066458,-6.157748615703895,-10.246598197663843,-18.917722265529846
1.18,-12.297881629011954,4.26522046586706,-5.84539239831156,-15.817569229428045,-0.5771677756051758,-2.840792747845626,-8.434042465210041,-17.123735107270022
1.184,-10.691562714528118,4.165359959466969,-3.7857948697042048,-13.819955204043254,1.8729048838422386,0.11951761299224017,-6.213373246130686,-14.14815133690172
1.188,-10.011337865329551,1.6708644687228116,-2.8324483984952167,-12.478040206110563,3.0938713928931065,1.3589572961509475,-4.670967826370543,-11.671298176898745
1.192,-11.524899501770506,-3.4560262255427006,-4.224598880430676,-13.461901553531789,1.5775168511204356,-0.003946912976061867,-5.409963681296176,-11.683271643210446
1.196,-15.319053028481449,-10.545745812338737,-8.550385393622946,-17.400161159572235,-3.5398926706775455,-4.0086260745820255,-9.652436327841315,-15.411651899293702
1.2,-20.136145587845476,-18.06346226822825,-15.16552741957912,-23.34558932435266,-11.738226243023746,-9.789043245579705,-17.29024508878865,-22.504861025725404
1.204,-23.94542763274194,-24.076491938707022,-22.18954652757202,-29.04799781583006,-20.997078941985365,-15.831146090785296,-26.480746702027318,-30.950231462638385
1.208,-24.948762527664712,-26.95721138033514,-27.165629206351696,-31.93590731073982,-28.458373694779766,-20.45797259133542,-34.147142639328194,-37.83262832949913
1.212,-22.464301673161117,-25.993372159715364,-28.100185997271637,-30.305857293981717,-31.591339575930306,-22.356666381167997,-37.23267667826076,-40.582830030466994
1.216,-17.236558641681768,-21.62843362753847,-24.377424326565688,-24.110305218591748,-29.303781530312335,-20.953753294651506,-34.11150258912312,-38.09919106683492
1.22,-11.018730843102276,-15.214603455667202,-17.064531899304257,-14.937083469256322,-22.418204248349866,-16.531593767907907,-25.422556796614117,-31.18599130499433
1.224,-5.680502073061234,-8.425255396103239,-8.433579159323472,-5.227508651874814,-13.270974560502054,-10.072029491549984,-13.847679928963771,-22.102118486402105
1.228,-2.3224450134075596,-2.6132356444504694,-0.919928269079719,2.8340224158564524,-4.627753028211373,-2.907898628140174,-2.8997317876974193,-13.470034547000523
1.232,-0.8664033342820403,1.5919334322179566,3.9550493516126153,8.174557548623852,1.5308707256349408,3.6740553581676068,4.668341019140826,-7.118167227634331
1.236,-0.29901873698963755,4.304751703259171,6.145785531333331,11.020044503284225,4.736460113198518,8.742569106674637,8.00987014274142,-3.4434071221376144
1.24,0.6242081088757914,6.090318706117614,6.874656529599179,12.414537434981867,5.9452826081260355,11.874395765695226,8.318284973660411,-1.5612585259023035
1.244,2.623638132592987,7.545488395498978,7.803231988589687,13.415330790305234,6.74256168580996,13.150145516474367,7.935443459484304,-0.07658311016348307
1.248,5.503989673002707,8.975489043603375,10.046583659670432,14.443352571158357,8.31222898190481,13.025862883736409,8.951575273162234,1.9922713004652906
1.252,8.314532568362665,10.309366368782321,13.565209355958359,15.12571235404721,10.74534593197086,12.150713628023368,12.083093214476321,4.659052810205139
1.256,9.919643009711763,11.232459309130718,17.23129030189284,14.650214380465513,13.031819075551084,11.167656310301027,16.40334283814809,7.049525002034898
1.26,9.64860539039546,11.434705539747483,19.513240391958334,12.366958118775074,13.704718745636455,10.533517371166454,20.010201112992945,8.006305731791144
1.264,7.666515213268212,10.811555147291983,19.357687956277914,8.250546824740013,11.729136427272351,10.403166359821626,21.1937887726981,6.842936396074947
1.268,4.881860899519779,9.517508845332486,16.77213761452913,2.9800935546763867,7.133854426564994,10.615225870276845,19.397972369426498,3.804814625911604
1.272,2.472411365039079,7.876364259014736,12.812728114127822,-2.363811431972863,1.0595607435170677,10.795995184986168,15.461907425724348,-0.013115512403601315
1.276,1.2911049081903911,6.216268320836207,9.008485675254633,-6.774055136717834,-4.779438062478221,10.555878718052554,11.065768582134297,-3.220508872938808
1.28,1.4663932091198149,4.736814130784296,6.571201139749519,-9.682672368705425,-8.890388609541333,9.698833340175042,7.764808372552579,-4.835296406648013
1.284,2.4015794917322637,3.4608331655508664,5.817450307722993,-11.045462416970622,-10.631322059200556,8.35614547989644,6.18743780846853,-4.745753945681827
1.288,3.1516176556824576,2.279019813184277,6.109054503996049,-11.152472743833641,-10.36085479488247,6.969011593351752,5.854575332532477,-3.6961601301190967
1.292,2.963875443548204,1.0493210366048515,6.311585225546878,-10.326330783304002,-9.090283685990016,6.1088624234307645,5.666106808319455,-2.828236658611786
1.296,1.7133383007721932,-0.3084150644936017,5.496719905514965,-8.69755538818481,-7.869291345875354,6.219854298084101,4.713900786182421,-3.0414870891399914
1.3,0.0228314406977006,-1.7526517560181674,3.497507944755398,-6.1627665924552275,-7.242256811549851,7.396120084980794,2.9143186604842413,-4.525106476110523
1.304,-0.9998037325449332,-3.1217048492671893,1.0053036669155517,-2.5331361388325604,-7.05987445012488,9.314550958852124,1.069105425246562,-6.695359000210374
1.308,-0.28524648804705066,-4.191023359853716,-0.8186169654895821,2.2281471926471568,-6.6921771388633715,11.36969994480205,0.3492041773406527,-8.543441908442219
1.312,2.6721296641917434,-4.760240155583233,-1.0009483037247264,7.8123969622629374,-5.484538019096362,12.934290543738825,1.5340957561675168,-9.189224741137878
1.316,7.522962794454543,-4.743831347430387,0.6691496738480964,13.500956016823693,-3.1951717580132026,13.606954861359554,4.45720399529273,-8.340393500500795
1.32,13.163688439834004,-4.208689188840253,3.4793867553944438,18.286351947463118,-0.16677173488733388,13.331828395352204,7.991084582428812,-6.422818374087001
1.324,18.156602382974597,-3.366840051617146,6.113601177599776,21.122730067301745,2.8186419197099895,12.347313932652469,10.575752412209113,-4.336226970107418
1.328,21.253562808974493,-2.5275595002058253,7.27689646332874,21.223215170135518,4.89705549595601,11.017196562816025,10.990813821319534,-2.976868053810904
1.332,21.80263450858638,-2.0171804465198875,6.313398258105735,18.32217153777492,5.503349815089678,9.657114951041876,8.950351335992309,-2.777309466083352
1.336,19.87880992209375,-2.095988359077637,3.5122553911496652,12.814814959801879,4.593303280724285,8.445343807703466,5.215249536266128,-3.4978359523802283
1.34,16.106151906834384,-2.8943479899608064,-0.041636281172031886,5.702888842495668,2.6253688576962304,7.434766303003926,1.1917447471550986,-4.371852677785682
1.344,11.313433391919716,-4.3817773279970424,-2.9874106728775587,-1.6614321845154336,0.3312911423963669,6.6197884497269115,-1.7545538770173152,-4.50636175980253
1.348,6.24475649436863,-6.358592552852315,-4.305199318449013,-7.961904020252405,-1.5963473252359108,5.992136993470922,-2.8821287394057435,-3.3276510854047956
1.352,1.456229252358753,-8.473807528756879,-3.7420082969310897,-12.305160793377581,-2.758297617747303,5.545698395206273,-2.2817989072191267,-0.855833809438991
1.356,-2.6093461927466706,-10.272276124100244,-1.8563022295456904,-14.443906624859665,-3.1456283362513204,5.233491267970749,-0.67953832454441,2.314600783471178
1.36,-5.4968069601882235,-11.269730462667212,0.3165157711928259,-14.73806326439626,-3.057681764473273,4.938770851904337,1.015941805950206,5.293074429305307
1.364,-6.715513897734127,-11.072633830510313,1.7694347799542811,-13.876898046813949,-2.909284867277165,4.513252845008537,2.1384250467490347,7.280068542415393
1.368,-5.884023281399095,-9.512161500705588,1.9608373188812038,-12.482400113425683,-3.013220014442595,3.8752147212890122,2.457965698946282,7.871113668917133
1.372,-2.9811163690683316,-6.757373736602858,0.9782654091204677,-10.800055164087098,-3.435580130037124,3.1095234880231146,2.09746362491569,7.137895953241241
1.3760000000000001,1.4658058820486985,-3.350875779685339,-0.6194162236770353,-8.63985411590329,-3.984869139352668,2.480583640461191,1.2888267376638396,5.475925976873441
1.3800000000000001,6.428802523601007,-0.10293580314555584,-2.129709551299129,-5.578765414757072,-4.311386729259539,2.3090845966507914,0.16597591284516966,3.325702777728111
1.3840000000000001,10.706997235060953,2.146766752174699,-3.031406312650688,-1.324920465469404,-4.0748535676057145,2.77384116543908,-1.2743434764670383,0.9234770757375372
1.3880000000000001,13.379917599666442,2.8232606332858268,-3.149260792327368,3.9446134331483336,-3.09498859177711,3.7343274017785006,-3.0506749747892172,-1.786460482449911
1.3920000000000001,14.151826546310986,1.8515486443211557,-2.6167615505528374,9.464944295279565,-1.423214549158729,4.699166835989672,-5.057641657253043,-5.041140548775729
1.3960000000000001,13.421506480509379,-0.265446607294507,-1.702083500504159,14.074006267035656,0.7051943596534329,5.001600424528078,-7.034949496639456,-9.012584086148308
1.4000000000000001,12.024843868538483,-2.5970822112249152,-0.6343705741592203,16.631307444858976,3.002134508621566,4.106556968132281,-8.682125406519845,-13.580184553376967
1.4040000000000001,10.799443091180365,-4.124403797735795,0.4634011027210363,16.476137243687845,5.251183945641969,1.9127164109249861,-9.850582107934315,-18.24083730334314
1.408,10.205555911888041,-4.136668405642922,1.524824542625538,13.705971266912456,7.35062830372226,-1.1154768800261081,-10.662162526190514,-22.22027720745973
1.412,10.175319503857281,-2.5373474011321377,2.4302684584690724,9.124612938190694,9.232119035525102,-4.083917336849481,-11.454979387353887,-24.759708196332213
1.416,10.250995493115624,0.0818540093696356,2.9512245992382304,3.8892374799688696,10.714911280614615,-6.0281721839201055,-12.564412543040817,-25.445027170912
1.42,9.889439064234466,2.6510184262151597,2.8221004976448967,-0.9771996332801791,11.420810784988134,-6.3504654434509575,-14.06161207185869,-24.420323337183618
1.424,8.741865267837966,4.027553287140108,1.898289055288842,-4.9827975757470995,10.837554420016204,-5.11553254698083,-15.63368152104158,-22.36961525370225
1.428,6.771445609073453,3.443533815423507,0.3122713993288926,-8.281000599774416,8.555190450747432,-3.06172927800435,-16.698186109035305,-20.253701461553646
1.432,4.185838511694783,0.8170608155287482,-1.483228411338132,-11.4497610901617,4.579894200668605,-1.2934629468909407,-16.696420719687012,-18.900720035626364
1.436,1.2751672007771049,-3.2131198609749845,-2.8482874873570836,-15.057647272409667,-0.47110643822088605,-0.7905414366323384,-15.407111629549036,-18.636058538328143
1.44,-1.7035105551194647,-7.52872804422077,-3.2050987204911507,-19.22679549201166,-5.4400120227019215,-1.9659771700753481,-13.080382001608086,-19.132544398429673
1.444,-4.539357589962492,-10.965737666272616,-2.299195078437151,-23.43572865813985,-9.013441335735479,-4.468048566064681,-10.322400028911943,-19.572674326835113
1.448,-7.002744386953054,-12.754521039594692,-0.33687588665543444,-26.671471014184135,-10.278985815055421,-7.338101224289858,-7.810058868024498,-19.068461525028397
1.452,-8.78148949644492,-12.771306481390639,2.0920348825738984,-27.85494277707403,-9.16651617089883,-9.451811782430013,-5.995717032648827,-17.134325610270025
1.456,-9.506735645941262,-11.503507724128212,4.27362194797297,-26.330085357734788,-6.523729088028631,-10.019916909150197,-4.974193448197184,-13.982334527692728
1.46,-8.870107372133134,-9.735289614916837,5.69643147284296,-22.158571932091945,-3.7328708375334827,-8.922053401383891,-4.5742043057416595,-10.482643213801566
1.464,-6.766408639852671,-8.114573087796089,6.285325677436049,-16.07447344188222,-2.0314483755237234,-6.715763551910641,-4.57742579265323,-7.787657166089048
1.468,-3.3696373449383827,-6.817058023994832,6.427066855449084,-9.13250390054236,-1.8772541874132003,-4.321610255723499,-4.877888688972234,-6.794167998627017
1.472,0.8962460431594081,-5.48039411760692,6.776033597555397,-2.257735976822005,-2.710419644886315,-2.5516054212530435,-5.474293441789996,-7.7089434626268485
1.476,5.459179560883058,-3.4591549165488686,7.929083736173197,4.044528496968269,-3.2726389324107004,-1.7291579686752812,-6.3155025605992705,-9.944841889631789
1.48,9.714859337391317,-0.26150410294030735,10.138308154467268,9.679343485517165,-2.3189483807464057,-1.5973178509048012,-7.123403229232281,-12.403946431426448
1.484,13.116627207049532,4.0576083719734015,13.190655008795147,14.688464632066825,0.6542929545130391,-1.534895176831924,-7.369219898544543,-13.990038328234732
1.488,15.241092362801282,8.782407834733021,16.50853128906965,18.926068281476546,5.078691565783629,-0.9277337631319824,-6.463683166932242,-14.07715914810069
1.492,15.85863031100962,12.788322842439811,19.40749974856135,21.92643838987169,9.564240244801113,0.5113037149167212,-4.083119061349862,-12.708095412544935
1.496,15.010926750135695,15.042752080362334,21.37223745981646,23.0668525781075,12.595178679324817,2.641899597241718,-0.4416269631819887,-10.444570578931234
1.5,13.068784656590651,15.119083269224575,22.22659748942715,21.94568257265746,13.301717509448281,5.042216794405249,3.6811236760804604,-7.997414281144302
1.504,10.691747221260812,13.42644487214784,22.11701417286713,18.721265968495572,11.869135470172296,7.285083281141851,7.20902101806314,-5.857979019858249
1.508,8.633185827182388,11.010729410438216,21.34399491869408,14.169132051438282,9.367816963892437,9.150595308397897,9.222302455549652,-4.1348190205062565
1.512,7.447922675186419,9.028081611981179,20.15681520400358,9.391636422045849,7.124908141653577,10.653047051018802,9.359043258480597,-2.6537399812132207
1.516,7.22379649288996,8.157880972323255,18.631067320677175,5.322523528924648,6.006631522363023,11.882683687206736,7.960772454676771,-1.2064691851428506
1.52,7.503839617245831,8.26741089598545,16.694257260506674,2.322375001422188,6.019143622082083,12.796614999868325,5.893077320453813,0.2312810636485665
1.524,7.4825730069587735,8.515407122511533,14.264788992059948,0.10673623365437379,6.424820421130789,13.133230803210608,4.150780864081753,1.4609290829466772
1.528,6.432663910347401,7.856662985086587,11.41596340401884,-1.930796645789087,6.275682311813398,12.53324792798594,3.4636994867214526,2.220195333055017
1.532,4.13859513598436,5.670470589786419,8.448059783138888,-4.207692016996589,5.010373820835412,10.799405490219215,4.088451607589377,2.4030304903117212
1.536,1.0775198981791618,2.166831955226371,5.8177328162219055,-6.585355962335598,2.7547457496993957,8.116803712648107,5.838332987566901,2.1690948808172834
1.54,-1.7650450141791225,-1.6431568058178527,3.9764122192036666,-8.37100590022601,0.19245031217633368,5.062977680590848,8.276470356973732,1.8488259986643243
1.544,-3.3759837179404713,-4.406253872381058,3.194823655507207,-8.700611072958054,-1.8825846837917197,2.3800766198255587,10.921716646866116,1.7132272458638909
1.548,-3.228862713851413,-5.07050080289082,3.4706995077985994,-7.064560278227873,-3.023096907458239,0.6300088664647774,13.360421927052812,1.7618397664627992
1.552,-1.5504519949718087,-3.379119255763726,4.562398198429946,-3.6541743957313884,-3.315957329035882,-0.06149068873128272,15.250674290473398,1.6801361522357183
1.556,0.8182553843416827,0.02795226755006297,6.098923488323635,0.6759772418809007,-3.2178921189515677,-0.0124501779282582,16.2885604192561,1.0084810964217468
1.56,2.890733575944978,3.9469346275327553,7.706742990372732,4.804259572705632,-3.1769710112785106,0.25725338206393644,16.218057995713025,-0.579482084056508
1.564,4.067067729121845,7.176900044081776,9.089866712893127,7.840089333541982,-3.3228916178768486,0.36029577790395706,14.910864914945705,-3.0598339065727487
1.568,4.426461885725075,9.024556563948863,10.049980721431893,9.431282197610926,-3.429102835656522,0.25751488819150836,12.479844439192675,-6.04027398112521
1.572,4.607677296036854,9.493764173716045,10.474904040422189,9.728986457961582,-3.151660934971005,0.2123104793645325,9.326486110920087,-8.94910910805811
1.576,5.385667732301954,9.110845329452786,10.347947067248242,9.09761680567317,-2.364027499765143,0.5302008694307005,6.049986044479738,-11.308685367050202
1.58,7.178828742475162,8.515556133610517,9.782691978805815,7.800089655087504,-1.3470345744826773,1.2564467301708646,3.2270565502949466,-12.937615394119348
1.584,9.765590440205415,8.053977400482836,9.031165575270279,5.873316825040092,-0.7039902435280965,2.0515809720309335,1.172768820393685,-13.968126692281658
1.588,12.377106053017997,7.603840010748172,8.414553870776217,3.2564199069165625,-1.0569821860935917,2.3574961203121347,-0.19470116946831695,-14.689634740629117
1.592,14.08591468886334,6.700071908331665,8.172952118015928,0.02166366344135895,-2.720968898321189,1.7496800713415723,-1.2964557756458817,-15.33210948728265
1.596,14.265128478104998,4.864121255031478,8.294729293346336,-3.5102107469037946,-5.563376836214957,0.2454517090900481,-2.6469447292947734,-15.929762911880061
1.6,12.86333245213791,1.9460234207731446,8.444508992103692,-6.885631132257913,-9.117074257650529,-1.6442881022212532,-4.534756422017381,-16.34014683859732
1.604,10.355408372921374,-1.7197015515139356,8.062835316398377,-9.809683097422749,-12.859463271821369,-3.176333813000383,-6.792520969444013,-16.366256836990942
1.608,7.429089249289973,-5.425666155830186,6.628485688715955,-12.384323206068075,-16.451694247632986,-3.798778800679429,-8.788708339605364,-15.885636717795933
1.612,4.609629817572568,-8.400625372207287,3.960978356501073,-15.07708286515117,-19.791884895013936,-3.481508864020725,-9.683970533744287,-14.903975037379496
1.616,2.054140118923897,-10.137581610262714,0.3947652655097045,-18.371433941258147,-22.865909489828482,-2.733088221091748,-8.838348910481727,-13.499328300931666
1.62,-0.3693369482189155,-10.556757273425319,-3.2758743662743655,-22.275500249452307,-25.50788719252887,-2.277761723358708,-6.175308215613768,-11.725546227031373
1.624,-2.796262104977359,-9.955956424171745,-6.102071729728777,-26.023947692225192,-27.280558311487766,-2.5850640406642924,-2.3279922061883553,-9.57462620021397
1.6280000000000001,-5.065610193207249,-8.795959660003064,-7.394319688148244,-28.22510666020753,-27.5817400107062,-3.5350161442656827,1.521722443490944,-7.042820944236155
1.6320000000000001,-6.611304526584718,-7.451785338696936,-7.021070344936561,-27.44341797121342,-25.925070177005182,-4.440432212839369,4.080547199331704,-4.259955254532542
1.6360000000000001,-6.645720825277749,-6.086002756308517,-5.444032636240081,-22.94452744350565,-22.241926213178886,-4.4377420823366265,4.4583986002799065,-1.5902492463119415
1.6400000000000001,-4.564943420837153,-4.691544499415613,-3.4607735087938636,-15.188880741428875,-17.0031705561305,-3.0263774646882666,2.5448874290668755,0.39945878742037166
1.6440000000000001,-0.36382213398246677,-3.243247483691448,-1.7886210363831196,-5.779629125256179,-11.077725541425025,-0.43115005736763123,-0.9276694395375671,1.1390774525643792
1.6480000000000001,5.182364593096281,-1.8227762516289658,-0.71346464193266,3.1427912053623004,-5.399094152804537,2.4292263520874258,-4.680099006156524,0.331563877136432
1.6520000000000001,10.69201208008235,-0.6242771837914916,0.01335427025151148,9.760088399725646,-0.6239433492219177,4.370894390194735,-7.409797259400875,-1.8350396482819633
1.6560000000000001,14.665224127007605,0.1715381366211659,0.9937207437023972,13.257626197653735,3.0411936050668373,4.531816908511246,-8.308022496434205,-4.673620155133904
1.6600000000000001,16.078057513244858,0.5667397835732118,2.8248134557734375,14.005495070303368,5.778272872354137,2.806365702617768,-7.327230827580934,-7.208632276087883
1.6640000000000001,14.789401055644703,0.8052448676571657,5.737432512238229,13.17251558629141,7.9027515243979,-0.11254993977127015,-5.103587272324148,-8.54821788549998
1.668,11.561389422433422,1.2447078187433362,9.410478769595102,12.022388454330212,9.575974045028488,-3.092819284127472,-2.5930635623662965,-8.258095728237095
1.672,7.660923438184909,2.076468110035421,13.03058499859344,11.269868090326781,10.641149856412085,-5.115246774257685,-0.6289369073365378,-6.561137622127717
1.676,4.247090767075861,3.0680766762816347,15.558965304288904,10.81912952339917,10.658888385360115,-5.720932578784414,0.38061414133699145,-4.258078504466539
1.68,1.8502265509814606,3.5255585290506133,16.085071890848667,9.960444011745494,9.10712194233929,-5.138832152297255,0.48156572393418173,-2.4072051301445754
1.684,0.2223516022640979,2.568210456884117,14.137752500615534,7.867080345293289,5.643990436800777,-4.061106298089726,-0.0284021506922727,-1.8876674837520113
1.688,-1.3822472377578379,-0.38721151701611234,9.865239388229384,4.101088097984757,0.31640746201719594,-3.2212513545273396,-0.8556489834791137,-3.014927320798961
1.692,-3.66151335036011,-5.185525951803356,4.033241529406041,-1.1241110027131072,-6.363296075550352,-3.0250819525790575,-1.847709020421462,-5.369264399789245
1.696,-6.773071779218299,-10.817991127047208,-2.1676779187419015,-7.01986215366378,-13.498847991183538,-3.4094011810411757,-2.9449184519053233,-7.914637875324843
1.7,-10.189056843253638,-15.747905777279811,-7.441141377150416,-12.545137816719944,-20.009550696708175,-3.9833269541995833,-4.018956277812322,-9.378778963558943
1.704,-12.981059501378695,-18.548268001935867,-10.743949710376,-16.785861789190676,-24.876566999708302,-4.320496866788744,-4.762317614866333,-8.751727028649839
1.708,-14.35400859022593,-18.534314724389333,-11.580279718357815,-19.206460691419124,-27.363637503901373,-4.2143817507021595,-4.743370376780149,-5.695021681978687
1.712,-14.109552659383553,-16.057381597802305,-10.129973286550921,-19.698268279456897,-27.16408731049887,-3.769633541938674,-3.637780746079443,-0.6921670792125951
1.716,-12.756671171136986,-12.304428274152087,-7.162268378491717,-18.47653087416984,-24.441485129130342,-3.2888717701280257,-1.4962962720892392,5.11733911374904
1.72,-11.20228262184537,-8.702965886417587,-3.7465922313658666,-15.922540557583488,-19.754837650185436,-3.0660818807955366,1.143009921130215,10.352267878384737
1.724,-10.199916550167472,-6.239220035064136,-0.8614385479468183,-12.448161648562746,-13.88734671072325,-3.2110301586944843,3.419938985578483,13.890866625730268
1.728,-9.885720671407398,-5.05247080413028,0.9369466616208229,-8.433542290775222,-7.641154851776264,-3.600906834071793,4.542092322226381,15.251107250518544
1.732,-9.692053137176117,-4.499789654757478,1.652844202315464,-4.222745928951554,-1.6699194359116518,-3.960960461961804,4.193199648323571,14.705704623822385
1.736,-8.717910220757403,-3.6243476963518333,1.7373393274210684,-0.1527863379815244,3.582032737447662,-4.018275575617736,2.7201361838178855,13.085995954263126
1.74,-6.319484842847487,-1.726433223717322,1.8061533938853245,3.4348777521863667,7.8452052528282366,-3.625769909536757,0.9846139176170254,11.393342212993957
1.744,-2.560798181822065,1.2770096447966353,2.3276132458022403,6.219951866120027,10.941308301104982,-2.8028944642028364,-0.05988424069073517,10.393943815028251
1.748,1.7375584979472478,4.858588681909168,3.404700282694648,7.949256069076,12.70275964204211,-1.6980374098275206,0.14371850337192882,10.350762301965005
1.752,5.407066625662992,8.213068550259777,4.749586255482427,8.500800370227807,12.974411869132382,-0.4969684846328164,1.48586554402209,11.003425797040109
1.756,7.56751205026012,10.681389481616861,5.830813144541025,7.9457475445324235,11.708037498791782,0.6719672779727262,3.293847461707628,11.787009637917436
1.76,8.103650112391733,12.01649615815586,6.107676056761193,6.565430120026576,9.082900233898727,1.7753252678958233,4.731072277278145,12.150977058365243
1.764,7.720105459022307,12.389285990902863,5.25778298145724,4.80705767290965,5.567108236520653,2.856990894062619,5.270314473331382,11.833455129743015
1.768,7.531928900174535,12.172384245144713,3.3092157769460755,3.1573025055386097,1.837549356711861,3.972640896390658,4.979376204633809,10.975965188516966
1.772,8.413160792856615,11.67364246543184,0.6319175259868643,1.9479718950697134,-1.440882038997188,5.113394838124805,4.4528250721305085,10.051891889746912
1.776,10.463683862317339,10.977249245421262,-2.197839526055759,1.1654457493914379,-3.8917125152784138,6.158830665408459,4.453157832473153,9.659867210571065
1.78,12.885347651259508,9.948853223828337,-4.609215207490706,0.3647391367776436,-5.617723743138413,6.878596883403588,5.451854265633301,10.262976907190932
1.784,14.343613018820179,8.36779398193903,-6.247654303114359,-1.2037196802921244,-7.163974436040007,7.010890259460211,7.332449450083004,11.98664419886154
1.788,13.607819912771447,6.075361027647887,-7.108752775462563,-4.26682791839994,-9.23116174037932,6.389821566179307,9.423357933814259,14.543970699181955
1.792,10.164455292725506,3.070459381397086,-7.522207104552763,-9.100733707764448,-12.248923845980244,5.079341530350575,10.844843372853575,17.313441633735238
1.796,4.519096453063867,-0.4593997567790211,-7.973681452271194,-15.196196264458194,-16.009707444749438,3.4459041020927543,10.977435462440553,19.551215200184743
1.8,-1.94850656197832,-4.14562770104294,-8.82344719745197,-21.21342780228224,-19.570245714157863,2.099346105573204,9.804839802400238,20.660431185821835
1.804,-7.486716326920941,-7.459296831959364,-10.030166187480063,-25.30852063810744,-21.51180380605183,1.6909795913834387,7.962548862802578,20.42343457241077
1.808,-10.590212625410459,-9.760649253275915,-11.040239333087811,-25.751511371767265,-20.481973573019786,2.6355019200018432,6.461580741013677,19.104308160873188
1.812,-10.48380209574043,-10.425826743971811,-10.955190060169116,-21.611606687456515,-15.803463114889382,4.886693496004227,6.206140192611201,17.348574278603337
1.816,-7.308707451404189,-9.061018874459478,-8.948871936352589,-13.211816020035258,-7.867118989638584,7.889745617587323,7.552352956136019,15.91125632692183
1.82,-1.9820922448006968,-5.737230282339624,-4.75703226960286,-2.127347972311327,1.8928763999183502,10.758925775666285,10.11502150041997,15.313658088401098
1.824,4.182084735190074,-1.0990981352633753,1.0311608851870915,9.312131045080605,11.457650902809291,12.616128030986147,12.918693600484403,15.583977105088707
1.828,9.916492751359328,3.7515658023958167,7.061654334800551,18.804177427438844,18.91765845728878,12.95050966173767,14.804046545492383,16.206410376868007
1.832,14.326629832455183,7.595853673150486,11.684579208062132,24.805075309461245,23.085026945534082,11.805478016107372,14.912652726652595,16.324969639405026
1.836,17.012210801738547,9.532882400119888,13.608268892412525,26.913699671389622,23.756399290905392,9.720791935442321,13.03195549636257,15.135815235583323
1.84,17.981378493660486,9.30553112664893,12.422410511703674,25.76970619898384,21.54052228319415,7.453113931020198,9.647536650010807,12.273383353498502
1.844,17.444054104485986,7.353506430583366,8.726818542190813,22.57861358770606,17.402899827105102,5.637958681501914,5.711633986753441,8.02292471290184
1.848,15.63447351126888,4.5652295226072965,3.8073989129979964,18.533655732160696,12.198545965148696,4.565980438303086,2.2501232577778865,3.24241518319468
1.852,12.757219423792776,1.869475622695063,-0.9500529260812982,14.417206375663227,6.450854499878915,4.187516708385374,0.00783622976996412,-0.960731568196934
1.856,9.036959269536055,-0.1401306701827707,-4.612506393928015,10.513027292938204,0.4439904088221738,4.288946894757828,-0.7180871029886475,-3.6461481474761968
1.86,4.809512907626413,-1.3683264452629373,-6.9511512593117,6.783568402928722,-5.5078395700475085,4.713023061147396,-0.04943285205081338,-4.37207288513946
1.864,0.5584922794114391,-2.110245905422744,-8.303391360335809,3.1401310697037843,-10.851713262300109,5.458372696746665,1.6499694315480156,-3.300977864109882
1.868,-3.2141412553564805,-2.806326741614612,-9.207894969196786,-0.4169105352357292,-14.865514480337879,6.56854883003507,3.946734883114914,-1.0652437387107057
1.872,-6.222836470727998,-3.8071900205222846,-10.050965426406037,-3.8365898385127366,-16.988488867611522,7.938891092042468,6.431089030538715,1.52940996398047
1.8760000000000001,-8.560595385390116,-5.243675734804128,-10.912251623298289,-7.130944402266323,-17.18859931226234,9.191848431248218,8.733187573792748,3.8197387106783935
1.8800000000000001,-10.639594874348404,-7.014461072642916,-11.632922398477604,-10.391007060059565,-16.067958250402626,9.7645814086045,10.538999984597467,5.509407025207111
1.8840000000000001,-12.88259471270976,-8.827262956545383,-11.979372633002185,-13.611328259268703,-14.55080788000123,9.208029451814582,11.658197301860127,6.723071752503529
1.8880000000000001,-15.321324501307572,-10.246814011112292,-11.755176285487778,-16.416414553734285,-13.28426342900002,7.524041401646173,12.126605588669918,7.882719000500401
1.8920000000000001,-17.361425233409136,-10.7516394059694,-10.804623832634661,-17.906886110686173,-12.116143276221464,5.3123835619389865,12.240698539319055,9.461015748439422
1.8960000000000001,-17.929908505625463,-9.856379496175578,-8.976948584263937,-16.845749349547077,-10.039206798287523,3.5695027557685535,12.420625032240423,11.702482151143158
1.9000000000000001,-16.042781582434145,-7.345647141383779,-6.1784741868982564,-12.23674033612042,-5.756567481750608,3.1784717610371445,12.893503967044126,14.388147010564353
1.9040000000000001,-11.509849143405518,-3.5326985589599644,-2.5537169961321524,-4.042824877828025,1.3815000034383047,4.346010550387291,13.340749087172298,16.746788296834893
1.9080000000000001,-5.356342957858033,0.6184001306555729,1.3104353583030388,6.371849998772632,10.6096919110214,6.320773103343527,12.769946769317357,17.60298164971573
1.9120000000000001,0.3733618093328914,3.6696272324124948,4.355674450160677,16.41986321623608,19.673375432104876,7.603532663762962,9.797401489653566,15.752565641389992
1.9160000000000001,3.4499505000248973,4.220723447784621,5.351876307207931,23.152207847900172,25.634626269824366,6.622178500194423,3.3228777739768702,10.478591407678323
1.92,2.538260652039753,1.5859519296536746,3.4843716263917486,24.476975738413785,26.244810063790283,2.562875423223886,-6.6837837995535665,2.0154101182961313
1.924,-2.0430941080467164,-3.69980089701221,-1.0424747343531635,20.15259394196437,21.181467972677183,-4.0796788961761195,-18.70607440475942,-8.277264946225841
1.928,-8.341566212868202,-9.887273130196263,-6.7783204499514795,12.014106347969573,12.430455571791299,-11.5414650915518,-29.889488793430246,-18.177507337552015
1.932,-13.629417428086526,-14.633701952663614,-11.43426756345707,3.2475883359911677,3.5051130546999048,-17.446281659829765,-36.98957395059733,-25.276390530718345
1.936,-15.685938934692786,-16.00090227524288,-12.835393950772868,-2.9789622229072847,-2.165727660734774,-19.787422100231197,-37.684825318153344,-27.821454400964285
1.94,-13.814378111598671,-13.356166056000802,-9.97396168835894,-4.8653189020342325,-2.859458300761162,-17.762685228794,-31.629332829194027,-25.368433193755664
1.944,-9.057332361808221,-7.704008177997821,-3.6066191304526,-2.6568744448695725,0.6632520400194153,-12.087652218357107,-20.701276125223558,-18.938938846285055
1.948,-3.524211041548824,-1.2450730873733846,3.9754635179106117,1.6537846122664632,5.650628091521867,-4.635268695308696,-8.263316340840902,-10.592490722686307
1.952,0.7586972871908984,3.6365849141102444,9.952054480866082,5.402887400562577,8.858925180919869,2.3866178372372815,2.243125534477258,-2.600826377919475
1.956,2.822058437400756,5.453208726531557,12.271871628215195,6.536023259825015,8.239308589001212,7.305038985683495,8.692562975135843,3.3945702430792153
1.96,3.0019567790545807,4.200044931884804,10.57906745525861,4.439277130860319,3.903032868583068,9.497547616596421,10.973108193113148,6.853005287428459
1.964,2.3991231623613203,1.1796222087741626,6.293848733771483,-0.027274237553683633,-2.1124087316711666,9.356441562538748,10.67973791663917,8.25060883795777
1.968,1.9575356835161983,-1.8028338008844003,1.8081388145214987,-5.1996675853715715,-7.097985025786329,7.822781659195243,10.020087383293685,8.552216422691345
1.972,1.7817136853836928,-3.3888890131174776,-0.7457213557477189,-9.52601023988609,-9.182722512393411,5.801318743764568,10.565839731894812,8.586751619073766
1.976,1.1430602040222766,-3.237201071169693,-0.4994619054823488,-12.208825297395379,-8.244078122672363,3.7789621816409635,12.504811557862922,8.65900706278353
1.98,-0.8614895029045329,-1.9443774466817558,1.8851166388049023,-13.285801091195026,-5.740469224843309,1.8160844011645167,14.755572516997745,8.579920734945517
1.984,-4.453984378091718,-0.43170703821215284,4.783321302544664,-13.226794983299442,-3.6303584742022394,-0.17292725822153443,15.79151714823638,8.019437836865563
1.988,-8.7188618195878,0.7660701001441339,6.625287126143576,-12.400344855803269,-3.082515469039663,-2.0960020225811604,14.628976905122727,6.890100602711755
1.992,-11.90601416428808,1.8477196395415376,6.769580652395234,-10.787250715660775,-3.7567242494969832,-3.5499955211998895,11.410133935272825,5.497174737055502
1.996,-12.355588763391097,3.527475821359076,5.77144866104436,-8.101984975986852,-4.0601799071246205,-3.9748958868485715,7.2801295013687195,4.367048846684611
2.0,-9.501742478758388,6.409812136222627,4.943618997285739,-4.201184071251191,-2.197193813628928,-2.997442611463157,3.688512443579384,3.8584145268373504
2.004,-4.339385767162639,10.388222395633875,5.518370788399807,0.5430955681094929,2.651913242433693,-0.7388929026956248,1.57973207467694,3.8544222669193005
2.008,0.9628617677785769,14.487255449319491,7.919177407624829,5.183398373098498,9.722709820105138,2.1210545271369483,0.9464101333069266,3.751721558859117
2.012,4.117773933345234,17.28423357802467,11.542005887133655,8.524986100318529,16.980039725645838,4.585481076281212,0.9770991137893361,2.7830667706830354
2.016,3.853240988453308,17.659723986794233,15.10457516025508,9.646806558146636,22.129627279440683,5.770819247515647,0.6353270862309728,0.4640628381703209
2.02,0.5110589565542796,15.433100085137085,17.311097530266125,8.316575779750565,23.719195523256076,5.288658221946207,-0.7305458204973547,-3.1161833590572314
2.024,-4.196842814105821,11.506391087404154,17.450532076413765,5.08024615001159,21.72258884778057,3.382442479440215,-3.088534857650302,-7.335480176971487
2.028,-8.124912455025424,7.413539898309864,15.609979318018759,0.9845260466609034,17.32302905241022,0.7608545538014369,-5.872555800427108,-11.374186029044722
2.032,-9.781246764792286,4.546210264458296,12.462554642623218,-2.8929135620919624,12.10668742651842,-1.766675044729709,-8.403441835338526,-14.627102553094119
2.036,-8.985835921005219,3.5033503981840113,8.832497991930722,-5.851494162516246,7.194114781943881,-3.6402603544238445,-10.268976659102918,-16.919187514099576
2.04,-6.803334730208007,3.922409630068614,5.322080705072494,-7.729493589559752,2.8091649279285775,-4.727371716855487,-11.424353668332515,-18.41205505732478
2.044,-4.8603566804195,4.855966563316088,2.1992422852486015,-8.796478245082653,-1.5166286916050922,-5.266413949537309,-12.016312029018081,-19.291025813881333
2.048,-4.464652830992236,5.419486489542123,-0.48043249766351437,-9.507974927599207,-6.332767232327569,-5.652185076504793,-12.115505999084235,-19.50342256955446
2.052,-5.992624364751919,5.30324001637382,-2.681289907283144,-10.266659648916175,-11.67974940353929,-6.200704027522988,-11.60279171330967,-18.749945311551528
2.056,-8.828571477819423,4.838970381056242,-4.316817980827409,-11.285606421600278,-16.903876197270165,-7.0042577757049,-10.329788715807354,-16.74960351068148
2.06,-11.796199901463297,4.636106046415989,-5.3363506716659685,-12.554704451383259,-20.96661126680283,-7.927349669502291,-8.38860213665339,-13.590064866564262
2.064,-13.787366403882515,5.072907727161237,-5.871942477386028,-13.85256146249867,-23.00953126304762,-8.696112235584224,-6.2595570695275455,-9.873642529366407
2.068,-14.24892973424312,5.988284897878657,-6.294071641318851,-14.776278047370852,-22.82016317823718,-9.02623204594147,-4.683331300397185,-6.5291901296973265
2.072,-13.323494978934377,6.791339817407334,-7.054405781568448,-14.797595508635368,-20.908276037595897,-8.703732588903222,-4.257092063717664,-4.346533520614685
2.076,-11.664563036451,6.882173331719514,-8.399057408021008,-13.41324560188832,-18.19964315688503,-7.6376844434335,-5.027877524731139,-3.5469387102884866
2.08,-10.057843645261983,6.096368580472699,-10.128783850277614,-10.366043521731171,-15.55492186473748,-5.898590798174155,-6.369046833453922,-3.6924883483684425
2.084,-9.05682844371131,4.85742892088183,-11.596411032724518,-5.859733602324013,-13.40442271354641,-3.741500225301934,-7.269766218631503,-4.017051066905424
2.088,-8.789469169354106,3.9151809154072907,-11.991373074644343,-0.6311929787975714,-11.68232334556501,-1.5953540973132476,-6.902794660275049,-3.987883382041673
2.092,-8.959521963669431,3.832656330318059,-10.781043211969518,4.221004395266391,-10.04034656346812,0.01723330165441439,-5.141856937624652,-3.7331649632574226
2.096,-9.015339771225399,4.555796273406486,-8.068699567731528,7.610837426337639,-8.170114215744434,0.6390324927706388,-2.7079909903677617,-4.028040213912391
2.1,-8.418031169441974,5.368988143329261,-4.616318934934043,8.898753793653668,-6.014321564366583,0.06534777435081196,-0.81600797869487,-5.794135710580576
2.104,-6.894350779789647,5.3014919941583685,-1.5004951798509865,8.162852868654682,-3.761890835845179,-1.542850538361563,-0.5133585637108808,-9.404976798209645
2.108,-4.583933799061924,3.7455519065320004,0.40573385969605624,6.139061971969568,-1.7010587084841973,-3.693597920899265,-2.1137554959700537,-14.255315474136296
2.112,-2.0457817442520536,0.8878040219442482,0.819330461212985,3.82863510035304,-0.08088833330543821,-5.769321775088429,-5.0583757386402795,-18.91308034997155
2.116,-0.06782315255668436,-2.315179068696125,0.07954434975476943,1.9848226151952986,0.9196670875917334,-7.286893171740758,-8.284493984680012,-21.819080124578477
2.12,0.6626229631276601,-4.628638802806563,-1.1873557904414156,0.7559977966147926,1.1216319734480749,-8.087784673449278,-10.86726903816816,-22.13179526438489
2.124,-0.13397125762207907,-5.238246448252767,-2.554153342211066,-0.3419202245613633,0.26686459845768695,-8.354772321093606,-12.550958579953658,-20.22738104938935
2.128,-2.1663320763814227,-4.240047430302184,-4.1025066337406315,-2.1037001118934313,-1.948230324476981,-8.443192253985217,-13.826446685938208,-17.52097894747476
2.132,-4.679114525203204,-2.640507283194438,-6.347171360075208,-5.1584023658820115,-5.706748054639775,-8.629352589263362,-15.520793282696104,-15.685248207201312
2.136,-6.808580534627708,-1.8568960211632657,-9.815938282393972,-9.598497021232106,-10.868330702716548,-8.938002463283283,-18.163965589415966,-15.71798700004797
2.14,-7.998320578635685,-2.9790788005834656,-14.536505589594071,-14.886484303694488,-16.861299938855836,-9.161701041068682,-21.52720760366401,-17.40232494210204
2.144,-8.258532202023616,-6.192635365332535,-19.774109291357945,-20.06071552900994,-22.783331645580347,-9.059724690294843,-24.638153918267108,-19.49355959461809
2.148,-8.122348388855244,-10.6752327754416,-24.234825841815336,-24.10236519627051,-27.69205181127063,-8.59359021846467,-26.2669446246,-20.495619631623413
2.152,-8.265171142503277,-14.976753262195416,-26.639211386603847,-26.231439417400907,-30.920033708874826,-8.022341928768583,-25.591111590552373,-19.544344174737944
2.156,-9.0064099764013,-17.664408502986362,-26.350042732018665,-26.014583688252515,-32.24713687598705,-7.777482808819514,-22.652116168293105,-16.876530092711846
2.16,-10.023977731060768,-17.921730573581044,-23.702588318170115,-23.332576758110918,-31.85331193260913,-8.191053958994416,-18.35756032430936,-13.63091428873713
2.164,-10.461177738003926,-15.811252869068767,-19.83388718185006,-18.320400674753273,-30.088068677538672,-9.248601383683308,-14.044448126587213,-11.153484592360428
2.168,-9.40250241865624,-12.130186364356632,-16.09702173609753,-11.38100274401586,-27.212517492913207,-10.54044678434002,-10.867170469883604,-10.246782402236022
2.172,-6.467889097487159,-7.982406970763577,-13.387575007931218,-3.271366256032479,-23.277545147546675,-11.454733300831322,-9.334118716411012,-10.806284655784111
2.176,-2.1732013131486383,-4.314906421977184,-11.766473051978778,4.849139036825363,-18.22162824104521,-11.525792361860113,-9.23475225061543,-12.033695676330353
2.18,2.1807403426437304,-1.6394471277867524,-10.580267839913972,11.544868072003965,-12.123280330368061,-10.722858327969789,-9.928023934145813,-13.045410631286359
2.184,5.084555041562908,-0.003847493328521523,-8.96341938321848,15.469324774030838,-5.411483459862893,-9.490136832473581,-10.74541045738988,-13.418979562029563
2.188,5.567992423078977,0.8351285719522821,-6.421079948935699,15.854948002801393,1.120832751279977,-8.50506137120965,-11.280515700725346,-13.346436480819193
2.192,3.718986586970459,1.1789550003827571,-3.148550451621304,12.886358103872226,6.5370126330014955,-8.289178978451218,-11.431176552663146,-13.337639015477635
2.196,0.6849769895322879,1.2339501488813767,0.094147329198222,7.728709743050331,10.127146195591536,-8.895827226067922,-11.238197477953463,-13.716902473070832
2.2,-1.8708261474915844,1.0880052179868471,2.4380312394540624,2.134093845469806,11.7215831147264,-9.867778570005612,-10.70114583168197,-14.292061449449648
2.204,-2.5782235592389497,0.7846800258619169,3.387896176397817,-2.225947255378287,11.761515916811277,-10.481996608618374,-9.74982185606359,-14.42680063754483
2.208,-1.027845461000652,0.40163971289985057,3.0379404354266626,-4.420196364141475,11.051127517451505,-10.155611092755407,-8.383548695945592,-13.49544935225424
2.212,2.0547822514347445,0.07495376144424881,1.9099680080273629,-4.578089372878367,10.32007050442462,-8.769216179239265,-6.856733938709567,-11.359428866418398
2.216,5.204000610369803,-0.06089305188777416,0.5372057090685303,-3.723908178264992,9.823791999661353,-6.737620804300377,-5.733346861070913,-8.550011524204137
2.22,6.954253697181457,0.021063221162648915,-0.9103778377724439,-3.2140990887166936,9.210405875539209,-4.805482119825683,-5.698886640920591,-5.999406965129992
2.224,6.532049218222028,0.15897343596543578,-2.7129793909700766,-4.070889031670049,7.734682779159812,-3.6956084671564895,-7.209213325510518,-4.49430751803834
2.228,4.180038822039478,0.02808552462965963,-5.335422676911321,-6.51762204230954,4.737658154353426,-3.790768986767489,-10.165712341464541,-4.194894882142762
2.232,0.9695444267017592,-0.7263500023493634,-8.985241238499952,-9.920223069562553,0.13265548047331777,-5.010052039753418,-13.824342261616493,-4.543548163672426
2.236,-1.7578541567024786,-2.295031380995397,-13.287514351271739,-13.121601839343612,-5.371580404107249,-6.898693662134519,-17.04243107998286,-4.61844831222993
2.24,-3.0151944515303057,-4.541247645026715,-17.308293666791542,-14.978075009299573,-10.470447042507658,-8.851795577955272,-18.76533556010213,-3.7312601145220015
2.244,-2.5554596322331236,-6.965074263328802,-19.942572038933918,-14.82908745557711,-13.806409348461557,-10.34905896086434,-18.5033648551954,-1.8885643513001469
2.248,-0.8624203762974503,-8.843036243747747,-20.453709133436007,-12.699599507686798,-14.591156110869633,-11.09467906200689,-16.54962641274426,0.17041035928696147
2.2520000000000002,1.1958503552403954,-9.49589559402375,-18.84817780930672,-9.190721753446837,-12.974066932569485,-11.049835372458347,-13.801703788878626,1.3891426364235713
2.2560000000000002,2.8355538057116974,-8.57832226815799,-15.876154803252348,-5.176080894399206,-9.967503605500156,-10.385451673904527,-11.303985940937082,1.0013052407687155
2.2600000000000002,3.6902194627996323,-6.2596453851856495,-12.663831249078612,-1.4784412929900554,-6.954707570094968,-9.407143253646154,-9.749703016262288,-1.0298575968455452
2.2640000000000002,3.8626930808251245,-3.203889133975281,-10.183573950308414,1.3328915728151287,-5.027979862017105,-8.464528260438328,-9.195208829630019,-3.98786981311855
2.2680000000000002,3.72392787017327,-0.34508976299775895,-8.846691102326758,2.9938831475553798,-4.49340266665115,-7.858225928976026,-9.127839864078169,-6.771442252619181
2.2720000000000002,3.580398084592616,1.433217036659471,-8.446003226160542,3.453733337192716,-4.828089037195241,-7.754775735935368,-8.85403462958925,-8.48107889634855
2.2760000000000002,3.4367420731130096,1.5912027329371767,-8.4337908300472,2.7574687902584856,-5.085283917572667,-8.117964114436631,-7.96266711040596,-8.852684647053138
2.2800000000000002,2.9874523143326996,0.08311198099522699,-8.331908096076745,0.9889163571673407,-4.515165595297049,-8.714039713812554,-6.587525220719726,-8.32658343661933
2.2840000000000003,1.8322532913501846,-2.676752743777854,-8.020465184307739,-1.7101000904676766,-3.0492670331117324,-9.208752973755963,-5.3478735002893245,-7.764510237555328
2.2880000000000003,-0.2041500391376303,-5.982372710334857,-7.744597040447843,-5.070182591156595,-1.370698066920454,-9.320243507434611,-4.995605964407332,-7.968384493244741
2.2920000000000003,-2.844229192277453,-9.058396042819652,-7.869672520904317,-8.649394261786256,-0.535806941035105,-8.94753429237835,-5.972131635472579,-9.263882441488022
2.2960000000000003,-5.378777791831055,-11.263419312905853,-8.572987539972587,-11.883513598106674,-1.3744488911322321,-8.201732133452879,-8.1292373008298,-11.348268765301839
2.3000000000000003,-6.951264258344338,-12.223594310304634,-9.679683593714884,-14.23028990841874,-4.0075485654853935,-7.317134433967453,-10.762164589473628,-13.435828828799288
2.3040000000000003,-7.005359766608876,-11.914034011543322,-10.779834307143261,-15.374385397575509,-7.774695182072719,-6.497953923208229,-12.950737162660687,-14.624740017522413
2.308,-5.620718541518102,-10.65504702094978,-11.506546672664058,-15.356502052503174,-11.569107493985115,-5.788665750069413,-13.987906760309897,-14.271766550647271
2.312,-3.555271200243851,-9.033181581198448,-11.786633366854687,-14.556812395013253,-14.374765637267984,-5.064339308748686,-13.661575699425498,-12.221620178398268
2.316,-1.9481781770646194,-7.743852162638689,-11.892257471861683,-13.517496413070376,-15.696427156274524,-4.147798139232918,-12.243509844706182,-8.812436836721645
2.32,-1.761385143851328,-7.347064887537272,-12.231307195520117,-12.64323038406883,-15.642683639339793,-2.9749767301393604,-10.221214310706387,-4.700204430164831
2.324,-3.2506351975774805,-8.021534389430599,-13.010334848636035,-11.923779970434566,-14.650102774724076,-1.685721328392674,-7.939715476557467,-0.565561594269127
2.328,-5.749789184142514,-9.430153911643174,-13.997243432051675,-10.850881550451845,-13.069235488673144,-0.5818229913671757,-5.404214804413414,3.1255074050120015
2.332,-7.9284194147143126,-10.806260805847614,-14.571509465715792,-8.625886758706201,-10.903006633725795,0.03227338426449933,-2.361045116259902,6.2144053077399235
2.336,-8.408014203422908,-11.256068780616431,-14.042927672782696,-4.585215375240068,-7.866269530708394,0.01654475901545993,1.4074748208334995,8.776082134120486
2.34,-6.433206951958255,-10.15718840421863,-12.055524695066424,1.3590133486069362,-3.704560356565196,-0.5251858957046807,5.775235695201786,10.948083573029635
2.344,-2.2827105839173782,-7.479113041909272,-8.841258953442889,8.483538388709235,1.443535301986003,-1.3379781764375593,10.149587961576799,12.75732847250282
2.348,2.829238387161354,-3.8346180172145523,-5.148231278426351,15.397084563940211,6.899685613366557,-2.1991659872027185,13.642405868362175,14.051411496802245
2.352,7.30744811354316,-0.2156160523646804,-1.8702847881432945,20.547563292816676,11.650842643949886,-3.0589465740727064,15.464540850667504,14.606117917742836
2.356,9.912463894678524,2.4553931148899437,0.3975906497903452,22.856732136843448,14.781972477535817,-4.040435637684823,15.307430807389665,14.320855457581786
2.36,10.302063346336865,3.7242634954468485,1.6186787282250066,22.16685614038431,15.886415355562463,-5.295221219146697,13.479652861074896,13.365609558584993
2.364,9.081910668905778,3.740128350603527,2.2376814757607804,19.248494219164286,15.220820412893545,-6.815778116202409,10.739322095939428,12.169992787565434
2.368,7.3847236796843845,3.0748631931428463,2.838599859190765,15.372163550513733,13.528062566556855,-8.332565802997124,7.932581838913848,11.238504395820655
2.372,6.225971990328503,2.337212981596167,3.75194621550429,11.662136467437335,11.630773029479371,-9.408658558776324,5.647563071432842,10.860686037167852
2.376,6.000471364877512,1.8301343826964285,4.856768995191771,8.597646350283526,10.049642374893608,-9.680400344025657,4.087623773412588,10.924141747762178
2.38,6.378981784218581,1.4566836185499596,5.685200614061728,5.923725912037071,8.846028042736918,-9.106642121579398,3.1885567281912017,10.963370182313838
2.384,6.635153651984297,0.9238107676592335,5.753512161781259,3.0160344068652876,7.742418412707991,-8.06107484194672,2.8651598720514357,10.442153698603988
2.388,6.175829537661684,0.09075802683219081,4.895143200991299,-0.5302577077430897,6.4080239629223,-7.18861086142374,3.1767520043219974,9.131159291699532
2.392,4.92357727210765,-0.784854404610769,3.3857147476923046,-4.467668430839012,4.720540764845623,-7.080548889124202,4.2753396231535135,7.347942762404614
2.396,3.3322451837142353,-1.093656122100242,1.7871017911798504,-7.906102754103472,2.855535645559769,-7.945734382498131,6.181273154106975,5.863199326012591
2.4,2.055281196300143,-0.20872477025488934,0.6304915612238347,-9.764956791411919,1.1836422092393377,-9.469718905232185,8.558748173663616,5.515273021987809
2.404,1.5195481496822367,2.1018394473529725,0.16741723191216806,-9.379745456289697,0.09090268036862881,-10.93396912954995,10.711939638396757,6.742597099114278
2.408,1.705074724136466,5.453983124940237,0.34570421906715865,-6.879296550098388,-0.14644501171329694,-11.542227863510789,11.875186199515383,9.317132216215896
2.412,2.2712000693696837,8.979166105288527,1.0007433760943627,-3.090593577227196,0.6248200348367163,-10.792724369715643,11.66195561977338,12.443668605942094
2.416,2.941386434719675,11.761679619728625,2.1034892623296173,0.9762727242953133,2.4941866488399,-8.692317940706516,10.410735693887887,15.180884203992264
2.42,3.8608097238873142,13.326629241527712,3.8487335100485893,4.733425138921348,5.5055721148022485,-5.738363228237176,9.150147477162477,16.92314779045762
2.424,5.602826291769247,13.86590306015296,6.476431883711996,8.295823684846255,9.562619856026231,-2.693054333575674,9.115257647919975,17.634708429964917
2.428,8.768364703159932,14.072027580458325,9.954562543714303,12.240030297358317,14.27857371679238,-0.27655926975444345,11.08144481001682,17.704315654722336
2.432,13.409220239837168,14.66935265299469,13.744286967886751,16.98482852173629,18.894417387081376,1.0708359585237304,14.858981431964594,17.530265337131254
2.436,18.66432155324094,15.924447919306772,16.86115999565328,22.20932170687911,22.398223497394724,1.2789232029081177,19.259436710782893,17.14144408576965
2.44,22.905129627816564,17.424673252780167,18.26056761657901,26.71672556759563,23.84968485954562,0.5946278140502272,22.588355047744244,16.117491304923533
2.444,24.42147939339509,18.27320569686583,17.3693097851866,28.904301399288443,22.788526568742896,-0.5595684903391884,23.4283395062655,13.887016862586961
2.448,22.319927086174175,17.59585304536415,14.460340902924486,27.61171893797723,19.515648808148967,-1.7500185677174613,21.303186342337767,10.205984439473127
2.452,17.126938892580824,15.064102621686857,10.61496851160723,22.852821574973632,15.054316802929065,-2.6444228230795943,16.87420169265397,5.486832761341134
2.456,10.70084139480764,11.127875581361081,7.258163547047047,15.961455492117238,10.768601678876053,-3.0681292502044926,11.56278493457944,0.7320400986341156
2.46,5.444298882301496,6.825724849785274,5.502896484921166,9.02517351233837,7.802563019226227,-3.004150210962962,6.834597657418271,-2.91201239681493
2.464,3.1835944328216783,3.266714062408255,5.630182861945514,3.8798353157642396,6.592995514914264,-2.551128947803363,3.52238680907476,-4.732771478206018
2.468,4.290163958443486,1.0783988599165468,6.985011733974829,1.2265953001187881,6.6954714770638475,-1.860653592454355,1.554208899751302,-4.781446574607116
2.472,7.536810713914292,0.13689043899114495,8.331065246727121,0.38324077758124986,7.013169095868193,-1.0533678863750993,0.1793541282941078,-3.7386004515973355
2.476,10.743648095836534,-0.3044534800734482,8.448155832406428,-0.20781707626429125,6.307777778444233,-0.16617750916543628,-1.4788305866736664,-2.4082725140372077
2.48,11.859500074700463,-1.1732521591725344,6.661386225437241,-2.0075758705982025,3.7583122445792014,0.8449392149836967,-3.892624031196874,-1.179688201014642
2.484,9.920432457385004,-3.0580751182000085,3.0718067783649303,-5.478679376871696,-0.668803354981037,2.0549067044939875,-6.883592523872721,0.20373583668435913
2.488,5.407924013173101,-5.893444550633035,-1.576630163516029,-9.769430055462863,-6.183830520627112,3.4894342291979683,-9.765014791271824,2.4000171342617023
2.492,-0.10603691654921477,-8.986562847117057,-6.255853536250356,-13.143182712119824,-11.4510676751446,5.053688835319463,-11.729347410851915,5.889862694073372
2.496,-4.744687625471329,-11.339340887728667,-10.020768483534425,-13.879918265816059,-15.039282177962832,6.539054848113665,-12.240484671306376,10.45065468739972
2.5,-7.100245073603787,-12.091747532030922,-12.231095420402994,-11.1482657139411,-15.869313620814069,7.713605237541515,-11.233378710892339,15.028488676777329
2.504,-6.637693173759317,-10.87519752717185,-12.600790319532507,-5.404365852296678,-13.519736596561188,8.445942098196156,-9.065423826174765,18.1162481254878
2.508,-3.6175932378554307,-7.920366024326086,-11.143808159168884,1.8544248098908156,-8.31404352339996,8.790167623974412,-6.300012645657262,18.458141398064754
2.512,1.249772193596641,-3.923804072716621,-8.125718957427694,8.768913485762823,-1.2072993747642613,8.955482266943363,-3.5033262562428718,15.653087632551774
2.516,7.158441696417299,0.2604398501914602,-4.013089244230514,13.873390250138527,6.516282633827132,9.18803777810308,-1.111970835566126,10.361877747911649
2.52,13.36510320892512,3.9361370541785163,0.5743539598453253,16.549814266725434,13.613871083892718,9.618416328573858,0.5944742042245252,4.013071939873726
2.524,19.17628790040601,6.772029244044688,4.967219262133085,17.040793758120117,19.216499508538504,10.172190998142014,1.4732094312635127,-1.8093598984469281
2.528,23.94125442112272,8.84703724598694,8.613327056317075,16.13299840583045,23.023187303908344,10.614432718631633,1.5226396403427316,-5.946947429918964
2.532,27.154613125841138,10.506243730019605,11.215237513270495,14.721971112939627,25.25842224153996,10.692144325014851,0.8943576631074848,-7.971954358935363
2.536,28.653760352717995,12.10284458356,12.772780534740832,13.479594037185507,26.434162722327073,10.290913746409842,-0.09777541980361093,-8.109966369911717
2.54,28.74739376924208,13.73342258760249,13.493402490226458,12.70047336497123,27.0210108468234,9.507071585409449,-1.0364783890800027,-6.915188007114466
2.544,28.08980990089708,15.08225648892676,13.616266711628555,12.284098137916999,27.17402897361137,8.574235097321889,-1.548974909716435,-4.945765816308722
2.548,27.307561581694017,15.48373381330316,13.276473907265995,11.807266316195637,26.67064633688119,7.698686232532964,-1.4514188962843946,-2.580864693269632
2.552,26.57039778393778,14.199172666212007,12.478608125534379,10.64838317375029,25.08185750527298,6.908176264284975,-0.8288556372410767,-0.024164054087123077
2.556,25.387642707369196,10.792587418056883,11.16624842912779,8.155331457379134,22.05464991699398,6.013769733729532,-0.02481483574615595,2.572224642424999
2.56,22.829924958123,5.430744044831727,9.304958988052249,3.8756642908142567,17.534592312495533,4.723718841949449,0.4554616994646494,4.986319353726685
2.564,18.126451384684287,-1.0427435677827361,6.907886974509097,-2.1839263236638544,11.821961241751296,2.848827355589947,0.1062606811005935,6.901080766727546
2.568,11.293990661871703,-7.339037777263002,3.987129485451419,-9.387581825838197,5.447121286062497,0.48138155265587557,-1.4057415349548137,7.984578861204909
2.572,3.423721270014312,-12.160167120765209,0.5208401401981746,-16.496183925305786,-1.0029204315180777,-1.9663181460655323,-4.081228084992745,8.03334494963542
2.576,-3.5931770734321162,-14.631670673749113,-3.4693478854001114,-21.93884344538651,-6.960222071638327,-3.884704212010547,-7.466515168752949,7.121522925429645
2.58,-7.80294821326288,-14.526762591008037,-7.726206627913712,-24.26172749188413,-11.808116627571167,-4.680895042560678,-10.637131793591834,5.689117294345806
2.584,-8.004200002215839,-12.181823929803386,-11.57266335638485,-22.58753119310836,-14.766674853904647,-3.9941297156410656,-12.368830761482059,4.5037678231194604
2.588,-4.234007850022863,-8.206460128400067,-13.946283415365656,-16.91951211073092,-14.936640892942592,-1.8319025677951686,-11.530291798715552,4.43366996892496
2.592,2.2793470072549553,-3.2142664883251655,-13.78096282438139,-8.191633898621149,-11.624347232878563,1.4088740382517244,-7.632926190039825,6.050225496479243
2.596,9.631084190211595,2.248394325093386,-10.640147984238524,1.9356844259518766,-4.869114631105731,5.009451075200104,-1.3251531605806122,9.18870246682286
2.6,15.921814265320563,7.5637209030192025,-5.265009475783131,11.460761082977115,4.119775503854498,8.049930079210753,5.477959909226229,12.680516830237366
2.604,19.758602883296817,11.854566335143545,0.35705727173649393,18.484055707559946,12.977777029077515,9.567952992619212,10.032245435356344,14.498684615946104
2.608,20.45301780028535,14.001112112018518,3.605840431432398,21.624658529204225,18.830745020925633,8.763544105920573,9.739283631544822,12.410032988671901
2.612,18.001174184619003,13.015323573587011,2.3719015779106485,20.36547048652301,19.426226958807092,5.263973064194033,3.316081001306884,4.983057553131857
2.616,13.018740971430134,8.663970375785993,-3.78136382906132,15.261935258174617,14.255598298368113,-0.61891274450727,-8.359702290988025,-7.4567159852445
2.62,6.72836720010946,1.9912907683105914,-13.069118571097988,7.931840354309315,5.071617138211195,-7.774239496724022,-22.205093157842384,-22.442492140597324
2.624,0.9009654475485149,-4.682605799555176,-21.94814232905992,0.734162910485793,-4.568096094256589,-14.458814841456388,-33.84459813368585,-35.8968711275586
2.628,-2.4439905353362974,-8.475928516499607,-26.483261053671185,-3.8692229892021714,-10.632849626722418,-18.778378038230585,-39.15200934671975,-43.48486999276997
2.632,-1.6560849003344629,-7.148840343218353,-24.022687648511692,-4.119736348363858,-10.260195621598768,-19.365574257156823,-35.79572944148504,-42.27637186529864
2.636,3.77504063304832,-0.2413072068263773,-14.392459953527805,0.3394658250708744,-2.955340482123802,-15.971002650444461,-24.121699878092386,-31.976320155245276
2.64,12.693774983307321,10.479413470329291,-0.022182847608974043,8.192222027619664,9.22688509565046,-9.666928578302304,-6.972971573250561,-15.103193979137814
2.644,22.394582485973388,21.585211884795626,15.054621321224658,16.79248642281891,22.577069355280173,-2.502649806741374,11.428199416648113,3.982225348525617
2.648,29.52541197318783,29.380351949970418,26.83492135749043,23.070374255369643,33.25705140041964,3.2898549920250844,27.016134733180024,20.774270302514424
2.652,31.47135745775722,31.47142122066748,32.85171142549825,24.67193137429058,38.74106619833947,6.211028083571819,37.18177733915536,32.2665141436255
2.656,27.56351382185744,27.739464439743188,32.887321485727625,20.854005991923714,38.543945791249826,6.089109303411533,41.34074049405126,37.80415354936167
2.66,19.47781243419422,20.23747029329229,28.67601472086608,12.76062180011104,34.02387483379562,4.067215768989627,40.675092394701096,38.837208114826126
2.664,10.551941980878382,12.093456591298263,22.871022521038867,2.963970815504126,27.50320999962787,1.9821088143235102,37.314565680530905,37.828851881804894
2.668,4.298055673997851,6.0079341058467435,17.83693596686453,-5.5337799358380835,21.204063714587164,1.4402407493307692,33.38997966923944,36.947373086881726
2.672,2.863341951014945,3.1463848058838266,14.844578283864621,-10.385755845489712,16.508784212235696,3.0652332166755514,30.357181648223104,37.20374212078559
2.676,6.194128050406107,2.9298051134928755,13.916584526221868,-10.636296181539365,13.763972723995948,6.2733552331174,28.749189708949416,38.355537714177444
2.68,12.30562383931192,3.7287810535735844,14.22929902226133,-6.845745505725517,12.533769522304738,9.668725422110583,28.294337334868032,39.44767063302129
2.684,18.456745466323582,3.9866598285711916,14.744867111053054,-0.6325584835535665,12.051619497116462,11.820264862551994,28.251860152954123,39.56701804584759
2.688,22.549118036687105,3.095177263566711,14.723423750565644,6.0852986442523616,11.605566525652875,11.992350932834597,27.786743020069935,38.34412068317556
2.692,24.01520348728559,1.5762962045387212,13.937298587256464,11.796274757709853,10.754372151798634,10.450772912115553,26.289629714221974,35.99149812267524
2.696,23.77861857224343,0.5615246167690202,12.601147951669645,15.773914111950944,9.40133143483672,8.225175964186747,23.600002364786633,32.98780236018547
2.7,23.425483293668776,0.9760313811948436,11.16002736342216,18.056274201248016,7.793191802831188,6.508001335875633,20.09641648040406,29.712365240474355
2.704,24.140602515119554,2.953958164801861,10.085857286377859,19.13013887808347,6.471258174253535,6.040840245040272,16.60693617702782,26.29220462690364
2.708,26.052301382002497,5.809049394279555,9.757232898483608,19.538507853837473,6.137295235583224,6.82735705709365,14.142406536068847,22.72755336461205
2.712,28.30237186877457,8.502087236892748,10.408365433675499,19.60088433166584,7.396604318678783,8.2685214339499,13.500699111225003,19.133944832394718
2.716,29.692587348923098,10.249725672111708,12.094794467318025,19.330251846952706,10.437326385934057,9.59977153375803,14.892484852718098,15.873727499482357
2.72,29.457503962306873,10.888772558087567,14.656650452586291,18.52495040298254,14.791244357648793,10.337836018231428,17.784150929985117,13.439507695490192
2.724,27.68993688366413,10.818731569133888,17.710235810399354,16.959099114661967,19.364868447887602,10.481973712016043,21.07233396338188,12.164279267438815
2.728,25.170321989060085,10.608716706627092,20.691283553270523,14.547701988640256,22.78804115758612,10.382961673120008,23.52506208947807,11.95617179118608
2.732,22.8105614239023,10.602053719449032,22.980486799765913,11.43920730943455,23.981018637354737,10.397567008735678,24.29478283159233,12.25754938234968
2.736,21.075801946966976,10.76851890650778,24.078871373649918,8.006288318664701,22.676075076833058,10.579880606386723,23.27458408927032,12.306570659595309
2.74,19.763905772216503,10.866894469380895,23.77416206363796,4.759198843433751,19.61426750782789,10.612546036306412,21.121748269169075,11.555674723138509
2.744,18.25639229015337,10.756625030277291,22.231452592191545,2.217603765910553,16.28884929273272,10.006348597968554,18.9429325541214,9.991342553284994
2.748,16.02098167589611,10.578979026611478,19.943770621923704,0.7713909208682708,14.317901771881907,8.447149030032506,17.784708217277966,8.141163437412615
2.7520000000000002,13.035714524639616,10.675118406445108,17.565035963545824,0.5840485205671939,14.74470922309888,6.069385325212352,18.17761618460372,6.74978667141113
2.7560000000000002,9.873388392112474,11.307490131432132,15.684083050628715,1.5599484668182413,17.589858229872334,3.4897413194471483,19.9336696146147,6.309026130006259
2.7600000000000002,7.3976398293350485,12.394056066954818,14.60546912185896,3.377031549199728,21.8347304507879,1.5736871549229363,22.255524807576876,6.71717552345217
2.7640000000000002,6.295879872641308,13.482208483989552,14.228479175292023,5.588885544276309,25.82399243403961,1.0574192092039993,24.07339204196569,7.277986238456606
2.7680000000000002,6.714486570321014,13.988361880637513,14.069851442922754,7.746495820809741,27.87509473480236,2.201493119926454,24.45593062027183,7.050930679782368
2.7720000000000002,8.184348899055749,13.554216684814492,13.445497037468158,9.502132713871106,26.850580870045178,4.654289071656422,22.938900545867455,5.365219086242178
2.7760000000000002,9.840480344064872,12.269683028130885,11.744579423019331,10.664298233476984,22.49408667315447,7.577611342845557,19.66191034622807,2.213259204628457
2.7800000000000002,10.792340918112131,10.61440053945148,8.702647086391835,11.199390240051798,15.466146166063709,9.975892676006879,15.31147231444902,-1.6966009062286957
2.7840000000000003,10.461892768493954,9.170757835602672,4.567031538859965,11.214289517520683,7.135602773389564,11.088812895857245,10.894936466796025,-5.254993405570076
2.7880000000000003,8.738495385709257,8.288405780061566,0.05630344648602659,10.915648856940606,-0.7985365681704479,10.680011902189108,7.41081270230552,-7.482054267491094
2.7920000000000003,5.9561843195729125,7.9364929142061555,-3.8736822615167057,10.56046918751872,-6.749990412555462,9.109369496637555,5.515612976631473,-8.001406996018659
2.7960000000000003,2.7578907490440088,7.837590057005627,-6.36397973031535,10.393175186845838,-9.650033000397343,7.1801045175461695,5.309132460579349,-7.208092938348273
2.8000000000000003,-0.08301398057551523,7.760991763610036,-6.954203027655694,10.561566513439175,-9.22983036287792,5.815710535506696,6.314322273884045,-6.057080414120037
2.8040000000000003,-1.849429872189603,7.757565634940875,-5.719380141279771,11.032549161124734,-6.081996071972526,5.701543479784505,7.684437772672027,-5.5874092079141064
2.8080000000000003,-2.0999703321710967,8.136269925417764,-3.203459591110459,11.535094484342608,-1.4577422778465916,7.013372782910665,8.550869142915417,-6.424299589855082
2.8120000000000003,-0.8614128730191624,9.2029145630097,-0.18481072730855885,11.609994944888513,3.171927438598914,9.357133430597969,8.366987477143994,-8.494184474734766
2.816,1.2929618546099846,10.94809938402841,2.6066798000897506,10.782957865638764,6.639290292697524,11.940555021721593,7.09879346647449,-11.079432379225409
2.82,3.3691712020038267,12.921489082481912,4.703536665856518,8.81516344596821,8.47144173075776,13.902061280879934,5.167962025885117,-13.167674146496665
2.824,4.314441632755688,14.422138412136064,5.971962104487375,5.915366927873947,8.971095699228954,14.668486273186318,3.1681492672723834,-13.9144058282061
2.828,3.487121931416368,14.89216488477291,6.542716332235045,2.770068309938779,8.932598617869644,14.168421485800991,1.5085272244564294,-13.017125266629364
2.832,1.0161905347890752,14.270070077038326,6.680172611405737,0.3403290917144659,9.144005592860822,12.807804704174941,0.20009853349847617,-10.831208814653564
2.836,-2.1623081174932395,13.060851508819724,6.65703275376643,-0.520753680593316,9.932336087210729,11.22917706212138,-1.0979160785816475,-8.18830160422317
2.84,-4.686996389307751,12.04370278168335,6.675700549468047,0.5184527307483222,10.982606078769209,9.982850223230798,-2.7962432521508163,-6.031904214768247
2.844,-5.402267602734014,11.797483022892209,6.834947080751419,3.051283332814023,11.51730518696695,9.285079848287637,-5.027822381607734,-5.036171577172013
2.848,-3.9273707930771025,12.339270619820809,7.128555504893654,6.049057361511245,10.721864464699024,8.98517896166777,-7.459383966222163,-5.359159404563911
2.852,-0.8407687922056084,13.121948716615861,7.4641718891346045,8.292403753896906,8.18119809882819,8.750686320749992,-9.388031446532523,-6.613408333329744
2.856,2.6302894671114245,13.388733289411675,7.691320483904747,8.920066414638313,4.089893842375545,8.334555713650843,-10.096110192152992,-8.067728296181713
2.86,5.245447750005951,12.655583421315214,7.637148862374488,7.807948741004793,-0.8624522299329556,7.745555617314949,-9.272893042623082,-8.985288714243325
2.864,6.368670309975414,11.0154994749264,7.151046605005263,5.5886375353600215,-5.835691544081783,7.22270605132735,-7.273705858626727,-8.93782021599759
2.868,6.210252521645771,9.052305452642258,6.137409120902589,3.2988895318032974,-10.216783849036347,7.039934071077369,-5.061054905619358,-7.973555497683037
2.872,5.5756677838255655,7.436947542179951,4.577166075795844,1.8384737126771142,-13.813786758194055,7.2799538068102265,-3.8213281134555928,-6.5744204162976985
2.876,5.302487992051965,6.486892376024571,2.55121735142086,1.5458858488709666,-16.773237959340463,7.745974453102463,-4.411189511685279,-5.397620462504847
2.88,5.744852875665401,5.975186851533181,0.24425872383403657,2.1060598647925417,-19.313124407115765,8.082709455717122,-6.926265712559143,-4.93130795503339
2.884,6.61656122972704,5.321128633280068,-2.056447462495157,2.8224165179781266,-21.44513492833778,8.037219942560569,-10.590786938492101,-5.2264570670661215
2.888,7.245651096489951,4.0246527659664935,-3.989336654133922,3.0562115107068166,-22.87587930577206,7.6763095197043185,-14.04257052565572,-5.842805424039625
2.892,7.063959445506271,2.0622184265380383,-5.170286707222317,2.572670688729886,-23.124263848974238,7.388599978413367,-15.896659854937525,-6.049654865809771
2.896,6.006143952989078,-0.02621811199514923,-5.278146825844146,1.6059567667937245,-21.776289659880263,7.652274071782813,-15.326676068520555,-5.201222299430128
2.9,4.5491109573752055,-1.4302327824752865,-4.1636065680155525,0.6345399575004649,-18.735426633283282,8.69810315904897,-12.40945360133037,-3.1078662428558346
2.904,3.4009943169479584,-1.5315805138150154,-1.9124861932654085,0.06661331731629616,-14.305446972474215,10.293527356187042,-8.070010067517615,-0.1875747033271864
2.908,3.0659926699889866,-0.24416870067648233,1.1778622598341144,0.06341184453094684,-9.068387673869552,11.805716163323723,-3.6388249620665647,2.7016339245253675
2.912,3.5790052162743677,1.9940094000498902,4.72619103769307,0.6151626464550191,-3.63009007931214,12.536967265578824,-0.2265826378309157,4.667341436538663
2.916,4.5730751652707795,4.550354832229004,8.424743766720553,1.7765569402447454,1.6137778124040096,12.133787114476263,1.781022325660615,5.231904546886426
2.92,5.608143246402733,7.003364994087633,12.12161817385254,3.834517944206482,6.557056223786049,10.811141614499775,2.860707398253453,4.576373550772701
2.924,6.503097913554257,9.333022992058659,15.752198969385745,7.213663852374793,11.262363959000936,9.23740831228747,4.020794207034442,3.4272023947499974
2.928,7.412788213185877,11.762021847420783,19.149883061539526,12.114761351991092,15.718731740999601,8.146745756955397,6.171105563252922,2.656211051257401
2.932,8.603322100294463,14.371703929297723,21.866171031603358,18.105063094581965,19.627992692548787,7.909936641761988,9.505542992873416,2.8028184240462224
2.936,10.09491992812275,16.785033107527966,23.159850959843993,23.968666850716545,22.3572283688369,8.329746446974696,13.242828207782395,3.7808400782582794
2.94,11.454207831817484,18.1794976186211,22.250985753455552,28.019986566844636,23.122108351393194,8.791135287745192,15.910950143610762,4.94178235689958
2.944,11.929974614315256,17.67801258796146,18.76519432917837,28.811102699688263,21.34201096444542,8.670649841360273,16.068434101408457,5.45624017623652
2.948,10.879004201810972,14.88518295082406,13.115556564662711,25.869049834998123,16.982779848296786,7.73506130920191,13.11158381728842,4.784444101111717
2.952,8.22548946555014,10.22849069470658,6.560152799669595,20.037783375616982,10.703150980392536,6.269530387297436,7.735978599000418,2.974792673931006
2.956,4.6217823957408655,4.845359869764593,0.8107732602654778,13.170023023292742,3.6947385789757163,4.853886383244799,1.7534144325152283,0.6234150139400754
2.96,1.1780719040771146,0.05708886555521531,-2.6580155238410157,7.291898990336222,-2.718342279274907,3.9428272663492407,-2.67506670883904,-1.4620659523255881
2.964,-1.1042740467196381,-3.2562743021180722,-3.252584256659702,3.686216386905812,-7.5355174952375705,3.5467297635836985,-4.0107461569440375,-2.659513741419346
2.968,-1.8777743572395593,-5.036721617469425,-1.5295394391876584,2.365338631975874,-10.41088686016053,3.224996282453958,-2.056066260979719,-2.796872856167738
2.972,-1.6215916791968539,-5.94165376708645,1.105951757160085,2.2376565713759646,-11.681895424713844,2.408402773861326,1.9700694336745528,-2.1447586871305475
2.976,-1.3313471599258264,-6.841940079039205,3.1084915964669335,1.8503146575477558,-12.111715436799159,0.8309695151508549,6.0364409011336875,-1.1972069412714745
2.98,-1.9032260904290297,-8.247719585342338,3.541658034191016,0.27388764392594567,-12.473700453754077,-1.2334276083097393,8.285875729256531,-0.4036790432168118
2.984,-3.5652505225606888,-10.009701176145313,2.474111355069738,-2.3697934617682677,-13.166180070410292,-3.094253255447029,7.89291750364896,-0.005330639721819352
2.988,-5.703287584118073,-11.484436322076704,0.7974684905940421,-5.039544802699652,-14.069781123728035,-4.073171093722522,5.333474434603772,-0.06763534328399601
2.992,-7.1829900934669695,-12.012196617435507,-0.38025785293802983,-6.435104752521738,-14.672598270050571,-3.9590441833604473,1.991068592913166,-0.6122581919398726
2.996,-6.974851791198375,-11.371274185290645,-0.38115216496674975,-5.757542040145154,-14.36341400710387,-3.1686156018979545,-0.6459090837661279,-1.7051453470145361
3.0,-4.734400230370966,-9.920931165578338,0.7179645415000095,-3.1301494320339316,-12.744765309521767,-2.500213788941437,-1.7517146568421822,-3.4291822573699164
3.004,-1.0253814091258846,-8.350446631409909,2.2451555976286954,0.5311198607837468,-9.820974923849803,-2.627317051617183,-1.4940347672667258,-5.772796125088348
3.008,2.900961571442224,-7.2384882708710165,3.4120538652540517,4.052272672347158,-6.021198052083605,-3.665767926290755,-0.8072127048228595,-8.543093013030102
