Timestamp,O1,Oz,O2,PO3,PO4,TP7,TP8,Fz
0.0,4.547473508864641e-13,3.211653165635653e-12,1.8474111129762605e-13,-3.566924533515703e-12,1.1866063687193673e-12,2.4300561562995426e-12,-6.0254023992456496e-12,-3.417710559006082e-12
0.004,-15.589436742816552,-36.22214985158618,-28.182643203823808,-19.709255326101527,-37.62826339782588,-5.436931758484917,-10.041791830448545,-4.989470450124394
0.008,-27.418003710944696,-63.57645604650833,-49.328438379976895,-35.292281923182216,-66.41639612626014,-9.379878772868224,-16.928403689479737,-8.076331518806711
0.012,-33.19151962582085,-76.90016241004247,-59.358124507245996,-44.25345281531558,-81.19701810180862,-11.040532397845439,-18.712141147218503,-8.147379277400688
0.016,-32.84562127296255,-76.61458308630274,-58.63656167384617,-46.58815121426315,-82.29210507620495,-10.660850266860649,-15.31566878760404,-5.305412959845853
0.02,-28.259500161919092,-67.9244513711615,-51.31238185225193,-44.495220599931685,-74.65872924332112,-9.285071592868718,-8.388086406851201,-0.7483108434273902
0.024,-22.117464428432875,-57.83377360225294,-42.92112030939226,-41.10588385488177,-64.92263705217974,-8.126191157862706,-0.45204665978040737,3.8150072075249426
0.028,-16.62328898368218,-51.696150664932325,-37.63268417335196,-38.94767174691896,-58.05210756380385,-7.910424575617228,6.201725510509206,6.902212926396857
0.032,-12.743599115381542,-51.09836024255423,-36.59034453045725,-38.90940059643464,-55.456164165160374,-8.572833193867382,10.344249087801032,7.798912424797514
0.036000000000000004,-10.276894265830194,-54.00209810342802,-38.07361510430026,-40.14926727229617,-55.319985737982364,-9.439917584575582,12.029330492979796,6.6870544359223345
0.04,-8.555586145958088,-56.777260486618374,-39.16970310380598,-40.89485148539153,-54.663165323254105,-9.730552918384461,12.198155434925411,4.3787322428273825
0.044,-7.190981662585244,-56.6731939758194,-37.774050606580374,-39.571523367328695,-51.60456832063187,-9.041997236578055,11.982972325999725,1.85311026460095
0.048,-6.369708311735458,-53.30653962150517,-33.771542213806114,-35.64377638473988,-46.48522130500518,-7.537899916660024,12.099816346900141,-0.15248083089861098
0.052000000000000005,-6.576348278517209,-48.4963520215661,-28.862964320004245,-29.788633534865625,-41.3586819889055,-5.770879796190101,12.608203518213799,-1.3253634030597539
0.056,-8.02492011949149,-44.81948865865026,-25.33557855801933,-23.432470238321827,-38.4256216381291,-4.308980690654153,13.072061318815884,-1.7142736991116863
0.06,-10.261824164368797,-43.94136066936256,-24.659006823698974,-18.002669807278423,-38.56534440344426,-3.422251444272561,12.953638156363724,-1.5309341080294416
0.064,-12.231687438464242,-45.69104630713899,-26.71698676208503,-14.297786624994515,-40.84186297780484,-3.0096842530970633,11.987080619171664,-0.9643682049542264
0.068,-12.790956357310023,-48.35584895892442,-30.061771790673056,-12.285527417423154,-43.22594360958041,-2.7618236791508792,10.3365076068457,-0.08387645338558514
0.07200000000000001,-11.366660276871272,-49.8805659881673,-32.91746481104144,-11.349796846913236,-43.973841669411115,-2.4123698520230903,8.49944340303135,1.1589905411712635
0.076,-8.343719864450144,-49.14059554216437,-34.243313543724106,-10.780638247626285,-42.72939763747834,-1.898712000630951,7.0456679790528085,2.869277994484264
0.08,-4.915438287905118,-46.516924129272056,-34.22268781179528,-10.200004818993797,-40.67724123959094,-1.33420038611402,6.3540764796530596,5.154827104609126
0.084,-2.4588894800221652,-43.44322546647109,-33.9013050901292,-9.673786363912484,-39.650379548736645,-0.8451065763347998,6.508992594864111,8.09184639653661
0.088,-1.8112050783558047,-41.33691023886973,-34.3125168344106,-9.523305799567474,-40.84648221872027,-0.424930492299751,7.3762112435357565,11.69558123417417
0.092,-2.884934769587744,-40.667145791851624,-35.71135245603732,-10.015798973090774,-44.00328345724388,0.06304548805063348,8.762546394256141,15.86950257403371
0.096,-4.85025125983605,-40.746019769879894,-37.40589946011788,-11.160537225468985,-47.529734444365324,0.7255357382764913,10.537653394148485,20.345306847453045
0.1,-6.7357914439608955,-40.31049211625097,-38.26003694315678,-12.730205069229633,-49.459670595843846,1.4520003554086287,12.6375085300457,24.669809212016773
0.10400000000000001,-8.03042879289183,-38.400753886344454,-37.45208115641363,-14.43536739596339,-48.52909157471183,1.8697162735327169,14.973647091437869,28.280455421631817
0.108,-8.918797253293093,-34.97651620039466,-35.00888313213103,-16.115197335145766,-44.75660681691659,1.5157510261118148,17.32301491094659,30.67487616251856
0.112,-10.043187418677501,-30.934187641491732,-31.806757148626026,-17.823497651665157,-39.273483252160304,0.13699611852796068,19.295559173564087,31.601681826241418
0.116,-11.971631135341855,-27.569594390571226,-29.06646557829883,-19.74227338718938,-33.611607078617126,-2.067603785709238,20.42907976869798,31.169486053830425
0.12,-14.707248839712125,-25.858644890696425,-27.675862227769326,-21.96100080363805,-28.942977869298744,-4.42415015384158,20.37338364798233,29.80112720093803
0.124,-17.54610526330841,-25.9362923822895,-27.70021327486197,-24.23760630453063,-25.638940667266308,-6.031224418293078,19.084413369268667,28.0258732163119
0.128,-19.39249393713917,-27.073179546032627,-28.361296112481085,-25.91457534923064,-23.33913583052961,-6.156696410600247,16.917943574871934,26.23789129512532
0.132,-19.343577977912986,-28.13075243831797,-28.49296479699323,-26.07569941947314,-21.406583071039112,-4.583668294166685,14.544716358901937,24.551139535789652
0.136,-17.219262048537832,-28.20503774356423,-27.202595541097594,-23.908866867957656,-19.434339436805143,-1.725206531084126,12.701117010140436,22.840395068729293
0.14,-13.726347836975584,-27.089088041623818,-24.369195801449827,-19.126548821069107,-17.49814202371016,1.5521200290040014,11.884988811858314,20.951390060512082
0.14400000000000002,-10.119215750319707,-25.25206156804812,-20.674260826492628,-12.2008677165296,-16.009464456553523,4.305134080723704,12.150730693644348,18.926353059831882
0.148,-7.576276234850649,-23.444637023030502,-17.214626220461554,-4.2953074543814225,-15.363804149285679,5.900954099322675,13.101826599012867,17.097146501672565
0.152,-6.637472117312466,-22.221084235977298,-14.951016023524105,3.0907235382651663,-15.669044715739334,6.224134453849381,14.081322061917398,15.963780991170331
0.156,-7.0291286623438545,-21.6898918628304,-14.306918042906718,8.608310769830567,-16.746880221414308,5.618864629542131,14.453304966699456,15.903577286559887
0.16,-7.949474306697553,-21.61713978594755,-15.115741765065753,11.471388161262063,-18.36751097921137,4.638812636282658,13.843569029359521,16.89601707975727
0.164,-8.589278414043562,-21.69130043871826,-16.82490745142972,11.66653379183235,-20.43680952682849,3.759266767683563,12.257925500733208,18.449632299656482
0.168,-8.596581050155901,-21.773689643792686,-18.81010789826114,9.871774527558202,-22.993707997203252,3.2027861771739765,10.05969049635187,19.82591924350605
0.17200000000000001,-8.213590555812278,-21.98775680294636,-20.625122117822485,7.1362312930396214,-26.023971420365008,2.9283337070935858,7.834653558242088,20.446797981854413
0.176,-8.052382838831647,-22.625304592767122,-22.08711109393122,4.451401693036459,-29.246764298121086,2.7375398638490154,6.200543872596732,20.229101047647212
0.18,-8.659593335832163,-23.953642333384106,-23.219154401405646,2.385251294293397,-32.06749207516728,2.412923094664471,5.608123473960838,19.621486527974813
0.184,-10.119888948470603,-25.999070674596965,-24.094084646326976,0.9348542309872769,-33.72772799958197,1.8035891036758471,6.176301414948028,19.274169073570246
0.188,-11.973602498942562,-28.493863906184274,-24.745196795040307,-0.4043724053842368,-33.656800663863486,0.8174628310031622,7.57205709686523,19.51098978414832
0.192,-13.513657452611714,-31.04585353062285,-25.221909006600228,-2.4223130145239935,-31.87477348384787,-0.6476421801186092,8.977193233055353,19.925574920999242
0.196,-14.278761274032249,-33.41596726712214,-25.717394754759844,-5.910536022652728,-29.19587269953957,-2.752182612017947,9.21341262030915,19.393724301985532
0.2,-14.414553246468788,-35.70168356149935,-26.62721209191332,-11.37268250563011,-27.04282390773609,-5.666438385313121,7.073203249364241,16.5858898654695
0.20400000000000001,-14.619059878335111,-38.20841696552429,-28.36428983128407,-18.741447715915406,-26.801787399022288,-9.406483817482545,1.8434958577889589,10.76492722525196
0.20800000000000002,-15.681930250792131,-41.09966234976591,-31.016602141715843,-27.199707455817475,-29.04321407215853,-13.647486081812232,-6.180274914918979,2.444599707265372
0.212,-17.893540502644196,-44.069859836683975,-34.074317424999805,-35.22166762229671,-33.057060467190595,-17.651493595844663,-15.474743332731737,-6.5075739576991545
0.216,-20.69962128209457,-46.286766838572014,-36.4512118204969,-40.913717031298596,-37.02156109076833,-20.408549093996136,-23.585747647467127,-13.469747786293034
0.22,-22.842471165181237,-46.69750740511487,-36.87164921343937,-42.60096285580627,-38.79036414173029,-20.971328847562766,-27.922344498560623,-16.12106766973218
0.224,-22.920252147942502,-44.498388395453944,-34.43738314906438,-39.438895328634985,-36.87766458858718,-18.8538300499793,-26.770839049564774,-13.463138909490995
0.228,-20.10911307266383,-39.586526313032806,-29.13447542155209,-31.835890959283727,-31.209694351805354,-14.3169066949836,-20.08633877531103,-6.302699906190131
0.232,-14.673090622921414,-32.7564243436287,-22.00388776534966,-21.46521880540844,-23.267771984710166,-8.379946446845054,-9.657257123538788,3.057965876796512
0.23600000000000002,-7.938207091373293,-25.452552306288517,-14.802325970715213,-10.763989737900992,-15.466112809546217,-2.50773645885932,1.5102269803143393,11.787411385039464
0.24,-1.7598237611066168,-19.230853507222093,-9.317958599873222,-2.1125861745966326,-10.107003123450864,1.9171189056700726,10.347593193676474,17.683010927273386
0.244,2.243980540102662,-15.20176150806693,-6.676577197832225,2.965994991455034,-8.449427506804918,4.096679139722994,14.90028242702532,19.957036903946545
0.248,3.3282009404251234,-13.684941703538684,-6.9604279814449415,4.246846280206189,-10.313364269679031,4.078234260515899,14.990008291383333,19.32518536288903
0.252,1.8386811466417061,-14.17554893125767,-9.280375464375096,2.7081546836830483,-14.341666915831183,2.662610023960312,12.076043952213904,17.426803770244753
0.256,-1.053158804140141,-15.601924345147875,-12.241430274313995,-0.03605635855615574,-18.736341810628232,0.9999076665544742,8.429316605990326,15.925859439854534
0.26,-3.941152075871054,-16.77478027673282,-14.583670290317903,-2.5198703829470652,-22.111236749351473,0.06364694605648324,6.038586863566223,15.754403536433205
0.264,-5.799097204710588,-16.83744748610863,-15.673804165016978,-4.048700872771295,-24.02407934038965,0.24108917713351374,5.781511573133267,16.831750584029688
0.268,-6.321407222401252,-15.526805974581706,-15.616227803539664,-4.863159959515301,-24.93264800586928,1.2294082583407757,7.246247177390629,18.324041121408662
0.272,-5.8664141926299305,-13.151227657067572,-14.957608539794766,-5.790717858228696,-25.646086176954398,2.2746957845026365,9.216576263501661,19.22339574474175
0.276,-5.116474997659601,-10.369859494831296,-14.210897167633588,-7.613785612216237,-26.64817156738762,2.6071984877312424,10.48316085463652,18.89605880357163
0.28,-4.685203688814111,-7.9319412222240935,-13.51586246404932,-10.516026877539641,-27.73530725661172,1.8468112122383573,10.527041123647301,17.34074672507337
0.28400000000000003,-4.869741185533442,-6.458215294354964,-12.616835530833596,-13.888271231520783,-28.15768757887089,0.17686895731338836,9.731746948802815,15.080866684906624
0.28800000000000003,-5.581541743914178,-6.259117658207035,-11.105729750884068,-16.561983039731466,-27.108356756680276,-1.7640596759567977,9.071328308013413,12.823701745677868
0.292,-6.414997592047293,-7.180889968611691,-8.725659538860148,-17.324930417655693,-24.21346483032345,-3.1891677452906784,9.513831510169702,11.111356792653183
0.296,-6.8201987795340555,-8.579283135022077,-5.562601706060223,-15.478993185387894,-19.771516098869043,-3.515481578319058,11.471159064766535,10.126344638441864
0.3,-6.320868718662794,-9.532887756415787,-2.059755074221048,-11.207716688521174,-14.684441470645652,-2.607147566960556,14.559926328984934,9.701454343432376
0.304,-4.741839687418489,-9.260914230135592,1.135101499052734,-5.594493005466241,-10.138968904746982,-0.8252759801325524,17.76203292741242,9.47859332167467
0.308,-2.3535272693565332,-7.544590028279253,3.4178251981294014,-0.2740823220920401,-7.189239574920938,1.132097938514697,19.880350023624658,9.10901509108383
0.312,0.16899000749492732,-4.893216612134454,4.469436250757623,3.166200078829002,-6.39390561855444,2.526528869821531,20.052194020791713,8.398202622613745
0.316,1.9784908418350753,-2.343488262328588,4.370755572700332,3.7897104634304917,-7.650746643908457,2.8783383850670585,18.080099325897795,7.344248707414687
0.32,2.4154644180941176,-0.9852713991302986,3.519520783889787,1.6623889178529927,-10.31297999338234,2.144996939043386,14.456184948185511,6.093812527565825
0.324,1.3469200978754081,-1.4240279693796092,2.4193760997371787,-2.1765227008570545,-13.492845820884797,0.7255904118939789,10.13026833954679,4.869454418831721
0.328,-0.7115401805070745,-3.466665055947871,1.4427244262914125,-6.130733433479604,-16.41899144849176,-0.7045311890533537,6.146993465259376,3.892106939735161
0.332,-2.767404938627573,-6.176844197445209,0.703103285108202,-8.6675593801004,-18.66973099674196,-1.4699177396512866,3.30812535139036,3.3243034796397586
0.336,-3.8001787113017382,-8.314055218482013,0.07769424694155314,-8.904091198206793,-20.214227527669365,-1.1749164366568134,1.9816975704846413,3.2412796370612034
0.34,-3.3041601125580815,-8.987791971592467,-0.6960677985087553,-6.944239501020256,-21.333269620206664,0.11396111829409072,2.0754743577757386,3.62603922198951
0.34400000000000003,-1.6291914030297932,-8.15683014183451,-1.8931283519047386,-3.809716072616089,-22.444498525713833,1.8701791742094427,3.1272695263225225,4.392399538799386
0.34800000000000003,0.11819712703736895,-6.664374922172282,-3.677854138071015,-0.993349472883879,-23.87637105977302,3.3169761694809896,4.481270335039241,5.425760687067083
0.352,0.6331116883543841,-5.738301870897094,-5.999652360116639,0.19199539933448762,-25.648880421659378,3.7756872550675524,5.49812240777657,6.618735877484568
0.356,-0.8596920363525693,-6.2429866028806575,-8.555371196772219,-0.8342551886451641,-27.384116474924017,2.989306427337569,5.734424731694704,7.879528690693184
0.36,-4.135728002416627,-8.160449281032397,-10.877219857075278,-3.7448171654883637,-28.46284562536801,1.2497520737319254,5.047463232927425,9.103046165768163
0.364,-8.042093480837272,-10.605810315085108,-12.514805139110576,-7.560926841094632,-28.36382893542777,-0.7538754481624945,3.600228444668597,10.129981127576556
0.368,-11.090988242981057,-12.363009072414929,-13.22488123941469,-11.185359551652304,-26.99923869099559,-2.3007490281097454,1.7712833088013071,10.73179302503776
0.372,-12.215715274635162,-12.58500790871648,-13.06125466965921,-13.899862770203583,-24.82181177337223,-3.025453371197573,0.011960268743519853,10.653686750609667
0.376,-11.268222670154382,-11.250673660229646,-12.332240179658115,-15.57555296195845,-22.626646258331707,-3.11321301743335,-1.3218788611953154,9.714029786613583
0.38,-9.004968230415752,-9.157229982244084,-11.46950715115247,-16.54422167445177,-21.177114970598964,-3.1853458116776663,-2.1124545145510707,7.908877381170004
0.384,-6.579395462916278,-7.447778510089008,-10.864228206803991,-17.24303414460312,-20.84862692282006,-3.9192557926163394,-2.5361361709147054,5.455768632307857
0.388,-4.853843665480679,-6.9490810868193895,-10.731961220411929,-17.87120791425416,-21.471557968573133,-5.606851594555492,-2.993029223115224,2.7467605314952896
0.392,-3.941675491972802,-7.683234461778643,-11.04122410772295,-18.25592540397417,-22.43063174173356,-7.905111931580297,-3.919690841034761,0.21469256221270117
0.396,-3.2403471855051933,-8.840095159231602,-11.540123128927469,-17.993623410988867,-22.974841713931234,-9.945484863505216,-5.566385848159777,-1.8280737747507994
0.4,-1.9467869993569056,-9.276448923724613,-11.909723306406788,-16.778662307491054,-22.61786686775615,-10.772526773701228,-7.84819577489076,-3.2927196055078802
0.404,0.310538414413684,-8.231160733648542,-11.956176413144616,-14.680715475440493,-21.398459686883715,-9.878110849505862,-10.343096986175706,-4.303100377521407
0.40800000000000003,3.131510832368088,-5.824090046801278,-11.735646787872167,-12.19046356906591,-19.854181779113723,-7.52338827444266,-12.454949252127276,-5.0778482079445775
0.41200000000000003,5.520688393615012,-3.017990960520831,-11.531327641460976,-9.98654813011673,-18.70713918547258,-4.6526025065299805,-13.666360743732142,-5.776846887800546
0.41600000000000004,6.461810504928628,-1.0694275168199465,-11.684065073900978,-8.573623074893804,-18.45217036785739,-2.431002901312283,-13.761836509311513,-6.396766390820087
0.42,5.493973703602878,-0.8376059110329228,-12.394605366557588,-8.04587051026882,-19.12118609616853,-1.6559857795651531,-12.920908813584152,-6.768439038126808
0.424,2.927285294410358,-2.345086313892145,-13.606667505688009,-8.117863202454574,-20.339514025028972,-2.371972160550949,-11.634518235015392,-6.667635776412096
0.428,-0.41737560661951956,-4.815887620190514,-15.024164583779667,-8.392975871498473,-21.60431399047806,-3.9016581266110073,-10.478198090537953,-5.97408582547172
0.432,-3.7296105646484583,-7.113514535577433,-16.237827285837724,-8.672090218347186,-22.566997664541486,-5.259255468099461,-9.85413241687614,-4.786251967755836
0.436,-6.63805801089038,-8.322260795304551,-16.899405230989714,-9.088940845053635,-23.14573968212033,-5.700218403084446,-9.832985194786936,-3.4252260384748405
0.44,-9.281760124822974,-8.181447775354208,-16.880395094761507,-9.987351941915549,-23.45585977687336,-5.09989913186731,-10.170553823495482,-2.3194877524446187
0.444,-12.003320794738073,-7.15266202297747,-16.330838216359695,-11.616667871688039,-23.640968659654913,-3.967360760940931,-10.464971356407755,-1.826781512108451
0.448,-14.896320788916483,-6.109518056078091,-15.590813274581816,-13.8359500721573,-23.724352646098396,-3.097522191326725,-10.355460916880283,-2.069091047694951
0.452,-17.519295491843952,-5.816015608905735,-14.975642230964564,-16.01442116424015,-23.561141404478214,-3.0811300876163386,-9.649905859666775,-2.85328374465798
0.456,-19.016877700367985,-6.504646813019232,-14.564498917667729,-17.23065052956398,-22.92700945259108,-3.97426715169454,-8.335756089506168,-3.7280553974419273
0.46,-18.617288460704273,-7.810081836615244,-14.148832249263197,-16.709808878087657,-21.71376747984539,-5.312635972512902,-6.50095437364446,-4.153394871383233
0.464,-16.167814784696265,-9.034978829806922,-13.36476650890092,-14.249605152201372,-20.076940902348344,-6.42484612462343,-4.252210887760299,-3.709194062328819
0.468,-12.344934871197875,-9.54529173216523,-11.939194606491018,-10.390297555801583,-18.417836093973598,-6.827730387556224,-1.687592181004427,-2.2588442340231896
0.47200000000000003,-8.373163447375823,-9.048508014146364,-9.8972481376613,-6.211592421385742,-17.175038766403773,-6.457441844371475,1.065261193644947,-0.003139718358366461
0.47600000000000003,-5.411727170107466,-7.624754244723778,-7.603908458811835,-2.8546184611502565,-16.551647317023292,-5.612097151076405,3.798054896090701,2.592834523404265
0.48,-3.9846621041967465,-5.574544035666156,-5.635122440977484,-1.024353231139358,-16.38889240017751,-4.674407616562148,6.216754420199766,4.956809282447342
0.484,-3.7964855184806883,-3.2254158679576044,-4.528436443899963,-0.724586270440331,-16.269415442416197,-3.8216596521693025,8.016953687280642,6.588968023672164
0.488,-4.034880004663383,-0.8253126520804468,-4.535365278776757,-1.34878065682277,-15.790329965272695,-2.9182311777195906,9.011133560260909,7.20564052507934
0.492,-3.9453723019408606,1.4624259669179267,-5.489888635559225,-2.0471952115816237,-14.821430659193961,-1.653333974606662,9.228802567485968,6.801173693656301
0.496,-3.3089300920865776,3.5050906132451427,-6.8663315534946125,-2.163029549530764,-13.594834573400737,0.17244681231960257,8.924490070510828,5.621362176856658
0.5,-2.546017520003766,5.1264888164590765,-8.034276534293197,-1.5376333766973538,-12.602442398175967,2.409767463910418,8.454243527813713,4.074304487911972
0.504,-2.400263012318036,6.100189253256719,-8.5681068064128,-0.5449576800249183,-12.343514496642465,4.5333075491226875,8.087846514776242,2.612015633863222
0.508,-3.4187655614480668,6.237052962599984,-8.452894302657205,0.12653269948073032,-13.055690916779485,5.851822240468511,7.868555750272799,1.618057776421825
0.512,-5.551951998621131,5.529061211056838,-8.06777625090366,-0.16717254346553645,-14.553457059258935,5.845449021115165,7.613502245598246,1.329368171042404
0.516,-8.13462034070713,4.250474866839827,-7.952156689034314,-1.7028133645813464,-16.253696050343812,4.444076695746599,7.0611966548978184,1.8011153528974262
0.52,-10.285575050958016,2.8940956592770526,-8.50963750823859,-4.276855332457629,-17.418502038234443,2.0781197839465637,6.072777559051103,2.9061931130770944
0.524,-11.449423418852724,1.9607639004277075,-9.804128552564288,-7.3157058211950385,-17.497558354366994,-0.5180094045669117,4.7533279831877255,4.3647681667404505
0.528,-11.75500417481371,1.699156326228941,-11.547366696827737,-10.136093736493816,-16.397060926090177,-2.6285464590114174,3.430907694408493,5.801456293996955
0.532,-11.947054683550611,1.966402255133838,-13.250006981134657,-12.20871048435542,-14.518732519333756,-3.82999612270643,2.5210839472163435,6.825253903101029
0.536,-12.910748465906636,2.303204132301902,-14.435341931450038,-13.298315032914573,-12.55091098389863,-4.085989804924964,2.34698514411609,7.121225850866615
0.54,-15.091666077439863,2.1551182672764995,-14.833624005709174,-13.463116103359454,-11.158966467196162,-3.653540838629607,3.013071113627248,6.533465061387659
0.544,-18.153559638845728,1.1436046695592452,-14.462105248676625,-12.944172238107903,-10.7191380248446,-2.890759458309457,4.388790707176151,5.110042784096176
0.548,-21.073908006389363,-0.7426730879429506,-13.565751510597023,-12.016637344137711,-11.197000307481943,-2.0787744831748465,6.188368398414866,3.0997636555736383
0.552,-22.619098940713116,-3.101207699665199,-12.45022731312562,-10.865165422508658,-12.183973391278272,-1.3394789594304055,8.08245958005864,0.8979114064166644
0.556,-21.946795956222868,-5.237674217669825,-11.315256402036669,-9.536583119192452,-13.065011146381124,-0.6688921532027243,9.776487705685124,-1.0551327181092258
0.56,-19.03330649905409,-6.449031900415149,-10.203313096506399,-7.99385415602596,-13.275546530170166,-0.0369135336498414,11.029927388371663,-2.3932348979048967
0.5640000000000001,-14.709179487561958,-6.338156578963033,-9.066830721647017,-6.224178728584746,-12.53248213285013,0.5238904984492567,11.643324314056128,-2.92812211437169
0.5680000000000001,-10.30398644938558,-5.019828926250426,-7.903185984860357,-4.337164061509364,-10.944926975739717,0.8913416557373095,11.459645502877352,-2.7058379517804916
0.5720000000000001,-7.071925338200755,-3.0839121212969633,-6.829188736580475,-2.5746590080162006,-8.937807889183158,0.90407980227865,10.424996960807619,-1.983673714980081
0.5760000000000001,-5.667375704416225,-1.3165818679566512,-6.034474321421781,-1.207654423979859,-7.022774659163212,0.46218407346807666,8.68794832946329,-1.124234995857228
0.58,-5.955571314903329,-0.3629717498787972,-5.685013728757131,-0.40790283362988156,-5.575537351061779,-0.3917076754691369,6.630898448810167,-0.45077313843974676
0.584,-7.206332066848484,-0.48891687183130905,-5.839445771731113,-0.17040051837892345,-4.723342972873821,-1.456557081391947,4.778095820860088,-0.11851381421097229
0.588,-8.534864475634784,-1.545704170386131,-6.429690036152714,-0.3395239869945139,-4.3782657449570666,-2.431929113672035,3.596791255135897,-0.061693471563185276
0.592,-9.339486374608807,-3.1264719152738754,-7.306366273770511,-0.7294090456311708,-4.368367617737842,-3.0282583040691353,3.2835458422800885,-0.04217401893347428
0.596,-9.521183820046055,-4.821469867520424,-8.313166781802195,-1.2786594173786359,-4.576214882859579,-3.0815953464156793,3.650930370753576,0.21692418217357456
0.6,-9.398258200117146,-6.448268934482346,-9.346358444803045,-2.15242665640055,-5.032281656359123,-2.6202628160407935,4.1880158726816745,0.8744328121153842
0.604,-9.399085152795738,-8.121247643127926,-10.356380949274428,-3.6995043237799976,-5.901955888357844,-1.8535478093983222,4.27207134724491,1.8609931765361183
0.608,-9.716273247022093,-10.113482152665657,-11.302608490134787,-6.247995078742603,-7.365473732188622,-1.0718622740248491,3.4297188235478524,2.8809138773263294
0.612,-10.123191354659749,-12.575649840076858,-12.083868058396964,-9.823181738474467,-9.431818298282614,-0.505961697562721,1.535372273182522,3.541944599126636
0.616,-10.059197910031354,-15.283912582029878,-12.510059074088767,-13.951575342966361,-11.790546636364608,-0.22273774590648543,-1.1469910838438224,3.5524378744768925
0.62,-8.968699099309825,-17.623226851856835,-12.37272793709087,-17.710078014677812,-13.828199269259244,-0.12592678333712304,-4.0849729633996645,2.8945294239663353
0.624,-6.693428006168969,-18.836750916905437,-11.570028235733837,-20.036188142553204,-14.818927810056598,-0.06693988180249022,-6.676634353231634,1.8779728282526114
0.628,-3.674202877528242,-18.40494499786483,-10.189209836462874,-20.168153064762294,-14.198296048754443,0.009199037234212781,-8.424929204483966,1.047870110521574
0.632,-0.8268080606722936,-16.334451768470096,-8.471197526189329,-17.997501674495595,-11.776377746560387,-0.02391281569843251,-9.02486342271899,0.9719853924480204
0.636,0.8600639959405096,-13.189029721611975,-6.663565152146596,-14.144245421780912,-7.801254447197133,-0.4232940019590803,-8.38038393164823,1.9908355797965247
0.64,0.8076153941736373,-9.850713132718072,-4.880454955350849,-9.705377448863185,-2.886517096940821,-1.3901679714910005,-6.602555485860064,4.044303313087241
0.644,-0.86012815294281,-7.130386309094077,-3.0705904432507665,-5.801063495005911,2.1630487065285386,-2.86068039448618,-4.030243937088283,6.639806262931261
0.648,-3.3642367940236677,-5.428957213692265,-1.1202871600932807,-3.1403163235584364,6.562042472693046,-4.416068231907005,-1.2332731659197804,8.999835367147025
0.652,-5.619864247333318,-4.607212413247008,0.9863350794494576,-1.8015822999078526,9.744232837742123,-5.406304628022546,1.0636981479438616,10.333524149980331
0.656,-6.7045403209460614,-4.117878841961264,3.065933896446836,-1.3217516607386663,11.496919977427476,-5.261923150982095,2.1859083190586213,10.128439999635981
0.66,-6.221715162240984,-3.339967010056051,4.765495183646729,-1.034474945946192,11.96931215966714,-3.834104825919824,1.7908152684949874,8.35597306691778
0.664,-4.396001301114385,-1.9350005846649079,5.728675734943553,-0.4527831476669544,11.559284839878643,-1.5503347842715938,0.09434185421718877,5.507680235394432
0.668,-1.8904996620890975,-0.04505001129605368,5.787220962386028,0.5050136040260851,10.705303677112699,0.7406666827004078,-2.1154266994156123,2.431839636589914
0.672,0.5191665638647882,1.7691800582219919,5.049392066340185,1.5362071612372157,9.667826053285388,2.182173242871703,-3.7600214932282707,0.012684499693591533
0.676,2.2123814989334902,2.801175875234417,3.817085762407521,2.166853561778227,8.390594438913645,2.3587302329180533,-3.9616654063034504,-1.179440764010013
0.68,2.8077104768256635,2.5189805369687526,2.3523140358514807,1.994457898148311,6.492039996409187,1.5202906858298775,-2.5275532396256146,-1.1220661490634694
0.684,2.111060805993155,0.7998568884053139,0.6600042477084868,0.8297389915833442,3.433152611909129,0.4203279161886453,-0.14301194328229938,-0.35386808556961036
0.6880000000000001,0.04626363451515414,-2.016795182109331,-1.5377452092381523,-1.3066862494502054,-1.1754999749810013,-0.1566506274264854,1.8762692278698232,0.2648096097812065
0.6920000000000001,-3.3215647186008237,-5.232785675330845,-4.563685131652736,-4.2605693778831215,-7.230817157007173,0.10491676929045513,2.2094646307667296,-0.03651341528128338
0.6960000000000001,-7.6683190576994384,-7.998284735639263,-8.417202694386301,-7.805261664227773,-13.94204326786915,0.8215475561350907,0.22078306255883895,-1.5513500768071014
0.7000000000000001,-12.337571281832094,-9.585336954749767,-12.548323758613964,-11.654697929271578,-19.967021464476193,1.109512213650964,-3.6660962663093484,-3.9258543351693262
0.704,-16.438551541623823,-9.634244815247584,-15.950110452970467,-15.44080583377341,-23.867156681802044,0.1158222821167918,-8.119746176292097,-6.3034583340015224
0.708,-19.143619973101462,-8.300283573676632,-17.585615397839703,-18.728012889343727,-24.707633173822998,-2.422406723903587,-11.536402579005076,-7.7317536829089875
0.712,-20.046650485796242,-6.217503613500661,-16.92208035362813,-21.098911383231716,-22.492520739707096,-5.925361898590443,-12.826920683957823,-7.637209588935116
0.716,-19.339004839000133,-4.245802973376945,-14.246447724012034,-22.273677711075237,-18.180524118974333,-9.190693715572028,-11.925056028285645,-6.1230759303108515
0.72,-17.681455418775037,-3.1051831069622575,-10.569596989474604,-22.211286817199852,-13.261737627529412,-10.97678719267208,-9.75502187007672,-3.93032271699111
0.724,-15.813600899829375,-3.041547067746192,-7.135623159882712,-21.1105705385295,-9.079885004473622,-10.61700883034979,-7.661326151120063,-2.065233796167391
0.728,-14.136118343922146,-3.692083333573189,-4.815668682183464,-19.3029338077977,-6.2530049595394335,-8.326775729950764,-6.6305574224801065,-1.2845288364133824
0.732,-12.50813859937576,-4.228678166092438,-3.715920147823252,-17.086899759434658,-4.477590954992971,-5.04525935356403,-6.7444777397954825,-1.7063423382806278
0.736,-10.426517602249938,-3.7376144085041263,-3.208218602263152,-14.617934109236744,-2.808983459728286,-1.9197551546218947,-7.154116022076543,-2.745621453688618
0.74,-7.529837535021532,-1.7104447211336815,-2.3871614353579895,-11.955774844308687,-0.29833542025131665,0.24271072744689415,-6.595422350980563,-3.4148553222890996
0.744,-4.077303124304112,1.6158250980401236,-0.6606218556467347,-9.215096189153309,3.38006405813975,1.2451230347490296,-4.144728722056433,-2.8262572944405653
0.748,-1.0659634790703336,5.2561811622094545,1.8686531229611816,-6.711243750849748,7.645845207168378,1.37940585335946,0.20148745093760922,-0.6403770996067839
0.752,0.1576128754394972,7.86218971359514,4.450921152298619,-4.963600367407226,11.237279020952268,1.0520661028371348,5.4441145230714785,2.767063526883943
0.756,-1.3861650345859262,8.327591070816744,6.123735716918846,-4.505723211169451,12.817347105843574,0.45240143435712277,10.034327470149277,6.489924975442982
0.76,-5.691192071346258,6.2719760386282495,6.219965763295399,-5.614010175120276,11.592368902012723,-0.5193435988027686,12.574524674378448,9.502269750173566
0.764,-11.618119523463323,2.179951212143573,4.656211920160992,-8.110732654362451,7.631188510331851,-2.035859902679347,12.404289666639578,11.077447770755224
0.768,-17.353314663348733,-2.8646676539872526,1.8611280115285536,-11.38551414979662,1.7495920502959574,-4.010482548102814,9.790217030216025,11.025361892833999
0.772,-21.24079999313404,-7.677462620676643,-1.5469489951986035,-14.642185720552842,-4.901819106758033,-5.92376404819492,5.679040396159375,9.672124817867154
0.776,-22.51132311923345,-11.408292399915734,-5.079998356973431,-17.22547443331218,-11.261166760710662,-6.971924946846527,1.1934968380209998,7.641365007958077
0.78,-21.51419943508257,-13.73007236043745,-8.502900115881033,-18.854487110940042,-16.59611852801911,-6.489338974691399,-2.8293298408676084,5.572170989956842
0.784,-19.36487521854004,-14.743088160400081,-11.710067829292601,-19.63799744434751,-20.496783758718983,-4.395341268235161,-6.037506677930458,3.901140006354982
0.788,-17.261554497774664,-14.7290900811815,-14.50577008470258,-19.88480953934627,-22.737368730887457,-1.3741605507996968,-8.486616976536006,2.7736195782307087
0.792,-15.876963267218443,-13.941141907335577,-16.495844554509326,-19.837660089626134,-23.173518739977208,1.3619947692051433,-10.390718181754272,2.0776760347335586
0.796,-15.158591724541285,-12.557247652039054,-17.193178848429994,-19.49858126298515,-21.769322012886736,2.6319783756876536,-11.886565410074905,1.5573582965159702
0.8,-14.615606286095298,-10.810278590379198,-16.296562646067315,-18.665703153708503,-18.746613240638737,1.867704296767776,-12.949573840238301,0.9624699746699703
0.804,-13.817944074730462,-9.1174898833027,-13.942536558909989,-17.128405400625056,-14.688160179918713,-0.6053875824448491,-13.46595981040186,0.18290205509777646
0.808,-12.722961450312512,-8.043962875984661,-10.735215107711792,-14.864229697976807,-10.443563238768,-3.7368828224096386,-13.363788110759446,-0.6608059510154503
0.812,-11.635336568257944,-8.065510852094286,-7.496746364059,-12.109529355819568,-6.823111492715059,-6.275366879931945,-12.69593579247707,-1.2281318110790398
0.8160000000000001,-10.850831926508448,-9.242943024856501,-4.878872982796384,-9.251553899588524,-4.219567604972702,-7.366102539486754,-11.620699170807567,-1.0950940760246253
0.8200000000000001,-10.2987051556819,-11.054063870478863,-3.0955305749456112,-6.633010593430688,-2.421297491700277,-6.9065488555572845,-10.326345497855867,0.015521947092198118
0.8240000000000001,-9.499327047290972,-12.544768374364345,-1.9275401533657721,-4.413318485375785,-0.7543606163864229,-5.49828300456379,-8.952440506603986,2.001454456044808
0.8280000000000001,-7.882117581525138,-12.752555152520909,-0.9740939638021437,-2.5613458443765875,1.5014940067357676,-4.040671961026472,-7.551761390213889,4.298094813232403
0.8320000000000001,-5.249593790638485,-11.17449251368236,0.03951903011175606,-0.9625845551587053,4.663703959452319,-3.2069169969328755,-6.100516426250396,6.052789181246954
0.836,-2.044556414662239,-8.009335152266116,1.1224744908797857,0.46131728127040716,8.443381967622832,-3.088186056907415,-4.518249619453227,6.520378828442618
0.84,0.8145014310169021,-4.050392592526396,2.111376897480163,1.7088830501548573,12.07708081787842,-3.1812042201078414,-2.6845554137891194,5.490489192254382
0.844,2.4471685918543997,-0.30512224633316,2.888149804844168,2.739482116454324,14.692740188797437,-2.7221194249518597,-0.49273686967823727,3.4843098860106325
0.848,2.530921085716951,2.4020292003149115,3.4985735296678713,3.51661527900242,15.654863880732787,-1.1870880207954677,2.025055066728558,1.5425675585146514
0.852,1.4586340016682364,3.623163432306182,4.037592936407988,3.9730546493833274,14.681308220217556,1.3068932870611496,4.526921554301777,0.6436041012459235
0.856,0.0029852444466119676,3.2101067949412774,4.36300110902711,3.898436860416714,11.707187956242304,3.9086685050406365,6.2474997162665815,1.0436476934398256
0.86,-1.3062177059088933,1.0767847167951614,3.860592132876436,2.8329938271227775,6.648506713597802,5.30652882458332,6.068910490015987,1.935183540122953
0.864,-2.6403128576984702,-2.9422781752685925,1.5288067940225685,0.12640328992999006,-0.673404686402213,4.268834870638827,2.851869878412299,1.6926122841509414
0.868,-4.807003587264571,-8.970821533947712,-3.546602110672943,-4.762397884129806,-10.30914126936047,0.22263403251606473,-4.030837347998956,-1.330287385648294
0.872,-8.634184607417964,-16.735569203496734,-11.517956440381234,-11.8114858079051,-21.741321419095957,-6.382682162944131,-14.176330128357577,-7.82880649552399
0.876,-14.140866728335329,-25.209767543067677,-21.283299865206168,-20.071267831252143,-33.51746945818128,-14.102453034490619,-25.944264207125528,-16.922785744864374
0.88,-20.07423432790427,-32.595157194978015,-30.5601386995733,-27.683969137565274,-43.314280122565584,-20.936329057393234,-36.76458598672875,-26.273578794177446
0.884,-24.201896683714683,-36.78585156104124,-36.59698829979638,-32.39640075416686,-48.553401585496474,-25.016839960014305,-43.90244333152686,-32.95657041261427
0.888,-24.293141365937828,-36.18194278613173,-37.26170867921749,-32.4112482678211,-47.38472097729499,-25.275191043581632,-45.39761361330079,-34.690370440463695
0.892,-19.285904573981526,-30.457220351879897,-31.976514923018165,-27.18899640273201,-39.56312129197304,-21.80584683548524,-40.76561963617266,-30.81476564483108
0.896,-9.976749978043259,-20.84701153097415,-22.011484632452742,-17.782344587242648,-26.737579079191125,-15.766456765941204,-31.135030733614613,-22.526926359382728
0.9,1.1860771401091492,-9.777129033747642,-9.999790442446306,-6.503961866177551,-11.966738870108806,-8.866076728220115,-18.761913147761764,-12.275155616599147
0.904,11.135211093401082,0.02342580990952481,1.0861253057339848,3.9370953884582285,1.3529946454979103,-2.6826989493144744,-6.172906500143531,-2.658080152358197
0.908,17.498767200729688,6.499717363344851,8.999840099653971,11.420819570344118,10.660243938231869,1.8854845608753346,4.649435078055925,4.602521298398869
0.912,19.52447631395799,8.896137164971037,12.850773563711034,15.069562047264972,14.983998631781965,4.797324684969359,12.688763801304802,9.121531747213561
0.916,18.16572013667723,7.775598408398215,13.087348313349477,15.301362758987974,14.990730044728288,6.628441995504827,17.81657599347211,11.590958235392206
0.92,15.349998964136775,4.486680891487175,10.955276002275436,13.33518120890389,12.378780871645727,8.081574088830351,20.385657728000524,13.06060986146473
0.924,12.90716976083744,0.4399390830192029,7.805835390876822,10.488657878015715,8.994788533449128,9.530062967401552,20.803431375083235,14.222866241399085
0.928,11.760878610165385,-3.423824553583631,4.608717798046225,7.654118503391259,6.108760355315143,10.837913980674834,19.35072823411311,15.100351368642194
0.932,11.764975132675698,-6.744427187541499,1.8423766565626774,5.185405687810086,4.154483864795717,11.533013962511971,16.302691774813397,15.252733804533175
0.936,12.153355697787756,-9.477220640066802,-0.3220595250439664,3.144021078021743,2.945041001004837,11.192910378812133,12.175290220026469,14.283104849186696
0.9400000000000001,12.22962939243593,-11.5356195825615,-1.7845113217123094,1.6276319479814099,2.103670062403422,9.79453028069875,7.833161064828757,12.265361650133661
0.9440000000000001,11.82456246872462,-12.625088939080795,-2.418520126466717,0.9155897770904078,1.412675752315332,7.808862624521299,4.295423573238368,9.80268040466093
0.9480000000000001,11.266505845142929,-12.401673421491633,-2.1584882533589553,1.3110430173773,0.8939765183997448,5.985665116103313,2.2924803252232997,7.693434060689857
0.9520000000000001,10.977555135716685,-10.808211867697716,-1.1382613790917446,2.8141363587408708,0.6571065080181935,4.956162146749823,1.8534285425109687,6.443136013287914
0.9560000000000001,11.042722311018846,-8.31384758622513,0.2811064030813806,4.897733958170811,0.6978028095796294,4.892213930515172,2.207951464940524,5.944833328627233
0.96,11.078398737209014,-5.853497643642114,1.6493267931750073,6.597040499828646,0.8159878929858317,5.423828753828177,2.1179929898127017,5.544700447795094
0.964,10.510303116113644,-4.427623082273804,2.6633078035280238,6.938826512748559,0.7359510898695865,5.856327599030639,0.5188961852125424,4.458982545208828
0.968,9.059456122024047,-4.578759243636652,3.325564426807585,5.488621659210219,0.3214513672471777,5.556354798315976,-2.8808554189596243,2.2837777503959082
0.972,7.096912691709928,-6.051106765522057,3.909828459585927,2.6868669310511937,-0.2658265194194087,4.291715424849295,-7.3791530271642385,-0.7100297798871225
0.976,5.577515267947392,-7.863460486347382,4.747011715443891,-0.26282277863584635,-0.5866513285967058,2.337069905694634,-11.577612298672626,-3.6771831047619985
0.98,5.53340309332517,-8.805879863117116,5.952884384322942,-1.947690277675317,-0.1551220214774649,0.30761834714990677,-14.061909175677947,-5.639260186057568
0.984,7.424961897640678,-8.09467794339073,7.2899253493392475,-1.4596074149093425,1.2641354590106892,-1.1685175619102237,-14.108221120473573,-6.010381460623736
0.988,10.730751980047406,-5.845341626203723,8.250706921706948,1.0969582639645523,3.4484675462109604,-1.752274246112366,-12.034517184568365,-4.911159715894183
0.992,14.041132776425897,-3.0877394893306693,8.3189104307343,4.586525879241792,5.732786640486545,-1.515807650743835,-9.013314015848398,-3.1064630336999883
0.996,15.672754029652987,-1.2680022320700317,7.262736984167518,7.356629947384212,7.272815473308588,-0.8472337886041577,-6.464821961148839,-1.6137046664699888
1.0,14.49834246259884,-1.502057962238224,5.267217374823014,8.023023012039122,7.410748574033718,-0.21685713267128826,-5.368208921014105,-1.2021726613447683
1.004,10.554777511601278,-3.9774022434034215,2.8290645766214095,6.127628523495291,5.966309368553597,0.04691614940490396,-5.850666711560457,-2.058799423239985
1.008,5.099014488228701,-7.83694148876633,0.479125587604774,2.334449050504835,3.3085120982683756,-0.133074539253629,-7.256155796830159,-3.779350069946796
1.012,0.08003248377135286,-11.606337877978971,-1.4875447406975306,-1.9162130367029149,0.18984754519345826,-0.613066367941709,-8.599304403583288,-5.657620071933397
1.016,-2.703362486079932,-13.91005319826749,-3.0981329697546665,-5.091820148911857,-2.5566670330816166,-1.1462653524498183,-9.120321869545684,-7.097581292773471
1.02,-2.3469264085305164,-14.10401802612392,-4.573219034542455,-6.234337624495758,-4.3212629441246895,-1.5073847406496768,-8.638901682555765,-7.920920838257931
1.024,0.8638642079663084,-12.482699455563196,-6.075361354066872,-5.271246206632876,-4.877553113239096,-1.5619207698482498,-7.533282641618345,-8.412325239677426
1.028,5.702620695328751,-9.98803195456193,-7.514584169151835,-2.8656920311516947,-4.367934152049942,-1.2730685983731966,-6.417478929452789,-9.099656499321839
1.032,10.624616521694975,-7.618826376204619,-8.54847339438799,0.05572134599270884,-3.1558243730797613,-0.6784206344699442,-5.751902809077266,-10.417418313856967
1.036,14.427796315242649,-5.887672450206432,-8.775524513113293,2.80551643392166,-1.6201318033265646,0.12342202732171881,-5.620623636469911,-12.442829106025112
1.04,16.61944249999162,-4.658562065390845,-8.01514307770658,5.177176462460258,-0.01651142929903404,0.9718569539385902,-5.782580463375525,-14.836829971694296
1.044,17.37755951453962,-3.422801660387457,-6.48540207328379,7.332628530486656,1.5531922845042412,1.6497420258263862,-5.911910702288132,-17.01412683945469
1.048,17.200635680158065,-1.8163661045785928,-4.762250985801911,9.447601747847182,3.066750624434275,1.9142358363466112,-5.84770890757666,-18.440524156391668
1.052,16.493356972219857,-0.01609584303491296,-3.5242497661955348,11.38375758329445,4.475322209239055,1.5639712153963572,-5.693799257165452,-18.9001143502911
1.056,15.370992486684642,1.2967833764471979,-3.199185391859505,12.650212457606028,5.6671955450008,0.5372757648200848,-5.7095065419231545,-18.582669396887436
1.06,13.756910948121355,1.3907641662119712,-3.7247614713227097,12.682038705093255,6.516604716482898,-1.0126654754467106,-6.096395793707892,-17.94570757457664
1.064,11.641083620499522,0.06544100637243044,-4.563219485803953,11.259056313162853,6.988130519507509,-2.7192002463663023,-6.832789668102556,-17.4406706208881
1.068,9.280561787745803,-2.055819921515724,-4.990037662817068,8.77581831074693,7.19828560018635,-4.097837289082796,-7.66768878306716,-17.25400295418013
1.072,7.17761621841991,-3.760853946513471,-4.511704878062167,6.148010166436882,7.373179382658087,-4.71449842626361,-8.277352358143164,-17.19957592421997
1.076,5.839213650929336,-3.9114696982394834,-3.17751379643712,4.372354317002552,7.714478295043373,-4.360477886009045,-8.462158132930709,-16.820055744667975
1.08,5.455912202431627,-2.180036159762901,-1.6138203104196887,3.9673121372018,8.22900114860689,-3.1645843219766103,-8.267266825573074,-15.64807880922461
1.084,5.739827783733309,0.6193290202245052,-0.7447006449352536,4.640353110162536,8.635069759779636,-1.5828298146589272,-7.959915904946548,-13.499305755744171
1.088,6.046549078052023,2.8444438551599642,-1.3442593502389446,5.399584126290483,8.419751637404428,-0.2565498017482968,-7.898863123165716,-10.646792762813615
1.092,5.736193191677578,2.867720516335876,-3.636511266851302,5.094096375418747,7.058676443994466,0.22874062281406626,-8.378972752952198,-7.776118039961634
1.096,4.569630762419431,0.00758627198564632,-7.139700260953339,3.112651933744643,4.324332063528032,-0.40147358466883554,-9.528421796340423,-5.7305734762912515
1.1,2.8679362666699335,-5.00873938731894,-10.853606046177541,-0.17458428723812958,0.5079601723536324,-1.9579799133571418,-11.281635973256684,-5.157431488046324
1.104,1.3224944751248557,-10.320554533765064,-13.685873479373726,-3.499320801449283,-3.5684259504451994,-3.8209029281458884,-13.40293465511645,-6.2156375598069395
1.108,0.5504913307015418,-13.839498991295486,-14.92033375365138,-5.3037208205380715,-6.804121163970393,-5.17392626296013,-15.531358563732496,-8.484116715648529
1.112,0.6767567221692672,-14.296337805688445,-14.49404298321949,-4.558886401337871,-8.239619344564588,-5.35556217487972,-17.21951179219529,-11.118804103906012
1.116,1.2284604420228247,-11.838728060008322,-12.940603468941006,-1.3436206991831554,-7.436410459948611,-4.175597026554611,-17.991384638124835,-13.201722248575596
1.12,1.4242791658935126,-7.89107099898235,-11.064209059020666,3.1260986594623468,-4.652447930373523,-2.03309271170761,-17.45811692450764,-14.122502215274515
1.124,0.6924514856501647,-4.372037976571743,-9.52248910950902,7.051929827363675,-0.7173476494692155,0.23983919151732191,-15.476660609250917,-13.818051998993099
1.1280000000000001,-0.9079233465134529,-2.7341617413887,-8.557436431001577,8.895866334199523,3.307586097949205,1.7520928809571366,-12.27349571160952,-12.761177265939768
1.1320000000000001,-2.6409422061446435,-3.348596621107073,-7.987117037695615,8.075322013808439,6.523186504896089,1.980575460402947,-8.43441037075424,-11.693047954463143
1.1360000000000001,-3.4711729281012307,-5.500435701949449,-7.406671418765839,5.17601618371435,8.48835659710227,1.0437517140120272,-4.711839006734733,-11.213042719399205
1.1400000000000001,-2.6658227340303426,-7.935131327878624,-6.476959934067108,1.587470026269914,9.291577566055926,-0.33786864895222557,-1.728338550804832,-11.432561497708557
1.1440000000000001,-0.2686875506970754,-9.580413830807323,-5.117164847964753,-1.219078651620972,9.405629770389881,-1.2027448214378085,0.2692874067106752,-11.885273542886575
1.1480000000000001,2.8715963178895447,-10.021379642292269,-3.5023788938260205,-2.372722043522188,9.419327130139315,-0.8485435781881412,1.472827321100373,-11.746795638667438
1.1520000000000001,5.537570880502144,-9.519461594211924,-1.909239489012533,-1.9075052995113353,9.775919565893112,0.7817793881929358,2.3443201197944723,-10.273611204189706
1.156,6.796032595228023,-8.644402580048457,-0.5195124369517581,-0.5696738435045132,10.63993908751378,3.038457485614724,3.322446786209488,-7.245276851995599
1.16,6.51117212501968,-7.814856722899675,0.6710165356598963,0.7123611116646362,11.901973228266382,4.871787916616583,4.57189994330863,-3.171849876872879
1.164,5.398854006128792,-7.049281716005602,1.793026607596135,1.3729584776820598,13.28552919079734,5.355737624854725,5.9218520372802015,0.8621954802065606
1.168,4.582078576760322,-6.064873466427536,2.9466843680638326,1.461763567009874,14.47875981894271,4.165106934882234,7.026459914296449,3.6695903360216824
1.172,4.9010602376050745,-4.61415668445875,4.060559743608639,1.4890843463911114,15.233530982958424,1.7489496114452998,7.61600667233593,4.513720904559284
1.176,6.400571891441066,-2.7753943954673916,4.896945473585137,2.015549996890043,15.43229681835175,-0.8867691314557558,7.673511134670321,3.4659678092386796
1.18,8.271574957321263,-1.0085402342311032,5.198018379888927,3.2410056738167725,15.112220857106077,-2.668724467039155,7.424646009923336,1.3823201064100594
1.184,9.25916586500287,0.06351649788232461,4.876752986195644,4.8351855729252,14.455821972382749,-2.9671826644937784,7.142104471524402,-0.5022662305806906
1.188,8.319751727492289,0.0011201471830077914,4.108293394814568,6.107199698543883,13.730235039759878,-1.8711333128627619,6.91993761457825,-1.1510146551438085
1.192,5.159663948352931,-1.1958678981594622,3.2465194131010797,6.402669985050181,13.182549997820276,-0.10306042443200192,6.586751654707864,-0.18183138278337374
1.196,0.3840625150962378,-3.0521178140174587,2.6176345264641325,5.487900107144059,12.92905701371513,1.3623866781944767,5.818708301911558,2.0109033210191383
1.2,-4.785731041133165,-4.811762057241976,2.307501469689335,3.703864365520184,12.875983775978463,1.769488157093227,4.3693377622607565,4.510877016360698
1.204,-9.058677753057694,-5.745414899506034,2.0963818650011588,1.8027193832552157,12.733334439119322,0.8977854630249517,2.2562725460056487,6.345942879567133
1.208,-11.584586296385691,-5.419189291120139,1.5922990583475136,0.5573763513597974,12.117906736681942,-0.9039479092047586,-0.22640123221533948,6.9102268240465925
1.212,-12.191740476855127,-3.8083292073630313,0.49823443954613467,0.37464067572289306,10.717696229713791,-2.9423803226856586,-2.6662071413574693,6.141715502564854
1.216,-11.28871525289238,-1.2282790722922976,-1.1296288065306004,1.1323907339492694,8.470034690848758,-4.519131694522899,-4.7350169178947645,4.414303028221429
1.22,-9.549109207536533,1.8323594606045663,-2.8091760479942676,2.3061706222185485,5.648969583589173,-5.205119710785365,-6.29842598853617,2.2658532326215104
1.224,-7.571833345873939,4.900502208487612,-3.810160015303556,3.305720020562653,2.8160341494526806,-4.942974881357677,-7.359875634633619,0.14075300173830563
1.228,-5.689795048332058,7.638738678391606,-3.50927011203573,3.812838309454505,0.634174986134403,-3.9774484602169244,-7.896561650368309,-1.7133854882735085
1.232,-3.9926679995621672,9.882590595466414,-1.7332221545278803,3.91599651663761,-0.3682591665662005,-2.692242288093031,-7.749221329879925,-3.191258177210864
1.236,-2.4717705194614683,11.638610107165462,1.1064713276732805,3.9871982937931145,0.03436807941863873,-1.4511299003504328,-6.675923349037752,-4.221583426558983
1.24,-1.1524540662671572,13.048434130789682,4.1722641799322,4.395173588662564,1.7214985839022947,-0.5006568857676252,-4.550492065585964,-4.721435610009581
1.244,-0.1609177650396435,14.323538491292908,6.5953764423396235,5.235360361679304,4.315287469071906,0.05516415719419587,-1.5548509105570976,-4.652895897857218
1.248,0.2898058821310639,15.642733054053544,7.889431427617126,6.236764052293081,7.3157770537478,0.23395347973423153,1.7848205516086573,-4.126510314888337
1.252,-0.014090825201973134,17.051233086471303,8.164819056051169,6.904066703286373,10.211447063573882,0.13742176355659197,4.785954121129839,-3.441178316113085
1.256,-1.1959734139987375,18.416774964099186,8.046545351731433,6.809516296244382,12.54789950198338,-0.08778904358641704,6.93837791265225,-2.9748806678812043
1.26,-3.2224445628787826,19.481808839649123,8.32767802071685,5.854455031203512,13.96288339699689,-0.29693468210932483,8.164100534250556,-2.9589236171836886
1.264,-5.886078001691875,20.00044790308952,9.538919482083072,4.349585311677308,14.228387781262311,-0.40185869423930853,8.82803005244506,-3.2694791791135347
1.268,-8.834703613561162,19.87784659073164,11.641800970555991,2.8650815468804236,13.306721539075468,-0.40865347180419676,9.478811238955846,-3.399816973100667
1.272,-11.634393889784764,19.2326664627736,14.012496590104057,1.9462609143311491,11.414883301169581,-0.4143920147946485,10.480770606701094,-2.675611305124052
1.276,-13.838010976813564,18.3581309631088,15.737463274772281,1.8770689460011023,9.050356029293525,-0.5502796372315162,11.768229257851928,-0.6260258879534746
1.28,-15.074740612222048,17.571913094029572,16.05345365724516,2.5963313377562285,6.898085999247154,-0.8906374619287627,12.877209642440539,2.681049139955236
1.284,-15.117236745930056,17.05972568454032,14.734880079785976,3.8021191884030303,5.633488760160018,-1.387498512352077,13.241162112304204,6.540039720287747
1.288,-13.920524352897552,16.788362220756746,12.221480607385633,5.143788440567636,5.663132417813194,-1.8793090398977181,12.550078034530756,9.82873291636496
1.292,-11.640818385604957,16.537530927660107,9.423212921245446,6.363324660039858,6.920994464413219,-2.184880347300788,10.921630598950637,11.455473405678259
1.296,-8.616213839463908,16.054768805240748,7.314616348920662,7.329609077086863,8.863925317889544,-2.227770373812862,8.788746362360646,10.821844433114672
1.3,-5.325402215923953,15.223011500736396,6.5084497157051935,7.9804156094202465,10.680735566063094,-2.1034510575878986,6.5968993898951584,8.081935783567982
1.304,-2.328209634907596,14.148463537101268,7.024467834547986,8.262733158104487,11.640218023425541,-2.0338082065312815,4.533370052537593,4.076418752219265
1.308,-0.19082804345049142,13.087243831677714,8.330930721411338,8.134979199306896,11.398250434204996,-2.2278303684892258,2.4728514808772886,-0.020041632140991528
1.312,0.6155099652301015,12.254950937955531,9.621301789730573,7.646161305242976,10.10897632626236,-2.7297267576986917,0.17457618875991665,-3.1625618686615313
1.316,-0.13501033805729845,11.662705965632206,10.19666638584639,7.035226853361543,8.309628772858881,-3.3523150583493244,-2.3994703344460415,-4.797665124771916
1.32,-2.2756553608350116,11.073641073677491,9.75877864002713,6.727080821079233,6.629533499023699,-3.748865814101948,-4.887369548869215,-4.97456313986952
1.324,-5.197876651298166,10.129908456312453,8.49981863363602,7.175864110301259,5.486933638159034,-3.610375930407628,-6.6236532992786135,-4.204697418217995
1.328,-7.971954109521228,8.575457764279918,6.959912806396034,8.610787315213127,4.911150437144536,-2.869752108105841,-6.991529103837698,-3.1616916256582206
1.332,-9.64971486484625,6.440556098549527,5.739687574995032,10.824093543702663,4.5712936927448995,-1.7783444861449371,-5.820098255659028,-2.3696546985939406
1.336,-9.655187621493928,4.078586736397903,5.225295864571095,13.145759065344098,3.9911328271913833,-0.8010492815036856,-3.5726903974141093,-2.007763258224978
1.34,-8.08510252999888,2.01308752038773,5.439811349857205,14.655950377286818,2.8102312342612334,-0.3668955289276936,-1.1866272669061795,-1.8835837674889038
1.344,-5.748693328322679,0.6846056924491375,6.072510708062236,14.558683649861285,0.9677613980408974,-0.6082912321018361,0.3701879923554552,-1.5548056978928442
1.348,-3.860040534898081,0.23357402014739925,6.638706687219593,12.53399623046541,-1.2838683207029948,-1.2464872191542231,0.5766559279330741,-0.5397492482984299
1.352,-3.5034446173760956,0.434153552583294,6.685721958533025,8.882679505063736,-3.5211720045184625,-1.7046032233617272,-0.39938845123374644,1.4504507872698804
1.356,-5.113145936161318,0.8348820546120548,5.966779658853246,4.407904488049365,-5.341632245103923,-1.4071192736564053,-1.82695098142068,4.325946509491906
1.36,-8.22652482651536,1.0204111216260934,4.517136427910094,0.10128674263456627,-6.5101412339842355,-0.10891637749343408,-2.825532931193892,7.557795030073198
1.364,-11.665417060621706,0.8467831897703206,2.638338872502787,-3.202751800504391,-6.98426350288975,1.929426059088693,-2.8195939503994616,10.283259839511976
1.368,-14.071390336806394,0.5001399724916125,0.7978042511402723,-5.0480840648900145,-6.846490746079946,4.022161309605211,-1.8027515433765875,11.575357941128846
1.372,-14.528223375151487,0.3432376332414879,-0.5237383769253938,-5.387748967082393,-6.216630468430807,5.366706704871623,-0.2756275362890461,10.802448390259592
1.3760000000000001,-12.949826970208893,0.6600117229628086,-0.9723661105034735,-4.446368724878363,-5.185319201802201,5.432645617629804,1.0995574802057448,7.954189186571986
1.3800000000000001,-10.043512813804648,1.443206532846586,-0.41992914669682335,-2.540334946714929,-3.807681120516604,4.233497377140611,1.9118278515503953,3.7760139135984954
1.3840000000000001,-6.891517929854173,2.374298540273471,1.0101991246953865,0.03850024445545497,-2.137648181129034,2.341471599299551,2.2600019742364807,-0.40163247179034123
1.3880000000000001,-4.400130391132613,3.0020308206377226,2.9842641185846466,3.0302235203912193,-0.2880333992640658,0.6307033096676662,2.7157179369130517,-3.127794813429163
1.3920000000000001,-2.9364855125674576,3.0040824294479584,5.053637206688924,6.14097390085799,1.5262567245232832,-0.1331224620254683,3.9999885599844864,-3.428398653588485
1.3960000000000001,-2.32135148713797,2.4013680592373565,6.786983585239303,9.00134865066237,3.0150232753178607,0.3515713453523652,6.544202730454781,-1.2800272298142215
1.4000000000000001,-2.1255346218159694,1.5915170662393814,7.896188115225659,11.20316216508239,3.8897919616107304,1.793205041082901,10.169461604432005,2.288650551017957
1.4040000000000001,-2.0439801203105454,1.178318617259856,8.31816518318091,12.405704859436149,3.9620126002557923,3.449983269821786,14.047638824859352,5.560182232760965
1.408,-2.09992227207341,1.674518912253105,8.206520052344574,12.451336078058507,3.208551626905728,4.475430702907407,16.99297020872506,6.8465463018518316
1.412,-2.5566358076053084,3.2426896467985946,7.843347238227219,11.428556536064965,1.7734920057471442,4.297978818087566,17.970371509565673,5.251705424934446
1.416,-3.6104081003902264,5.623804156875146,7.524229555683084,9.642953797283967,-0.07274502723429377,2.85723231834121,16.590512791867667,1.115517267894246
1.42,-5.090524430053316,8.27002825623186,7.455334816158877,7.507822150540748,-2.006961237592823,0.6074927134817878,13.358238830595626,-4.08805981680923
1.424,-6.410952421999921,10.604410097636936,7.703594616955728,5.415202120935811,-3.7142873862604247,-1.6980762813568573,9.532218055337069,-8.37960040977869
1.428,-6.8376635100316925,12.245167134298427,8.189084663694576,3.6224631231119058,-4.935144676507729,-3.3289897460761106,6.614753062398631,-10.156430461890707
1.432,-5.9141801775838365,13.083575640890004,8.714769467059387,2.198066674246884,-5.485725444049061,-3.852850262415509,5.695831563008598,-8.90352151306248
1.436,-3.786400128625269,13.210809815550792,9.030001786830313,1.0401673106881302,-5.255335435021829,-3.2579419141307104,6.9657667346660945,-5.396530888983517
1.44,-1.2065962495701115,12.765658846770412,8.902295786445082,-0.05444637720740442,-4.217108732545402,-1.8985855273649324,9.635058785813452,-1.3081045237873465
1.444,0.8190010932561891,11.830154111226644,8.197382288382286,-1.2850472705559035,-2.4534901946597785,-0.3159329445925194,12.335049602388931,1.5859198170038145
1.448,1.5246543126767866,10.41868189943262,6.9303162082342515,-2.752703233691273,-0.21258937659462251,0.9661803443578953,13.800104264260723,2.202112070423
1.452,0.7724128268803763,8.569073993095051,5.270229447987383,-4.389785688992897,2.057625801044523,1.588847854175467,13.482711888864825,0.5640499502456828
1.456,-0.8791362929611448,6.465606156385313,3.4983583805690683,-5.942739680173439,3.767135828789226,1.4207077439996834,11.78844350460562,-2.340876314904774
1.46,-2.476115842809822,4.478442130985228,1.914990546978012,-7.039743824179592,4.334970767798251,0.5530869467579209,9.796396282467258,-5.149996719839221
1.464,-3.152983591838287,3.0766607184183705,0.732241055163009,-7.314828999671118,3.4142525705574176,-0.7474220694863583,8.622723252673744,-6.832806212468794
1.468,-2.5325179845854633,2.6275266421332315,-0.012369548977722022,-6.551397670617722,1.072982679964202,-2.0997582736045453,8.799102517318735,-7.140288876346357
1.472,-0.849446064500113,3.1982858606507953,-0.4600618672394545,-4.7703366995383,-2.165988985708993,-3.0764313056000567,10.017453775436445,-6.58293961175534
1.476,1.235094706707752,4.488615180023826,-0.8277021277817269,-2.220414825832061,-5.470517346168705,-3.2915371959175186,11.380914449987303,-6.010448000809548
1.48,3.003927628465081,5.942572741272727,-1.2583084564365583,0.7202856938462459,-7.999075735976173,-2.505265839514756,12.005534425124484,-6.064539948445101
1.484,4.018920653650358,7.000914549432066,-1.7022149793049124,3.682725055880952,-9.220319560880958,-0.721789690152847,11.58860700985124,-6.8265472350757985
1.488,4.240859437328426,7.3438626882247675,-1.921571525518936,6.394619581207748,-9.119297228821447,1.7653418241049952,10.589161473767597,-7.841069423955962
1.492,3.92307580710845,6.992027965363397,-1.6344976033534677,8.675598017751902,-8.177839439340563,4.414454326347418,9.91541905432018,-8.466229459073261
1.496,3.3711957573141684,6.221169530932051,-0.7146011499047353,10.354569541466503,-7.122523618913778,6.574804779804094,10.319241938852869,-8.310816617796801
1.5,2.747302857990205,5.353452334641535,0.6758149654224184,11.210527457750956,-6.561176499148886,7.704514835027361,11.900444970612972,-7.4674900371057875
1.504,2.0406767678939337,4.575623513672474,2.1413113157864503,11.024361889881124,-6.664388075341032,7.588881356236647,14.057066197183268,-6.395980893194467
1.508,1.179744032753201,3.8832538825596608,3.2857462455869015,9.733297290676227,-7.06410533887057,6.457357558532531,15.924824762544205,-5.539770109106294
1.512,0.1785402659501778,3.1786270781424655,3.988759901307851,7.601536331602707,-7.033052599962801,4.928941761733122,16.997944628805968,-4.9487465779408835
1.516,-0.7903061470827213,2.4555960980365423,4.547723556580388,5.268041304855459,-5.85855793691953,3.78442355645685,17.487198404033315,-4.1836300974541745
1.52,-1.4727750855923207,1.9064698997449554,5.533389179395862,3.5573915947113113,-3.2634220391072626,3.6374981929957735,18.125817318002287,-2.6035249702890733
1.524,-1.7167074989553228,1.8486892640268078,7.395565696862287,3.0977453576217076,0.33010306855009963,4.638307594926671,19.497304898935372,0.10500980061230392
1.528,-1.6673851317695547,2.457445158608519,9.999843017377163,3.911113365977501,3.801989373833734,6.3386343057705785,21.303523157572673,3.473876185498683
1.532,-1.8318300381018293,3.4553665174802743,12.382389921521742,5.217504745673682,5.621218677041077,7.78980006342101,22.09761816258696,6.1849668894209335
1.536,-2.9150826259092453,4.008902129792127,12.960496354817403,5.6555082087073,4.358975265943209,7.871814626235706,19.767834717809855,6.518301591966973
1.54,-5.474689558282851,2.9712364269617915,10.183282954880765,3.8894651844505517,-0.7486875437885985,5.751571171771424,12.624119686618016,3.155533507085863
1.544,-9.555977555082363,-0.573407205618913,3.360742397226388,-0.6616422510944915,-9.385527832865424,1.2769014977337956,0.5251607526293722,-4.056335997410812
1.548,-14.506740907374969,-6.720940934355625,-6.758869830958832,-7.350988200251852,-20.0784347975769,-4.863271522423559,-14.617628470220286,-13.779642971085874
1.552,-19.090811125921253,-14.434144510372874,-18.009275746778773,-14.37384600016524,-30.530622937794718,-11.298363484054587,-29.319655699445633,-23.517385628661007
1.556,-21.881788156637818,-21.71836540967142,-27.478099468239183,-19.400976556706553,-38.26756414982319,-16.409291575118353,-39.809988411360244,-30.487870510639013
1.56,-21.793640921433195,-26.287849830466833,-32.57129784104335,-20.51795940391054,-41.39484578230151,-18.869946452990977,-43.50594238165536,-32.66011605571546
1.564,-18.50582254586501,-26.447765066495236,-31.99154935361466,-17.037665973440788,-39.19167079231471,-18.083003339487078,-39.953486890452915,-29.49337377146623
1.568,-12.5948282825174,-21.799216184671494,-26.187508080967827,-9.800229200072629,-32.30771829353974,-14.334198918865578,-30.79849879416208,-22.047721313600036
1.572,-5.300740475511742,-13.423424405444749,-17.077895281711683,-0.8242057423220719,-22.484607593583725,-8.62885895135528,-18.880570937079405,-12.45200693855778
1.576,1.944629325250021,-3.460895561831503,-7.203699237124254,7.501368608655902,-11.907207333100306,-2.303035304886007,-6.977432693034486,-3.0254645622665013
1.58,8.009480541785484,5.70764923085855,1.2671408010342953,13.298292167206625,-2.4520742746215154,3.4155068610327683,3.1467109518984744,4.537635470553738
1.584,12.34994178059451,12.293488537951928,7.225485984912351,15.759226461590192,4.856395912312062,7.710545689475367,10.968103264001824,9.562346651821986
1.588,14.967450137313794,15.564581987832565,10.723343295483964,15.175251321788295,9.95926797180988,10.259893847424284,16.7522290921664,12.273209168843312
1.592,16.144839008689715,15.809059377975345,12.546360974471234,12.527985222956815,13.453685653393128,11.130728266931476,20.83875775055648,13.325640395382136
1.596,16.14209350796077,13.926232618037435,13.57519645395292,8.929094659290907,16.076485115136624,10.602835542397433,23.167491243326733,13.300277479593854
1.6,15.018950217612868,10.915281949314236,14.296456779534113,5.1935725129850825,18.256416688794072,9.026199936054848,23.324458638022143,12.448268116355603
1.604,12.708612773930419,7.558646039017134,14.698411882068132,1.7194468913202972,19.960805235113448,6.768147798070645,21.000842935483167,10.77330604448829
1.608,9.245557806403696,4.372596331104546,14.506304739553538,-1.3789401467731333,20.848908337074036,4.222428592898336,16.47823711179854,8.330767187446817
1.612,4.966834416949755,1.7318266908464088,13.541789710847414,-4.061696296490266,20.59167921991867,1.8090383070408254,10.763122512756517,5.491571958484532
1.616,0.5432769148378549,-0.0037713742156624264,11.958785837340706,-6.231014735111519,19.15592825640707,-0.08645117371479749,5.243762936522104,2.9656140552299775
1.62,-3.2134167734852133,-0.5147823881226197,10.20261729586039,-7.748555256792304,16.867601346750103,-1.2290561377253963,1.070016865408776,1.5495381747070684
1.624,-5.641673986535351,0.31749484125711636,8.758422067057605,-8.525888557763999,14.256323604215599,-1.6275160541311895,-1.355940784625237,1.7434307019928097
1.6280000000000001,-6.46190836984269,2.2253498728614822,7.8461630405523906,-8.59460049409477,11.777821969590622,-1.5310175615058883,-2.4758322036070814,3.4662901980415763
1.6320000000000001,-5.8130533182190955,4.52161579427346,7.263642021010089,-8.086425456118306,9.597683905352604,-1.3054612598789133,-3.2024084803048334,6.0570620187993605
1.6360000000000001,-4.085612647265335,6.3137237595241,6.490378858374326,-7.133321877503127,7.579601491500338,-1.2402599372461827,-4.308902306839654,8.579982838244984
1.6400000000000001,-1.6882666387989964,6.872826273993519,4.983637176358606,-5.786964719700166,5.462504595112341,-1.3921153859823625,-5.952201385643734,10.271881685943193
1.6440000000000001,1.1090964115712825,5.983147488392047,2.5100458653296442,-4.026382270361634,3.109042140636422,-1.5606071769640497,-7.611613848718584,10.878688902379535
1.6480000000000001,4.146794136211021,4.048147830463268,-0.6841992086081463,-1.8709365026481124,0.6500985560441253,-1.4269996136783858,-8.457487501293867,10.697354523564787
1.6520000000000001,7.218839596841919,1.8929638768797887,-3.9436347272132455,0.4884127754543961,-1.5566871995768712,-0.7816720187242643,-7.89564542053325,10.308877505718979
1.6560000000000001,9.945792842272303,0.38455457667894244,-6.46503259463657,2.655039980972602,-3.1094813803170585,0.2837147888252465,-5.954705923532986,10.163643050904394
1.6600000000000001,11.81472669037749,0.05068848881125643,-7.624711412098884,4.1332725851115475,-3.7854508718036333,1.34141149355146,-3.289379153210933,10.268897122163782
1.6640000000000001,12.430146855060213,0.906487891513998,-7.208766987799519,4.549469982890374,-3.662270044868071,1.7941543325362772,-0.8184360393667296,10.160107318538984
1.668,11.82579202272387,2.560551750408849,-5.454380392512426,3.8620354508641683,-3.068485372860007,1.1680397820892257,0.7709047227194259,9.17765077804431
1.672,10.592997507829189,4.483513046866907,-2.9092700482700984,2.425940149998629,-2.417022927333693,-0.6202906998667084,1.362938822909339,6.895066344159996
1.676,9.678478295522508,6.260846699373211,-0.1958607456880035,0.8506799151030572,-2.0190436055450496,-3.1677212281270974,1.4125967087973772,3.4378107381015095
1.68,9.895596092198748,7.692008650016875,2.1990410712084363,-0.2867722463440461,-1.9821284607332883,-5.715103399070797,1.6159982039882306,-0.4937018751819009
1.684,11.413080350328867,8.716292097261936,4.03011826637379,-0.7190429020306506,-2.223092344831883,-7.460347205571791,2.465758826776031,-3.915177028447056
1.688,13.535094685820983,9.259442021199806,5.2676902977264275,-0.6130740650883868,-2.5664429527205757,-7.909708834817909,3.9590346949307156,-6.0075045203323745
1.692,14.951170610463866,9.125660993018592,5.970971901589226,-0.4852558156379079,-2.878036056436447,-7.098581383183105,5.601972605691074,-6.4789105996025285
1.696,14.389702356700305,8.037319266023369,6.145959157670152,-0.9457337721512397,-3.159149556448015,-5.573029707465734,6.689324039387836,-5.643211020088863
1.7,11.354081379987004,5.824905407513147,5.683280921583884,-2.387543787057988,-3.5472616021230383,-4.129558285320423,6.692789759895584,-4.173567864090819
1.704,6.525746815941675,2.6529913115761135,4.421377422454472,-4.765510495905994,-4.237358406454597,-3.437161765716781,5.536535128132894,-2.687114191242697
1.708,1.5612020626572243,-0.8814556583860469,2.2965100233359337,-7.578570942314761,-5.381300789617059,-3.7243426901469063,3.6174380788088225,-1.4097550095747313
1.712,-1.671794592588998,-3.894314753029784,-0.5298969650911283,-10.069945680744228,-7.031233301712737,-4.6862612801842,1.5688161012598978,-0.11860371031378225
1.716,-2.034112766794234,-5.554070149368419,-3.658652941237865,-11.54967571531209,-9.139451229343246,-5.660553081953756,-0.09230967926609313,1.6089152633203305
1.72,0.28266175270473304,-5.448426135621764,-6.575214858766724,-11.689670875662493,-11.587158162157891,-5.982223930148438,-1.2298166510140927,4.003177621474314
1.724,3.8322801825989674,-3.7924852933810227,-8.852687111482892,-10.661026453397863,-14.196376951282588,-5.333247603617821,-2.1272449331213683,6.817398373484285
1.728,6.667004062196781,-1.3562731229848417,-10.326496129592776,-9.04728381258226,-16.71367151175482,-3.9020685177120553,-3.283452936098584,9.33700868715113
1.732,7.368773207275794,0.8578643249451936,-11.137409701950165,-7.567417654136632,-18.795507623114528,-2.270979278249724,-5.075754446615189,10.706709891984719
1.736,5.769748703119303,2.0267300623640034,-11.609829248544099,-6.752470179720834,-20.034463718739815,-1.0989880970965675,-7.477081318767473,10.386815104414813
1.74,2.9857338100679645,1.8194828069194917,-12.033222061533081,-6.724259388577453,-20.052768833830307,-0.7734182341084264,-9.980510007931183,8.46739077022962
1.744,0.7620284990474766,0.4774361742016362,-12.47050777002929,-7.170174876053057,-18.639725525250576,-1.218162127685446,-11.77583819403812,5.653039448254924
1.748,0.4756169422266865,-1.3619338844112465,-12.710699379877905,-7.539428247160821,-15.88890443512054,-1.9697695432219422,-12.097382762052135,2.9085515298561537
1.752,2.3637033297367074,-2.9934914365572904,-12.40512902780805,-7.362698479867744,-12.25650364707904,-2.4724932057031266,-10.578543945060106,0.9678377263635238
1.756,5.4120444182643475,-3.944848391397196,-11.297146163217828,-6.510104463610576,-8.464233336887235,-2.41545171658692,-7.436793081462881,-0.01033598790288437
1.76,7.977045852099691,-4.083705608113915,-9.390736451620223,-5.237419718356426,-5.251921512036515,-1.9125302183206712,-3.394654645715883,-0.4405848736388309
1.764,8.749557689855175,-3.5177303511200506,-6.953301629447402,-4.004693157222986,-3.0758731803968136,-1.4188622132789352,0.6073766179479563,-0.9777733525964845
1.768,7.4864173784724315,-2.394482520860354,-4.35562481878913,-3.1793893910168194,-1.910213899437593,-1.4387637880337332,3.7555589270837464,-2.067629906874968
1.772,5.10260933113137,-0.7657198381446113,-1.8771478258900096,-2.804048822100407,-1.2912187031131097,-2.2063639351945277,5.594435116873619,-3.664896221069254
1.776,3.0606011031145766,1.3734633569271146,0.38231684821344736,-2.586149575796039,-0.6079239686810247,-3.5337912313790447,6.055033929472785,-5.284880413098186
1.78,2.45586391727365,3.913100594385046,2.4285403014143814,-2.1118858790029513,0.506689352303983,-4.913218792631724,5.320523618184673,-6.343690826974104
1.784,3.3593242919037714,6.473786585506161,4.206278921821758,-1.1410716369744431,1.910412452396482,-5.8067180756047225,3.6446939698545187,-6.545821243390058
1.788,4.801998349135838,8.428490402788,5.481092708294517,0.21039674243775153,2.9889053333668816,-5.94134734302255,1.2570461178400532,-6.051513210083598
1.792,5.417367901410177,9.148393690248563,5.886342389556545,1.5318017901060035,2.99931940992607,-5.42440794821271,-1.600244342628173,-5.305271502934792
1.796,4.337615258949525,8.35135655872662,5.1333568982699305,2.390455302209636,1.5352393509424278,-4.619489072979221,-4.579488633275179,-4.651455715446815
1.8,1.7686556755359508,6.3275498674011725,3.2508099275688336,2.627937306745305,-1.1688652849862828,-3.882114209418553,-7.196727427693447,-4.022463481813892
1.804,-1.1066427064802902,3.871044691805339,0.6716364047338903,2.4790145695365817,-4.30239024275207,-3.3347575657228345,-8.948806001629041,-2.9470892635841484
1.808,-2.827015199700876,1.9027400024943681,-1.9230715649706536,2.4243287953647212,-6.905250049613416,-2.8192552758586436,-9.53342469660999,-0.8990800556213472
1.812,-2.551441268676764,0.9491971349798769,-3.951619303456762,2.842402205861975,-8.43125768445504,-2.0617835620522786,-9.045282306109613,2.2168736324810836
1.816,-0.6031782527187431,0.7837591511299427,-5.271906778836319,3.6853760573091243,-9.107997360329383,-0.9315801852857462,-8.002001723435647,5.772218718736013
1.82,1.702122701373928,0.4962374039214781,-6.273938008014089,4.426600817901354,-9.825690699413522,0.40081533083660137,-7.129512991149341,8.569964080089633
1.824,2.8538494019537346,-0.9872582414679123,-7.623292440611794,4.357120077643442,-11.554234055135524,1.517502836654776,-6.999209115277627,9.426393191043628
1.828,2.083521209317035,-4.195113965819377,-9.793085149649471,3.069632415377627,-14.606471343999974,1.994729021435008,-7.724699665762711,7.862348141303612
1.832,-0.12578400881229013,-8.631741003954332,-12.677739559450199,0.8290468562766922,-18.212974356830976,1.6781649995619858,-8.905324084433392,4.483196675067066
1.836,-2.279058523919347,-12.849312039006815,-15.532694035457105,-1.4293196419401308,-20.713237478793694,0.8039538267475494,-9.876327939082914,0.7826040887795211
1.84,-2.725616650699153,-15.087478486919242,-17.30347464628309,-2.513884017292505,-20.322432577636548,-0.1160401306114136,-10.12641775049866,-1.566875125587813
1.844,-0.6295430175643193,-14.158393287957814,-17.158104837031246,-1.5933054294523807,-16.088025137787717,-0.5775233677059091,-9.612337406114154,-1.561333855003816
1.848,3.5124890499211223,-10.103599078869376,-14.906705015986319,1.3263657527189778,-8.510052138614746,-0.36843670823020624,-8.761428958363222,0.6253737939053137
1.852,8.094408731833742,-4.262583031484797,-11.074685365904777,5.341646501655281,0.5363131783232076,0.3206214527163931,-8.14979008201636,3.7567262163477655
1.856,11.228123436679795,1.3000121823861348,-6.598107341692454,9.05500531901967,8.571510766005078,1.0206345737222138,-8.041405740802075,6.20889256051645
1.86,11.705176519832968,4.716929814263292,-2.3431621859808947,11.224513630883301,13.595046430544897,1.2604683293985786,-8.096713910261684,6.817179167570762
1.864,9.563075686636878,5.106074737718164,1.2449293350557686,11.313377590463702,14.920064411002318,0.8310905679353492,-7.4758799989316405,5.419455833911009
1.868,5.961685169984455,2.8312257511479846,4.1652298814943975,9.662079008759127,13.34441540943975,-0.11549435825233267,-5.327446211747268,2.8279593112179198
1.872,2.481080479914584,-0.8624793957831445,6.577715471619394,7.209506967043464,10.586563309847053,-1.178916188856023,-1.393678881439972,0.29173841554762125
1.8760000000000001,0.2786712582309734,-4.582396285281884,8.453802033826049,4.961511976701162,8.328268122701754,-1.9430160212103282,3.6383428379043417,-1.1966959001318576
1.8800000000000001,-0.40475744606676867,-7.441792987058213,9.44466967413953,3.5262522424966662,7.400437340663869,-2.176793519791103,8.30321075537926,-1.3323188594121937
1.8840000000000001,-0.1647617751591839,-9.296137236428873,9.083984569966553,2.9446091520483924,7.517628653118386,-1.9026648806245923,11.011185762492968,-0.4696845159884937
1.8880000000000001,0.10554651160811312,-10.503038450456238,7.1883646239224115,2.8513637915848364,7.631636964732282,-1.3142488781092823,10.857891370730728,0.7615633123446495
1.8920000000000001,-0.172709076257489,-11.451069171394384,4.15570112653012,2.8031691991660637,6.6286754345649745,-0.6304108960903568,8.13544088572899,1.89738030593483
1.8960000000000001,-0.9605114038394276,-12.202764290735406,0.9128033718158948,2.5478803042771827,3.947076789417255,0.0011251903176188183,4.235253155291959,2.833354124856956
1.9000000000000001,-1.7225541814603784,-12.462489762669058,-1.512114575786867,2.1000097948769665,-0.19593685866302302,0.5074865738037706,0.9659836923923169,3.6838419828305495
1.9040000000000001,-1.8580148169724993,-11.854375786442116,-2.546302257136276,1.6216043879243514,-5.019658525195194,0.8279573673990839,-0.3655385426428628,4.4698024097138775
1.9080000000000001,-1.1421682513092453,-10.285646793388977,-2.4063960208515036,1.2333254190711482,-9.634298762131348,0.8595315156221888,0.38731596723445394,4.911219706436837
1.9120000000000001,0.12177473343613343,-8.123610253183308,-1.9842885098482301,0.9069479940147829,-13.442367573688252,0.4735854830154109,2.176771364252745,4.513796531054729
1.9160000000000001,1.316579307458233,-6.046521218803123,-2.3129394774830536,0.5155530111931095,-16.268886070947914,-0.3964697485505515,3.3739212336775624,2.9192504955579377
1.92,1.9158625031557088,-4.665522544695383,-3.920095623655521,-0.020880405408609637,-18.20720960441925,-1.6606863385237027,2.6910453523087168,0.26433272261736285
1.924,1.8099313453281174,-4.162160599867606,-6.4532034251178985,-0.6152327805821676,-19.336509934140402,-3.0486187542470393,-0.08762144833956809,-2.732438747603711
1.928,1.3354257743918305,-4.181608744915846,-8.817719695707416,-1.0177627690394124,-19.531984459149786,-4.189817017898556,-3.9561859299359847,-5.070283259357771
1.932,0.9855830970723538,-4.072297477183659,-9.763416288726216,-0.961264671936199,-18.501500488621392,-4.761290733986646,-7.200122867429922,-6.004790120850908
1.936,1.0203359695580154,-3.3096842063677054,-8.567674033500552,-0.3371884110106529,-15.995077093370915,-4.622500221014458,-8.281291809780393,-5.49434621412485
1.94,1.2441245178501479,-1.8435900964204697,-5.424111238976637,0.7141942341042222,-12.039293938263935,-3.861254274015034,-6.613656481466932,-4.259367321034121
1.944,1.1367563631745554,-0.141050318942038,-1.3162659256426388,1.878279059927911,-7.0368765881658355,-2.7227203021270543,-2.8151624168146596,-3.387603476252531
1.948,0.24721542001329944,1.0971756596362314,2.5310608133212233,2.8486996379417135,-1.6726170117103134,-1.4777617934761755,1.666239983964271,-3.703314483400311
1.952,-1.40591419236726,1.361024285315132,5.2752010139459715,3.489255946939044,3.3011790709089093,-0.3153727884673705,5.31445789226616,-5.273977613936247
1.956,-3.1931507791427967,0.6431225658278437,6.792223712347106,3.872120799674573,7.279258821916204,0.6856044126272396,7.256316698642072,-7.359693284057635
1.96,-4.140508004553392,-0.5588951199980969,7.554369998548824,4.147050542320015,9.921288945126413,1.5045159353979607,7.545910893713753,-8.847478424985384
1.964,-3.4529250403957157,-1.5252962279666598,8.174153501765868,4.33879720457063,11.155546612374343,2.103323041391211,6.920624043141378,-8.917133107348402
1.968,-0.9853822671390615,-1.7123409488486203,8.924087393415451,4.221326577870425,11.111782229428272,2.3997588625832877,6.219743792894278,-7.549733541370006
1.972,2.6144949602025696,-1.0403997680008255,9.536152888878465,3.3726555460545233,10.03525510936559,2.313446493760208,5.852026882133286,-5.578642336102595
1.976,6.216321483244083,0.08750963022389247,9.392443953646541,1.411003766203051,8.222915231694898,1.8470593187527773,5.625793492867861,-4.255291266273907
1.98,8.815194433901077,1.0318388211162288,7.966182435136136,-1.7043433028531008,5.9827766458732246,1.1385093779229778,5.004981885962314,-4.57944706766242
1.984,10.092280184912656,1.2796428896642746,5.229074432079903,-5.48028020164762,3.6063127504202477,0.4376207304913562,3.6055007075956067,-6.762971778151913
1.988,10.593643049885321,0.712946039512647,1.7660257961851062,-8.944626687136067,1.34281174872927,0.012035062162551569,1.5963578708192996,-10.10762422153942
1.992,11.384145466074978,-0.3681933887878559,-1.4744558021126748,-10.977631467754396,-0.6271795736444208,0.030210679754176795,-0.2678758583112888,-13.337932380266533
1.996,13.347901641983952,-1.4606157437631673,-3.6474332948921466,-10.801133461516546,-2.2043499942852876,0.48675184424844087,-1.024511344114833,-15.193868179515418
2.0,16.547059453589284,-2.163845675246307,-4.420250169096818,-8.384234746527081,-3.352910101308227,1.210752076545809,-0.07526676584653558,-14.970074297200012
2.004,20.036338928722788,-2.3858218674192666,-4.079946172197568,-4.546988253481336,-4.058965599113829,1.9547973582785465,2.4099342261802272,-12.74211798649913
2.008,22.266841365935345,-2.3502237026948083,-3.310247130045184,-0.6973890742305047,-4.309544416782061,2.5034933714087835,5.500124851995053,-9.232491099820146
2.012,21.90018502229085,-2.4106305376917962,-2.7878299894537895,1.710088305811695,-4.113182015196626,2.7496080940831593,7.926417098959643,-5.4335956916405905
2.016,18.605006150297562,-2.78424831196214,-2.8217469827850667,1.768054464603944,-3.5333007402190137,2.7112659334752998,8.7023782931499,-2.1990096456449137
2.02,13.379231177807936,-3.37567385655988,-3.229499020123802,-0.5163221566401406,-2.6984121892670023,2.4920723140474754,7.5992259868636856,0.0019073621884464487
2.024,8.183274593203077,-3.79971138665225,-3.4946696064042753,-4.24927065425453,-1.7590809036422774,2.2147290578715055,5.21724148444575,1.1025891108817252
2.028,5.060837872942417,-3.5895372168309083,-3.085435232251468,-8.051772720787746,-0.8039613256673359,1.96908317655613,2.6348550546552927,1.2917097111014395
2.032,5.175422074060061,-2.4943593135752304,-1.7517216344049469,-10.657758858297822,0.19604450865183898,1.7861677010171908,0.8459711260117144,0.8169623770514529
2.036,8.277957418114708,-0.6939886164763773,0.3442332350118342,-11.41666864078691,1.3691606825562754,1.6440616195648485,0.2996098306649546,-0.14885521413127734
2.04,12.867148349159796,1.200946432015766,2.706096392909058,-10.478366446208229,2.8378947321365366,1.491459583865379,0.7676823546936917,-1.5344035631764965
2.044,16.924476132265745,2.3803924912070014,4.724821528468136,-8.606574661209542,4.58151906390207,1.2741681275488068,1.5802614009361236,-3.308953332092823
2.048,18.848571124612327,2.20992628177172,5.919815697090444,-6.732328862864723,6.367296479107727,0.9601529422020141,2.0508440994248094,-5.386978492294688
2.052,18.09840078549506,0.5443294795552855,6.071617655907649,-5.49429920064486,7.797601327916928,0.5596382030222844,1.8273113732231856,-7.564745578100778
2.056,15.260729339154935,-2.1863962074063856,5.217370133797618,-4.9944130190923435,8.473554351610865,0.13220392354184085,0.977272118509946,-9.528218490443628
2.06,11.568499735959819,-5.171679862374451,3.556048526179986,-4.864959974093263,8.195025121462772,-0.22841273191274425,-0.1918235193703346,-10.930610275009855
2.064,8.19977794652094,-7.596594871056192,1.3443261004975702,-4.567090373683076,7.087167269052145,-0.43891405056196087,-1.416843892670407,-11.506878971925495
2.068,5.786792638254799,-8.9937105389827,-1.1448031632254643,-3.713921596241816,5.581648711463613,-0.4642239143034863,-2.6538216556707854,-11.165533937825039
2.072,4.343921852326272,-9.399718891889705,-3.607850900166908,-2.2408565580503765,4.242444928104628,-0.3228535868554309,-4.036724174032556,-10.021325529677457
2.076,3.5565180039535313,-9.236730382038408,-5.69319949735773,-0.3612386600138082,3.524326090618409,-0.05759023895212234,-5.664323470977969,-8.351678120015448
2.08,3.174452125289328,-8.992535836253252,-7.036524622093243,1.6215407246882556,3.58939931766443,0.31954735191290773,-7.38333830053743,-6.485066488646455
2.084,3.2059960294465464,-8.904314966033361,-7.378803814223788,3.485381703140997,4.25678425181714,0.8606014307194552,-8.756732781068457,-4.688822888726074
2.088,3.798371238876178,-8.832870523202725,-6.718427762146563,5.13226428129481,5.103480678006235,1.6536927642498127,-9.262018496228107,-3.109713964489976
2.092,4.934233976499904,-8.408935181590977,-5.404039809535011,6.4948652501874,5.646672845307107,2.740055931436044,-8.607730666925505,-1.7876996509016578
2.096,6.206083119292428,-7.3559501874762585,-4.0836153394429235,7.411694477465601,5.518697464934411,4.025115383603433,-6.960614216692195,-0.7256530872191354
2.1,6.87426185025242,-5.772415133169338,-3.491582593710194,7.60364027032546,4.569737043774246,5.2518463108133195,-4.928922464782635,0.03824573672862375
2.104,6.220086536984297,-4.173406482189046,-4.130734051820353,6.808752996664872,2.894794353191611,6.082500843802745,-3.277821557588817,0.4219125806935837
2.108,3.994586924337362,-3.2347643044667937,-5.997118074687405,5.009601170249388,0.8089270843973377,6.274365391817577,-2.5459490992505973,0.3598260458810776
2.112,0.6650890185309817,-3.3806533244756998,-8.509537384816538,2.5992101010114643,-1.221500652578091,5.849145963730006,-2.8008480275259373,-0.11274707560230901
2.116,-2.739329913590315,-4.4675554740138015,-10.703800614707529,0.3308586896558019,-2.6768950982218414,5.130216538829419,-3.6733847151646244,-0.8214436908475005
2.12,-5.102032684069041,-5.77050272450495,-11.625492261030697,-0.9581822986737629,-3.0958203095881367,4.599332256838712,-4.6363067376531415,-1.506552934372095
2.124,-5.755616725468577,-6.314503540149562,-10.745678141109293,-0.7205520243519832,-2.188873192823042,4.6328690270393995,-5.3452110624312095,-1.9454805026697324
2.128,-4.775466778914117,-5.38463816188266,-8.19338712228343,1.0316286616986106,0.0749245429529386,5.26820555370631,-5.808219648497548,-2.0606642563059867
2.132,-2.865602177987985,-2.9288627558386464,-4.681798585521685,3.727090042993416,3.4494692153020803,6.15159586611283,-6.254067849189198,-1.9266279529593855
2.136,-0.9307506020466452,0.3827239323823557,-1.159976164977623,6.508431817408324,7.476896772855358,6.716546950317019,-6.793502696153203,-1.6629144514220604
2.14,0.40048409012216435,3.4861941550836795,1.6202525300119142,8.619158981772877,11.613942119393997,6.503786059572697,-7.1340903947243905,-1.2777762972982871
2.144,1.0245055297390873,5.464427177609362,3.3940310857226312,9.694578857628908,15.364412678203463,5.439012812832586,-6.59308000631383,-0.5857114946926099
2.148,1.260159963931702,6.002351321833281,4.385900687708231,9.804039373161148,18.36281622089932,3.8860859531128513,-4.474876093864479,0.7128197591514305
2.152,1.5154099927245248,5.4963132850974725,5.046305918485009,9.250973235138401,20.386023173365373,2.4319816007280606,-0.6272670112427043,2.803534427283438
2.156,1.9811561297792246,4.785016031057512,5.712769270621529,8.304871007851853,21.333973716404714,1.5389228113600208,4.194230765076788,5.530868540866149
2.16,2.544758916690906,4.661512175878022,6.3944452328136645,7.049985036614855,21.213849496751802,1.2774211317281225,8.43975028806304,8.339868217841946
2.164,2.960985553634276,5.457228292627712,6.814687708394879,5.455939058419604,20.16051335314873,1.313979698161368,10.398972875907319,10.478190997450799
2.168,3.1122118919363193,6.908823327257043,6.6653552145063975,3.5918492414137075,18.470704124098457,1.1653578883285785,9.069305319831567,11.376082327631785
2.172,3.140335806344004,8.336724660417735,5.871794121089005,1.7896289559019376,16.57514616743023,0.5494098394955864,4.77046647160531,10.987888202194686
2.176,3.3379312929374,9.01038946810554,4.684020799904443,0.6003753034704733,14.90767925344064,-0.4066005315862178,-0.8725653383256842,9.873348278793319
2.18,3.8537559926511666,8.4773996697642,3.526546886458207,0.5249840435203978,13.710254874343452,-1.2464769922901928,-5.632784301789598,8.9402572892374
2.184,4.470299158815363,6.7166150902516915,2.7155522820577263,1.689413912739477,12.902718668486255,-1.4958726325508687,-7.7278479552354025,8.983957280008818
2.188,4.648792127480748,4.084407154147881,2.2478823461367066,3.694645231505202,12.122959010945923,-0.9885366347113508,-6.64816221571899,10.294220603536228
2.192,3.8417088616589616,1.1423093518806615,1.8285550480060362,5.770865097101587,10.962368211256535,0.02018167922892866,-3.30870324946273,12.56679445281943
2.196,1.8900176447834536,-1.5103480646690155,1.1321522706472873,7.178225720311167,9.286127979680177,1.0394463308981932,0.5457652755741069,15.159583977355709
2.2,-0.7654036210049888,-3.345748536467985,0.11174018122161122,7.613126347499714,7.428964676215201,1.7062013533619824,3.322816047995728,17.50657261985406
2.204,-3.2479355228088136,-3.9824590030421403,-0.8850452303232608,7.348068424649089,6.093531056385632,2.05032690530811,4.368178831892836,19.39021930985805
2.208,-4.73679501037066,-3.277182809619043,-1.314593047490253,6.983838748588664,5.94568628228788,2.446969906771451,4.085067097538772,20.86783659218161
2.212,-5.015937626033526,-1.4584401466153434,-0.8732093665955982,6.9267095871857745,7.0923984931080994,3.2515453485066628,3.3414631083734236,21.89350917890922
2.216,-4.726132556991281,0.7841526073794194,0.11565001120657614,6.920172473614858,8.770133583242645,4.345527096928124,2.574491956591976,21.923193983005575
2.22,-5.1234805263707255,2.380776082043785,0.660590207651166,5.9691619718119675,9.507490988543047,4.9360847715393295,1.2174674175964797,19.86273388812372
2.224,-7.422579219219166,2.2146866827196043,-0.46886840656345097,2.791198331182078,7.782353487768861,3.831620615123318,-2.0980081595295776,14.528684621233227
2.228,-12.064117232700639,-0.36737195990045857,-4.010083402421119,-3.388806078201691,2.895926574912765,0.12044203034216894,-8.598460903497962,5.462959132352091
2.232,-18.34288441531917,-5.117424055500973,-9.590160593475547,-12.150593654889144,-4.421417075473245,-6.122724428825478,-18.221091398446436,-6.367531001020132
2.236,-24.610791660554998,-10.770765063180162,-15.613735430162086,-21.70459021543416,-12.049113523605865,-13.536463917760305,-28.986000178982945,-18.462937725241844
2.24,-28.955191346154102,-15.396665508195984,-19.808650059095825,-29.404249813635637,-17.23995637284018,-19.83072295204117,-37.39945601017097,-27.479793281634805
2.244,-30.02690460442429,-17.133048389672766,-20.212143405349494,-32.77461778631789,-17.79803053719421,-22.704420399780957,-39.82410677525811,-30.495889376082804
2.248,-27.58801898898572,-14.981579770025656,-16.117358251963598,-30.57306753244842,-13.106284994388343,-20.880801575779245,-34.19853433075384,-26.279171049626548
2.2520000000000002,-22.515892177713507,-9.288323267929597,-8.488175989351156,-23.359936594104177,-4.484339122013279,-14.722467188873349,-21.223569089050514,-15.907722649752294
2.2560000000000002,-16.337683488576772,-1.6630078699773632,0.3996289046250521,-13.300945136908087,5.326138922197649,-6.108134134033177,-4.334997004188155,-2.3988317514235353
2.2600000000000002,-10.584400025901612,5.644420836070578,7.9180981456777975,-3.299985199191936,13.298444241176448,2.373251455132743,11.585295936626867,10.487772096503345
2.2640000000000002,-6.307011802983805,10.623673605969934,12.17359540476774,4.123973373363534,17.329521175226176,8.493889006730878,22.16653867371687,19.699203066314304
2.2680000000000002,-3.9236711749847277,12.255075061248316,12.703803331474116,7.722661120699229,16.973244841534715,11.192432982747114,25.256079615589428,23.916936191869738
2.2720000000000002,-3.365521185423696,10.802146887444698,10.474301697154388,7.8037638185433025,13.383621622121787,10.757896505075696,21.58773349845077,23.72991190448106
2.2760000000000002,-4.337917510112671,7.551792363635375,7.235484027443788,5.8581809810986805,8.571148649909262,8.3928764156345,14.158537197705522,20.971080699319458
2.2800000000000002,-6.4799659309756725,4.178748446287644,4.621925035358398,3.7841656593256006,4.4043696689478535,5.472373413483389,6.7002777513633385,17.64960649838459
2.2840000000000003,-9.355586137847812,2.0548120918469603,3.4717711739187984,3.097939842051172,1.8686111327491703,2.929193524555021,2.0464882654266896,15.058830452369211
2.2880000000000003,-12.369165112734965,1.796491948193708,3.660416093204172,4.4504698992717096,0.8984685435944844,1.049629734826615,1.1578538318078646,13.456268457428678
2.2920000000000003,-14.77979248186016,3.1874053531661586,4.4434092613998075,7.567284859093372,0.7592871813135993,-0.3168948928256228,3.1483077610326857,12.356714987893938
2.2960000000000003,-15.897319259231857,5.441463371210404,5.0538021162812905,11.539258869262055,0.6861232274730931,-1.3686960108974526,6.126630337812757,11.146104041290787
2.3000000000000003,-15.39263623220456,7.627336692069616,5.189753202295831,15.264780993346182,0.39864981205113725,-2.0737424131531794,8.309110027293976,9.601935561729253
2.3040000000000003,-13.521989596187124,9.061604323764763,5.151024407113967,17.844689648920927,0.23811111635027915,-2.167490846845733,8.825071970992838,8.03468155487112
2.308,-11.079109517684653,9.533024516761893,5.592269403057205,18.810853159474146,0.8937932837345686,-1.38764634014515,7.887194586186958,7.030546344398726
2.312,-9.056271260698297,9.309602956664657,7.0730693442564245,18.1696409402679,2.913025418674125,0.2549984006190802,6.385808664520058,7.021487235638855
2.316,-8.15009917577801,8.97704794537962,9.678973719080279,16.31187735888151,6.2885730615357796,2.370166345954601,5.252617490851762,7.973097523983803
2.32,-8.38859419317523,9.178371019539501,12.91268286933194,13.848222498390916,10.341545268663474,4.327282016489304,4.973056762059297,9.38188858181974
2.324,-9.101621001858934,10.349065617236155,15.890887132462224,11.424087187941705,13.953656791464601,5.555068039951918,5.456628979686877,10.560285359543784
2.328,-9.263576996262918,12.537504065034927,17.72950849349008,9.562841722358069,16.023843966307556,5.813867950166399,6.235012096101267,11.012190519372385
2.332,-8.028048605630886,15.363039722645041,17.90580350482754,8.560984286840496,15.918029425201128,5.290217776107323,6.7903364652145575,10.668528602473488
2.336,-5.182964464249363,18.134251186243578,16.447192258098756,8.446209287732156,13.71637189152881,4.469957018237686,6.806234392417986,9.859844177365096
2.34,-1.309940939474115,20.083578706483646,13.876447676992237,8.996206570553534,10.152379335330142,3.8732973121137197,6.238821975950808,9.065282065329724
2.344,2.4517880170743265,20.6441249061614,10.95062761825612,9.815056775132232,6.280178168346557,3.793081764939711,5.23581740126566,8.58917040310304
2.348,4.9147889859058145,19.66266880132169,8.336174112162503,10.445613793351091,3.0336658032821493,4.167226876626451,4.015546386130043,8.360914411144574
2.352,5.330276265052719,17.434114990216447,6.354519362188526,10.466323917880088,0.861361408966042,4.619686292496112,2.7996611601737285,7.967253894134726
2.356,3.6415232766843832,14.553060377977005,4.892707198286693,9.56994723044961,-0.39983658278317424,4.630794449257955,1.7928464331186444,6.887663494854225
2.36,0.4417759715221803,11.661716149039517,3.5173570330267,7.6384866177041335,-1.358487075351717,3.7643293496006596,1.166587462593493,4.80956918673862
2.364,-3.329164876627185,9.204375314339146,1.7293142477695134,4.800991012332165,-2.6989605263799836,1.8615714423961065,1.0108108008106658,1.857368991681584
2.368,-6.769683418197292,7.311983325081124,-0.7428107921426577,1.455088167220406,-4.768718761020159,-0.8584627836036924,1.2669703416483507,-1.3760072956303206
2.372,-9.29220379093779,5.861547779476846,-3.7427090529851648,-1.779925173238319,-7.333055713492287,-3.8270948570900614,1.7134229205331493,-4.014989860413434
2.376,-10.713896203323056,4.651768269761512,-6.690360173382657,-4.213401150144374,-9.634957379839136,-6.286567005362427,2.0398908739429285,-5.237858680749019
2.38,-11.161449444780045,3.590696241321217,-8.792355912935793,-5.307959959766333,-10.736565409735732,-7.543079978328932,2.0056453542921577,-4.614697484223362
2.384,-10.888459046400246,2.7816773390110123,-9.384038330924863,-4.903456877819904,-9.986114791227324,-7.24343293822802,1.5959041272146175,-2.3069160809788434
2.388,-10.110808127940638,2.467425108495438,-8.245734843275528,-3.328611523133471,-7.37339617289866,-5.557530359651688,1.0682357568058454,0.958074985909044
2.392,-8.921612287794595,2.8722696289943963,-5.740782460720215,-1.3133911299310839,-3.5886143936741295,-3.1549437786281764,0.8359332722043731,4.134233760288177
2.396,-7.313967213985307,4.037065024689063,-2.6951629407514806,0.28517703991756527,0.2566262238554433,-0.9612186494594148,1.2342202110989096,6.226580552459741
2.4,-5.274013337846759,5.736938383202907,-0.06510832854914961,0.8298989115253335,3.1089003441737786,0.2252999438750738,2.295005846227512,6.629789847553232
2.404,-2.8969179867519568,7.514329501390003,1.4491850559692443,0.14991233220421218,4.411065484021975,0.07396967755855055,3.669762187377427,5.298416028623001
2.408,-0.4633230069798113,8.816879589936226,1.6608355556345238,-1.4417270380891738,4.277463809283401,-1.1554257017576264,4.765147425438037,2.6872010538546767
2.412,1.5784514240152028,9.177310039794662,0.8994016231928912,-3.3659471837886326,3.3249718896923213,-2.777035009850433,5.02653443798388,-0.4995002086409106
2.416,2.720506526865404,8.360830795163594,-0.22642176931060565,-5.101746658588445,2.2717056329230605,-4.050847208846715,4.212291998334196,-3.6222744189996523
2.42,2.5726156934564894,6.4333044036620555,-1.1711963873790996,-6.429091621587155,1.5389957082609165,-4.556050129766361,2.4969437408665858,-6.335399941984468
2.424,1.0339325667711776,3.7329561204552437,-1.7122096001661284,-7.458673157925114,1.0839427603380294,-4.365303092606421,0.353586866090442,-8.6365992660286
2.428,-1.6150159708148406,0.769529559095047,-1.985487332650142,-8.444207422346919,0.5399914018105907,-3.9307182691404883,-1.712074981217568,-10.740550418295669
2.432,-4.720745067896571,-1.9251793824336407,-2.3072481161427763,-9.496649466331107,-0.4445329623522625,-3.7569566271244197,-3.416669729590464,-12.860710847326219
2.436,-7.4115121921197815,-3.958607953460566,-2.91283926421851,-10.406166215522855,-1.8987646992952065,-4.065698313229122,-4.796568786056724,-15.033203550705768
2.44,-8.868421657657542,-5.205903753375993,-3.7820854779027435,-10.709202501152353,-3.4541488693757927,-4.668840199885806,-6.094748148644675,-17.06466124869864
2.444,-8.597740411385862,-5.852621494671172,-4.656139891874259,-9.962959804803422,-4.545154691414824,-5.115831185598118,-7.522402512813072,-18.61633455438931
2.448,-6.609678627081808,-6.315833593120969,-5.217346596806257,-8.058831878733152,-4.7577600298873115,-5.008302345558424,-9.048062235455326,-19.36328074125818
2.452,-3.434240743931025,-7.065877243985825,-5.319783197246007,-5.372818559469541,-4.109215202566394,-4.2790874145832225,-10.358724908372828,-19.13758367751163
2.456,0.04511670988053851,-8.400926114123251,-5.10081670675396,-2.6327002268660813,-3.066438360264656,-3.250418414258914,-11.019224361298262,-17.989338151791703
2.46,2.879957795410731,-10.2724259079394,-4.885626035056367,-0.5651134756216655,-2.282587969483315,-2.43111948898676,-10.714437447264213,-16.154875243731713
2.464,4.3579717642906495,-12.259793930326072,-4.939535486574227,0.4685551220806803,-2.208985178981009,-2.1902732452697666,-9.428321086351302,-13.975377582770102
2.468,4.2167716003837,-13.720493866014024,-5.232084627886455,0.6322412736440489,-2.821846785579993,-2.520554761316436,-7.466675000643143,-11.814319091129718
2.472,2.6980174465507742,-14.066675106303983,-5.3830804288836935,0.47195179658027486,-3.6420228256310896,-3.03777115920904,-5.323799465994721,-9.99048719091266
2.476,0.42520039031662993,-13.035146825335609,-4.834330611742689,0.555031075017264,-4.035531004584816,-3.2075454981623697,-3.4748315898636695,-8.71601786462453
2.48,-1.847721686556591,-10.822484750728611,-3.174040556382719,1.112731884351768,-3.6193241025700176,-2.653278319225806,-2.2309137428672297,-8.037820723287648
2.484,-3.5276496379691786,-8.020129192321235,-0.43108921945809664,1.9022612147351357,-2.5296029648539653,-1.34967423579206,-1.735896279189369,-7.802208232442792
2.488,-4.394995085918129,-5.364486372389982,2.852461878845323,2.3739032252620884,-1.3805840629698007,0.4076399954206986,-2.0569912406314246,-7.673448160231188
2.492,-4.653804877928664,-3.4288550670679854,5.823212443556934,2.037154211240073,-0.9346538980669212,2.204973696007305,-3.269656766715872,-7.237745073461911
2.496,-4.788734334974686,-2.4055770311847855,7.698280108598497,0.8040402832123839,-1.673314011782752,3.738222151605741,-5.432080014370289,-6.185424663332235
2.5,-5.284072792521414,-2.0832624285447743,8.119865281285389,-0.9031848004661125,-3.5167643029649636,4.920264380552059,-8.451285476397613,-4.493922316842849
2.504,-6.346390224652593,-2.0204880410161756,7.292465572869521,-2.3549893358988845,-5.847575741553518,5.818373868831426,-11.932451384916416,-2.4982690323529044
2.508,-7.767955006719787,-1.8179732617877935,5.833599617331945,-2.9133270308613755,-7.81923183844377,6.49539387228997,-15.147930623927838,-0.7795657202297501
2.512,-8.997916131833362,-1.3505253191368283,4.427585519883118,-2.3918015603823735,-8.778161186017423,6.897920974399376,-17.20915502331706,0.11064260643263513
2.516,-9.405376493955801,-0.8345074969469248,3.4863478860168655,-1.156752776653275,-8.55908901435471,6.8894424074139184,-17.398360394628803,-0.0367049017319232
2.52,-8.635144616769526,-0.7120833011118712,2.9973412643402604,0.07753669175410938,-7.509741640792241,6.400105956056567,-15.502229358624842,-0.9177196767169535
2.524,-6.838885014447302,-1.4009610776476435,2.634333804677617,0.6468517895449013,-6.253488133678548,5.564910680030939,-11.948597859423584,-1.8063218829769676
2.528,-4.652466784350457,-3.0415381699962563,2.044098381169846,0.30292480930654353,-5.338791128172726,4.722495934073329,-7.664686035800409,-1.8985061589098713
2.532,-2.903284585606885,-5.370864948253051,1.1170241525044542,-0.6550194335301196,-4.980052250821656,4.243772013234274,-3.7075258914056346,-0.7375404190041426
2.536,-2.177884800761098,-7.7772063254901145,0.09021248707462703,-1.5425168787868841,-5.000753996691765,4.289298366325896,-0.8504250944093865,1.5120288515284734
2.54,-2.4835976187810482,-9.523185811702083,-0.5811513933089953,-1.6554984053237525,-4.988043706376739,4.669416634425909,0.6646468151244571,4.108285758486942
2.544,-3.214841488986192,-10.048832150057768,-0.5025378539420706,-0.6460165779496827,-4.559233800540972,4.920107534654222,1.0861661029369718,6.084729425603556
2.548,-3.4650732743563006,-9.211635641702427,0.4142609934547843,1.2826101852473242,-3.5801318543662086,4.565359532509547,0.8942575845937284,6.737016754859246
2.552,-2.5419061081247154,-7.373947724820766,1.8783656545297847,3.436468611603173,-2.2362445300252283,3.41349753920856,0.49120668249693367,5.985083717937242
2.556,-0.4043589787561057,-5.287744477924392,3.3636012283368473,4.909665150254636,-0.9378125610177896,1.7002872605375217,0.021284469569332387,4.403596185602957
2.56,2.2499956238145664,-3.8111756717190968,4.380318729742646,4.95205069842682,-0.1290917869451178,-0.02405679065594768,-0.583363599081995,2.904846646218086
2.564,4.318232811006608,-3.5726822814680865,4.721820531322535,3.2619680896495886,-0.09218159225211409,-1.2011730918546863,-1.3903202492304807,2.255657059305107
2.568,4.886427506770948,-4.713415475140634,4.548410319736908,0.10863245214744133,-0.8169040728468246,-1.5654858424118876,-2.258766159230138,2.6934958797648925
2.572,3.7695689065794356,-6.822399211933551,4.2655691144949754,-3.7488573392395477,-1.9835551785012058,-1.256839643681558,-2.8078489963298843,3.8469806447290598
2.576,1.6852194296003065,-9.093673300520944,4.278012126719755,-7.305656493545879,-3.0603848430263483,-0.6856691056417792,-2.592088008232606,4.981108331891273
2.58,-0.07443216111405082,-10.65297585191505,4.756419352205199,-9.640865840773953,-3.4865403573871365,-0.2565118754457969,-1.3808511614646906,5.4041178391536135
2.584,-0.3057276014653205,-10.911786395496666,5.551216181313086,-10.224416412106464,-2.878700508408061,-0.13494862239374839,0.6470941243003061,4.810520013268059
2.588,1.4720784554668396,-9.79765488613954,6.292327346855046,-9.09650678175098,-1.2015894848241544,-0.20222828903974333,2.9372163838080354,3.38104580401417
2.592,4.748571365800727,-7.770740801896441,6.597802973156593,-6.855112947918643,1.1604322625180359,-0.206942282276805,4.82486015546462,1.6206392039001924
2.596,8.285127145310259,-5.609480960393753,6.284119798505525,-4.430499290658538,3.5005512801294376,0.0167124789531079,5.898387680306758,0.06146737393607715
2.6,10.772368590850974,-4.064162561818226,5.470409509578046,-2.7135873963301185,5.0402018264334245,0.4312835727327231,6.2542311987039145,-0.97694279392221
2.604,11.496878367065527,-3.5519729925206383,4.515644948273305,-2.1941425562173755,5.238164394793367,0.8539732834699802,6.463001067886054,-1.4522702542210064
2.608,10.656199201711068,-4.024277696387817,3.828546390721737,-2.7623188726736236,4.0210627483476955,1.129277527834542,7.252490336679317,-1.4958292697835303
2.612,9.150386597049518,-5.065515080219691,3.6498873049557456,-3.7880495430051377,1.8154452419111564,1.2721604323792817,9.073422101557842,-1.2488355003423681
2.616,7.9963983819435125,-6.157650489499593,3.918072970426988,-4.4592322679674155,-0.645569643369047,1.4506584544289103,11.789426758059188,-0.7631141483188904
2.62,7.7365449332673935,-6.955350040912862,4.289081991332059,-4.211482125706416,-2.6675094866434543,1.8121556776387564,14.679060854605686,-0.02342129106927704
2.624,8.191022472035538,-7.432670833959254,4.302280060666073,-3.028403177843713,-3.917945379878958,2.290562809419231,16.75969547241755,0.9533894704318282
2.628,8.716546061840884,-7.81682505164293,3.6205792847485325,-1.4295294100018165,-4.538230214620147,2.5632912378090706,17.271386394609134,2.046997474309757
2.632,8.774980154072392,-8.367588742189621,2.2279555827467323,-0.14438387299735433,-4.985922703493545,2.229259675088955,16.06610330244099,3.0628844990297477
2.636,8.40589959670125,-9.153349871580879,0.4848374025295952,0.3326502703854839,-5.6955153721824034,1.1024611138056015,13.69418850568596,3.8415567679953178
2.64,8.270161034523085,-9.970608254638586,-1.0012062478831631,0.04242284451133971,-6.766743171079232,-0.5796706793501902,11.134794814624055,4.368389998107909
2.644,9.201612571110784,-10.46542360643962,-1.6448742901122684,-0.47406536577799097,-7.878666076097142,-2.2048264473605146,9.319072652285076,4.788305021783579
2.648,11.537222222304457,-10.378300696849207,-1.167836472068796,-0.5337901233731,-8.48628541641561,-3.0972996653458247,8.70661072290424,5.308004388158915
2.652,14.662665237373492,-9.758063154851005,0.24649607350080727,0.21841521620930937,-8.185987341936864,-2.907760994094571,9.119385989487714,6.0552359017094926
2.656,17.12632579744622,-8.99200746843604,2.0223431294955594,1.5282731836453403,-7.019451592801128,-1.8213919364138385,9.918282754414129,6.995568866211048
2.66,17.34062702905257,-8.611851201316389,3.464760097215853,2.63098506929974,-5.512167851995788,-0.43232256733571084,10.394890251288052,7.962421909221769
2.664,14.48095191878598,-8.985281574358646,4.105938913624043,2.685526450985814,-4.400757677331766,0.637919786984483,10.147654437417621,8.771027482211224
2.668,9.077586352562033,-10.072072063100752,3.941242282254793,1.2960537778019017,-4.190163578969949,1.1348293996313257,9.233512045595642,9.312932814262169
2.672,2.911748471018618,-11.405159965867144,3.4258129698280917,-1.2036986333172077,-4.808857423029914,1.3079245141414322,8.029084586085204,9.550862824497596
2.676,-1.7958303168163985,-12.330994773103892,3.225596730935638,-3.8923741466522843,-5.582725636165388,1.6816301821984623,6.91252721856385,9.41279354176709
2.68,-3.4676470141397973,-12.372093523439862,3.8443982299953916,-5.760181148251718,-5.562946635688377,2.6062482572819246,5.981355927732906,8.684371214819045
2.684,-1.9440495305303895,-11.511638321704275,5.33685348303747,-6.274861287052315,-4.043650024701735,3.897775051609769,4.987237828222304,7.031766215595142
2.688,1.4861974049569182,-10.222840117749966,7.275737281771279,-5.673749252576334,-0.9867337632575257,4.8367891686219995,3.5487678870211288,4.200437301161235
2.692,4.807081795677616,-9.226684463342142,8.987410821412592,-4.814088409213492,2.882972606006389,4.5617749221622095,1.4976414525094643,0.29584806569631183
2.696,6.331230575754054,-9.111244618276144,9.92796490637728,-4.668260280588251,6.3731989979558215,2.622666185828817,-0.885619767513347,-4.047623369267786
2.7,5.514433047069511,-10.024958165368716,9.97721346546015,-5.765626637480109,8.353817007703308,-0.663817006594491,-2.8990556179970155,-7.769787372804094
2.704,3.103240454090882,-11.612327744645688,9.474240394256483,-7.904381494795637,8.241157428002088,-4.3054267557016015,-3.734317610082439,-9.786070364193666
2.708,0.5811449797130203,-13.213071488323378,8.967576900673738,-10.283042046486385,6.200768421649843,-7.132745278562787,-2.9193220755114155,-9.513292268917317
2.712,-0.7193057374160804,-14.19364206333558,8.84211281546776,-11.943490994823563,3.0035506866607786,-8.41089264902605,-0.6222919859803884,-7.214134057192375
2.716,-0.2902710854393189,-14.200128688021413,9.074756903922626,-12.22948869879394,-0.3387694427630148,-8.181531595114105,2.3891022524675916,-3.927570951437378
2.72,1.4062747460973104,-13.231820472706147,9.268078549245184,-11.022315846646803,-2.962992523495809,-7.13016577131309,5.116544547088124,-0.9892863274350012
2.724,3.3387098284596366,-11.537763878070121,8.942603940599355,-8.656935729933126,-4.395106129470401,-6.0844753618800365,6.819192468015175,0.6172412459310754
2.728,4.549238026739253,-9.440252331159336,7.910450567134021,-5.62979947040664,-4.574168504478138,-5.478542266781472,7.345808577259638,0.7257595395435246
2.732,4.621743373741223,-7.225798815238132,6.472824808067475,-2.3369845166553684,-3.7327044898706117,-5.136303994350793,7.119972214037659,-0.004665432708423012
2.736,3.7357216967810176,-5.145647542695096,5.3045886434474365,0.9974982639913641,-2.243913791568543,-4.5102269331061935,6.804759397841116,-0.5391104396215356
2.74,2.3630480234653293,-3.4695107830534546,5.077621772915201,4.200448254061651,-0.5277226892830402,-3.189052713542721,6.852266226492911,-0.10862262067772033
2.744,0.8662825775212775,-2.493738757233679,6.047207404583468,6.985280589979977,0.9807196721405465,-1.3162864997218486,7.218986502109549,1.327272995764507
2.748,-0.7066586063227094,-2.4376989925593424,7.861768620201192,8.928299014246747,1.8721794162674197,0.390109207968945,7.425237894991243,3.0606748740686776
2.7520000000000002,-2.5297382623916027,-3.2837456436469865,9.72087924695587,9.638847605698631,1.8481694710503653,1.0519863443266395,6.906803760584024,4.053999117019875
2.7560000000000002,-4.727332203692091,-4.674570775298611,10.806899492159694,9.027135585708049,0.8432073433928355,0.2078800896768369,5.424775771962448,3.5315927346574423
2.7600000000000002,-7.1417134063456205,-5.973903134520246,10.736809106692617,7.480081231771292,-0.8854528549912075,-1.8290833614702713,3.2638878250937093,1.393711256451927
2.7640000000000002,-9.328168016048048,-6.5121914972813855,9.770382151109548,5.784567167629342,-2.7847551786318556,-4.081313515532399,1.1002888717515447,-1.7666846820110704
2.7680000000000002,-10.767166158954005,-5.885043541575646,8.663392906287633,4.809103942148672,-4.172775587014131,-5.434300687987228,-0.36304037384196697,-5.012083275466612
2.7720000000000002,-11.129884096037285,-4.133963412004709,8.253799625025914,5.116550114840859,-4.4937356919143925,-5.257961940240051,-0.7626289680312901,-7.530950917588067
2.7760000000000002,-10.406157132393906,-1.6911752676454013,9.025478377576572,6.735395663812215,-3.53721744244784,-3.734315419894819,-0.20124787663054633,-8.947017097179108
2.7800000000000002,-8.83223086194347,0.8714791434695139,10.88642483162566,9.202982957830653,-1.5217761666800844,-1.6998594768227533,0.9235291254888427,-9.322179596330296
2.7840000000000003,-6.712968677390773,3.1263917474761933,13.257247316721413,11.832771481194907,0.9866220599264763,-0.11896846668966798,2.2354988435145575,-8.925934749013344
2.7880000000000003,-4.2871063787734505,4.929731568577676,15.374532184306588,14.036483397889569,3.2715706686216923,0.46227445460212024,3.595454867488705,-7.986397343556842
2.7920000000000003,-1.740434795513357,6.33250055969172,16.612640854260004,15.505738516279058,4.679791209950341,0.14663023446376489,5.065173596690354,-6.605951275269122
2.7960000000000003,0.6635793152372678,7.351123437154224,16.66620457379299,16.18979610846468,4.792793433023661,-0.513059675630986,6.670996771319258,-4.857749248353825
2.8000000000000003,2.5002011020739907,7.794146977250112,15.545462777368748,16.15440771265115,3.5196839135199722,-0.9713256754912516,8.16467362697296,-2.9321798976964013
2.8040000000000003,3.298980420651363,7.306215590680102,13.461699291826339,15.470892845938636,1.1134609307033898,-1.0682260571642166,9.017898524318388,-1.162907942230234
2.8080000000000003,2.8303992919918644,5.628575511554125,10.724719642207102,14.230428513250406,-1.8731387407772804,-1.0778927998820587,8.71078310503273,0.13129235916508541
2.8120000000000003,1.3786198876721336,2.9013351816382986,7.717995830774326,12.6503290885354,-4.6970588556171595,-1.418191938415882,7.146783103345619,0.8897559427325099
2.816,-0.2161878215704096,-0.21148159287094026,4.926986348360571,11.142970067220592,-6.595229782246591,-2.244581925487883,4.894288458379208,1.447206480262322
2.82,-0.8692919932784897,-2.7228257235713613,2.9101069801540476,10.222186166272582,-7.014765690342068,-3.237219963416488,3.019889312308349,2.412467436024995
2.824,0.19884888772762865,-3.7795382572006675,2.1518148319138364,10.248271410225255,-5.82969525984867,-3.7469608538548664,2.5399213991413134,4.317861756856144
2.828,2.98987807853144,-3.1037757533470955,2.8503535529472463,11.173653043915452,-3.4185762145291525,-3.204129322705117,3.8034351484664253,7.2567942710213575
2.832,6.623156160076464,-1.1531792665486762,4.764027845032979,12.463308009254149,-0.5399334322927984,-1.5213650425169292,6.18809320199404,10.747285846890442
2.836,9.721854168387951,1.1279445872617098,7.242923213243133,13.298963497212728,1.9785091962184937,0.7900002893882061,8.356436028209984,13.93517764437861
2.84,11.12396679382498,2.8310549787580173,9.464758172411708,12.995163945183116,3.597207888321086,2.8851628619830016,8.967799228652957,16.02432446831923
2.844,10.500889492435013,3.5649262524255896,10.773946984696764,11.384360183838771,4.284423288537287,4.066853379563689,7.442462791270875,16.666731971344987
2.848,8.532202952389033,3.6155846184987723,10.952624092081933,8.932382238188813,4.474591489523261,4.177690837795805,4.321728167806173,16.071149242620066
2.852,6.526773161410706,3.679306661119745,10.269857378011462,6.498407582086366,4.776270246709251,3.6587845547292397,0.9850006160148146,14.774894596504268
2.856,5.7049393009105955,4.344617360738692,9.29347336608569,4.871023338598301,5.600823106821202,3.250688105834939,-1.120463210855383,13.252284659349606
2.86,6.571177571900917,5.6569965891675205,8.588086723455437,4.363019444477574,6.936203931113022,3.5336172770768814,-1.2763595277843462,11.653789105115909
2.864,8.730929710619815,7.043978499956286,8.472071469472667,4.7068210727963855,8.404037176787535,4.589647330663507,0.16296784555030364,9.864363096222732
2.868,11.214535350614835,7.6468478057034925,8.944288084726114,5.28540543384504,9.552237282004956,5.978302202974918,2.0650473937237903,7.814579618209774
2.872,13.085295309431709,6.844753694316595,9.772750874355808,5.530099930246579,10.169578726875312,7.003903720300691,3.246507138764427,5.785875869815449
2.876,13.943800280457257,4.630438248781146,10.641803993405887,5.218443123642963,10.392014832858894,7.082223392164925,3.14901022724628,4.4199637391723385
2.88,13.998875817621066,1.5902302298201274,11.225140688607922,4.4666032798639534,10.494007047008441,5.980860312574185,2.020251458748465,4.332486042924076
2.884,13.698440834231068,-1.4929467851793037,11.158735168085911,3.451869913741688,10.50199748838072,3.812393282370892,0.5024057943136173,5.547129585762589
2.888,13.222634004293386,-4.14662486603505,10.009739689711779,2.1061760663548554,9.927574857481188,0.8530016085904535,-1.0467966543942961,7.163042107218069
2.892,12.213101054411096,-6.4859732958819665,7.345252992218893,0.03669985319109781,7.870264422477817,-2.6343315479715828,-2.9967431036797314,7.56521130162179
2.896,9.970957650190524,-9.056341387322671,2.942197938387114,-3.215718275599917,3.527474095588611,-6.439806955185027,-6.2871746724619255,5.185362500141433
2.9,6.041911243850458,-12.32547039512221,-2.9448780186122163,-7.712649588923965,-3.1336772596078015,-10.294357638778742,-11.702739509455197,-0.541720528887133
2.904,0.8039541531199927,-16.146038790191632,-9.428283003550758,-12.773258356595088,-10.954590600382346,-13.725717555922106,-19.0126131449006,-8.584489669191104
2.908,-4.370802283621883,-19.556671405990116,-15.10381542439208,-17.04034170926022,-17.746454676384452,-16.045351960196683,-26.56965110020762,-16.494704211936178
2.912,-7.563654079047388,-21.107901917528658,-18.470010875284316,-19.008179307605232,-21.070553050899544,-16.543878632838762,-31.736692882401474,-21.361304954439223
2.916,-7.1997316339919255,-19.581750803466292,-18.49062676654784,-17.764963693796904,-19.30395208813158,-14.817582032759768,-32.018586745667044,-21.09932537097715
2.92,-2.900073166959773,-14.71449315364022,-15.031686122688987,-13.519170713089906,-12.451668970697668,-11.03041016822095,-26.324961721560662,-15.40959575572135
2.924,4.1945913922777205,-7.5106344369268285,-8.952058793914366,-7.588349982038515,-2.2691894870053746,-5.941081286749916,-15.671187512717363,-5.911823852674778
2.928,11.84047848572147,0.055254182167469246,-1.797473312536789,-1.814894960331636,8.403471841404365,-0.6546461025433632,-2.905042556075907,4.59802080873567
2.932,17.67715591858303,5.83593615282377,4.760892960605931,2.301300420454972,16.78758185524294,3.7968333546524002,8.443401767353466,13.370160076813843
2.936,20.281574678775836,8.425576442667662,9.488606147480192,4.280501038159112,21.23939204642931,6.822780162435093,15.622637113124306,18.772940464854937
2.94,19.727222309934636,7.728222942321894,11.905961001836445,4.77225597763738,21.73687401725912,8.407116799900729,17.700551661382097,20.698256157303923
2.944,17.390370709996635,4.91386227052652,12.272549407251773,5.056833989658102,19.590035812317097,8.969701491771957,15.703737069769604,20.191349869736012
2.948,15.125889766939022,1.8107065221692888,11.315899088591145,6.242178456263634,16.606480187407303,9.06226264668842,11.855325039314385,18.62246359628788
2.952,14.276495289322847,0.05354967180065806,9.869206008509304,8.619493563997434,14.180590625902243,9.072542521413208,8.387354952119843,16.921010333035255
2.956,15.046927246293588,0.40472712281590884,8.584164851443504,11.539521636746262,12.769614894739806,9.086206611542519,6.551539524086347,15.273204432037497
2.96,16.54634720367953,2.5448693058669845,7.792994583494339,13.853994650267069,11.955499746672878,8.947187359709467,6.278287559953421,13.35933877912564
2.964,17.400876547328572,5.361159615124629,7.497267095438985,14.623339231805602,10.947485315551779,8.436219983521315,6.548401775218249,10.87861812783401
2.968,16.557776938234202,7.5352197138219505,7.432515117623161,13.65978070281458,9.167232976856607,7.446678085897525,6.173632435661554,7.968735187565191
2.972,13.83872505432905,8.126895404922456,7.1780007152500485,11.596219023460975,6.574969191651576,6.064383431002975,4.509007888248569,5.2477201629551615
2.976,9.981380455441645,6.900819076649657,6.298176733534499,9.46923555283757,3.599876960598231,4.529743119574855,1.7439554526365253,3.4796315047348725
2.98,6.210231545723652,4.30301585517109,4.50597755854832,8.092966702314303,0.7888956436098606,3.1305492983494134,-1.2976788795077292,3.106047255975184
2.984,3.6178988743728,1.1659717148997946,1.8127863052264264,7.605579420638731,-1.5531933185391487,2.0951430938498836,-3.657703951464859,3.962476065800394
2.988,2.7086642619269194,-1.674872602492251,-1.4050498750312117,7.456330657887843,-3.493518443102073,1.533599757739462,-4.728372380912689,5.358561317786398
2.992,3.2971315418610936,-3.6862476219819467,-4.489251313518883,6.806904854624538,-5.3229578652643035,1.4259065784929064,-4.479061258475108,6.453700477035395
2.996,4.743632040806927,-4.759950642974757,-6.734073592763634,5.083037043188794,-7.253556512698276,1.6468206037838566,-3.367588134905856,6.689683954265657
3.0,6.324897042096232,-5.155185013778796,-7.6900299144194015,2.3338766010813043,-9.186742637062473,2.009403402364155,-2.05931316749839,6.020901386857911
