Timestamp,O1,Oz,O2,PO3,PO4,TP7,TP8,Fz
0.0,-2.0463630789890885e-12,1.1368683772161603e-12,-1.1937117960769683e-12,-3.126388037344441e-12,-7.389644451905042e-13,-4.547473508864641e-13,5.002220859751105e-12,-4.320099833421409e-12
0.004,-14.943537956641535,-38.91685703886196,-33.33194471645902,-19.17703123768632,-32.718922603924284,2.871849817456223,-7.41134649653452,3.710588647417694
0.008,-25.866871255272372,-67.23783408287369,-57.283143724818046,-33.60327752086175,-56.3141399030103,5.030067733408828,-12.598475814365543,6.7667069774526
0.012,-30.36783663453093,-79.13358017207412,-66.83474018009645,-40.53589939350513,-65.96579354363146,6.061338437337781,-14.584507278752312,8.515569519018072
0.016,-28.525596210552862,-75.83564510947713,-63.37117957553778,-40.21487428642422,-63.14331506484663,6.0256653074525275,-14.105012406277865,8.44223157878173
0.02,-22.606452444388253,-64.31746571058574,-53.364067002276784,-35.334905668435056,-54.2435261341752,5.428390336036841,-12.998997067626988,6.4340482485552
0.024,-15.8382265423121,-53.26347358926341,-44.581122399353546,-29.413120127138882,-46.79784362011296,4.996835394683671,-12.929873834742352,2.9983072605399457
0.028,-10.904981871939299,-48.633828965294356,-42.026503545040384,-25.020098205038607,-45.47949781552353,5.366393059110123,-14.284599158676883,-0.7691322689440767
0.032,-8.90350339005937,-51.243295405411516,-45.87309866849023,-22.85504771296388,-50.16500529914509,6.7991020287338415,-15.984460037089491,-3.578511031991866
0.036000000000000004,-9.263657776314403,-57.489469482142226,-52.36963309593716,-22.08813664673579,-56.98285115318501,9.046076210039132,-16.36426118267218,-4.57817996394931
0.04,-10.505369653246873,-62.4001753071953,-56.85008196044868,-21.543919584548064,-61.40154236353098,11.404236772707236,-14.558664106269646,-3.9007888557327988
0.044,-11.301091805213503,-62.96901215563889,-56.85989238662472,-20.85350855675506,-61.30774807136402,12.929030461844036,-11.485211094194199,-2.789285462089765
0.048,-11.234856898272824,-59.77909520822203,-53.50523456803785,-20.81535272239927,-58.182098844497574,12.739542363280862,-9.69916520678612,-3.1304417453419546
0.052000000000000005,-10.885763102244198,-56.179173394492295,-50.39737389200104,-22.790802680331524,-55.831063049236036,10.33215574237488,-12.088421641133095,-6.533645124380314
0.056,-11.296682229120961,-55.8214293839811,-51.0814518416866,-27.617339795727958,-57.677535441433946,5.806833655756918,-20.122988008735433,-13.391797181706579
0.06,-13.195736112801967,-60.202633736837726,-56.63712146720479,-34.7866916923914,-64.37709293418888,-0.07319574654923144,-32.670229638509284,-22.436598464456324
0.064,-16.433270612182866,-67.70008616316721,-64.89640591605317,-42.420401573727304,-73.21611048572316,-6.0242685431251175,-46.103208012172274,-31.060399634324767
0.068,-19.964683660379478,-74.56116055006044,-71.65139744934413,-48.079979670893465,-79.5865801372465,-10.577289849790589,-55.74401672921414,-36.330112764659646
0.07200000000000001,-22.36932348141363,-77.12476681045868,-73.04060931533473,-49.93193540554063,-79.58322391704661,-12.505187319564016,-57.92941879433141,-36.21547783768551
0.076,-22.593962256717703,-73.89582712930707,-67.6750627274302,-47.598135775504886,-72.16881913764476,-11.20944988917779,-51.65198575477581,-30.44673227932742
0.08,-20.49683248244574,-66.24392567955428,-57.27364152359161,-42.21720921144555,-59.65442874421251,-6.926935136569114,-38.936126286288015,-20.57956195977863
0.084,-16.909487968121965,-57.45122123355546,-45.577072553558224,-35.751417110833984,-46.346639492775125,-0.6743516824131461,-23.81350698660367,-9.276651028798767
0.088,-13.209909177161677,-50.82183401353629,-36.31889143965947,-29.997300610738307,-36.28174975959115,6.067865991966642,-10.498022859241757,0.8095188639360913
0.092,-10.636698589903972,-48.04288604029344,-31.493440395595798,-25.868115278918992,-31.410810452430354,11.842681123322336,-1.7079000599148912,8.020890552556807
0.096,-9.731644878577157,-48.70544612610911,-30.852796517003753,-23.30920317265378,-31.201240483073576,15.668816109746786,2.056274354357072,12.081520029492765
0.1,-10.153173527118184,-51.01785955812471,-32.66842047024454,-21.73393130830624,-33.60933297224642,17.279090167702634,2.071763778151194,13.786273311506932
0.10400000000000001,-10.937717592571545,-53.08030916688651,-35.064558658685144,-20.601367713497666,-36.60231676032785,17.059472768870137,0.2217150346868948,14.249826992930764
0.108,-11.044706803019864,-53.85862424069924,-37.01906664356068,-19.742232584941405,-39.215041139235325,15.73716727004313,-2.1653304105528264,14.187262730080477
0.112,-9.92128508116349,-53.417152949349685,-38.5644886565303,-19.307988250493196,-41.65201735096659,13.983810445025881,-4.840867089609446,13.607573232682455
0.116,-7.830431490100352,-52.501958040606155,-40.27718560056573,-19.500431520362554,-44.60786746395246,12.137593488750156,-8.348606884710705,12.027788626318397
0.12,-5.7301791857448166,-51.858119221336295,-42.5321968656086,-20.299235766749803,-48.38702956975038,10.18729680025507,-13.230218662326934,9.02884976429533
0.124,-4.785327341779578,-51.78152723315526,-45.07034208191257,-21.40200851548923,-52.46677156642585,7.976042305127237,-19.28185850056542,4.73987840487689
0.128,-5.732088687573508,-52.09602530202477,-47.120287127586096,-22.377422902331688,-55.727029482567644,5.487581529346926,-25.34539344483545,-0.049997168560878436
0.132,-8.449611229410351,-52.47953487989966,-47.94453398464731,-22.917394399484067,-57.14308514367664,3.0251249926698165,-29.76499895433642,-4.208191654001098
0.136,-11.9770643831541,-52.840400781672486,-47.403205724560735,-23.009994959737355,-56.4506663482953,1.1679282764606569,-31.211159872479584,-6.791090620047953
0.14,-14.972843778614305,-53.407710562772735,-46.10198460972845,-22.913117861529145,-54.294492451012246,0.5093904269950826,-29.37288408176346,-7.4767205435374535
0.14400000000000002,-16.396857270525857,-54.49954255387058,-45.02576675052353,-22.973741718881058,-51.79738584522619,1.3037407527407936,-25.13644987430405,-6.669399830519524
0.148,-16.05560350671965,-56.16407333449433,-44.89662984682229,-23.42961120249015,-49.85559139712055,3.2346343485573925,-20.167730659872973,-5.24031905843151
0.152,-14.7157503037416,-58.01320511722702,-45.70543188433763,-24.336853619858232,-48.66366352699555,5.470229305122473,-16.145872920603495,-4.083170404790735
0.156,-13.688158572943621,-59.389822355806075,-46.71130466681615,-25.636886952854923,-47.761014631221826,7.003381704558933,-14.044216433304541,-3.7429888273189817
0.16,-14.066140854224159,-59.721687801636506,-46.874232425607204,-27.25136526901531,-46.49136726390384,7.117182124085616,-13.827482481796437,-4.30824059278325
0.164,-16.030455566380454,-58.82141844487694,-45.44449187081412,-29.103027892395062,-44.5265894992076,5.729056278577332,-14.674937452628342,-5.583931297254139
0.168,-18.624957955329478,-56.93827038482769,-42.37608504635506,-31.04930042523324,-42.104034348131165,3.4261421268259937,-15.556517922697026,-7.371403969467451
0.17200000000000001,-20.199709730566724,-54.598469567331506,-38.38730524662827,-32.83297114231016,-39.89156287303288,1.1672087533705735,-15.833530980445005,-9.637846971215254
0.176,-19.335103398579975,-52.39563743754769,-34.6811613441518,-34.15113415435275,-38.63091803929257,-0.197923385032027,-15.574395196503588,-12.46357689461297
0.18,-15.731989662580702,-50.81732689972614,-32.442958511214954,-34.81837247350916,-38.766154306687156,-0.3406595782601016,-15.447349997588617,-15.82910121587804
0.184,-10.545889072641614,-50.16045960185153,-32.35235945985528,-34.917630542361564,-40.26309858315483,0.4036117762586855,-16.290204212847357,-19.438632359645453
0.188,-5.924146615890152,-50.507563964939266,-34.30482561289921,-34.802384811541,-42.66916450637768,1.232521060732779,-18.604723273490322,-22.744586204099278
0.192,-3.9304375093577164,-51.73353373736114,-37.46567159739254,-34.89903065692761,-45.34777037291576,1.3224691337181866,-22.248505186803072,-25.18130722939827
0.196,-5.448772378080378,-53.5582930239475,-40.665851982708034,-35.42626460267854,-47.76599922307099,0.26902014954748665,-26.487664302361623,-26.49342704935202
0.2,-9.678935424499002,-55.607723317501325,-42.91812433809724,-36.19874818179153,-49.65136746018629,-1.7115208680983187,-30.34776454475002,-26.941317559897698
0.20400000000000001,-14.496043857160714,-57.467706030430065,-43.78383652346889,-36.645737311621474,-50.9567161982896,-3.9182105221941583,-33.04543683999793,-27.217064706558062
0.20800000000000002,-17.497093100323752,-58.746870673000274,-43.43580441378339,-36.07306164011629,-51.703566501789965,-5.553958605355319,-34.280182488373725,-28.079717781001136
0.212,-17.234185421586687,-59.205746826699965,-42.46327793456618,-34.087351120767266,-51.872145126031455,-6.137324011981036,-34.261529471872905,-29.89229557627425
0.216,-13.97687661645574,-58.9077187906077,-41.55047894500888,-30.94598529993084,-51.43364881172113,-5.717687236299071,-33.501588730655726,-32.33913866188482
0.22,-9.54802234866753,-58.22373265957111,-41.15075426923016,-27.564691532736674,-50.43131871759789,-4.782968926412877,-32.51252981560867,-34.50757415436851
0.224,-6.356527782613398,-57.66383662980746,-41.318459963236194,-25.152347677997113,-49.03031399559245,-3.958065192808135,-31.584151688761494,-35.33790521130072
0.228,-6.159955949156256,-57.60892349433141,-41.762863169403715,-24.650447886736174,-47.47841272694069,-3.6866045025061567,-30.745891232278836,-34.217045331708164
0.232,-9.198081389740423,-58.08927199742817,-42.07398727715747,-26.276511572037634,-45.99764918769,-4.054892290127782,-29.891774190341266,-31.378833839470644
0.23600000000000002,-14.169204843476223,-58.75303544319121,-41.9833635040909,-29.4330220004465,-44.68613114052965,-4.858752410112174,-28.964731226260255,-27.889821064071157
0.24,-19.00217487999987,-59.04287513118766,-41.49669309185413,-33.03221243941118,-43.49651312838614,-5.832636955840599,-28.069951734083816,-25.208877009394428
0.244,-21.950416228648578,-58.52113561751469,-40.85013450651775,-36.047746657293715,-42.32651422882458,-6.849222887808764,-27.443447792265943,-24.509900747546226
0.248,-22.401026423487224,-57.140888251737465,-40.32512767921969,-37.96877724145395,-41.1440337793901,-7.970164255998725,-27.310047414015344,-26.124546132855585
0.252,-20.98067368019838,-55.28183557150612,-40.033085294580815,-38.90693642436122,-40.04377715093426,-9.324691581986826,-27.726225065745325,-29.396652000673157
0.256,-18.98170080077557,-53.54153606535078,-39.8230908156022,-39.32960976519439,-39.20216125987383,-10.911618212237045,-28.510671493186692,-33.00408772455762
0.26,-17.52335379817964,-52.4249738247903,-39.39049215064449,-39.63366130670079,-38.77752919566865,-12.474353238441381,-29.3002881169989,-35.57068233133896
0.264,-16.974136628304223,-52.12902369246797,-38.54145545022254,-39.86186241432449,-38.84929720479079,-13.556613509724912,-29.714108836754804,-36.26370190652483
0.268,-16.936506316582268,-52.48484129811936,-37.394353559051865,-39.71805319008297,-39.39736168453862,-13.731661237225353,-29.517269361306944,-35.09370715073828
0.272,-16.693679812416576,-53.03971336747543,-36.343298011232264,-38.81681384957096,-40.295136759759885,-12.867720011488927,-28.701790966110593,-32.80251205080526
0.276,-15.779607348060495,-53.260389479331366,-35.831528376520055,-37.000068024143275,-41.346801552834336,-11.265246648762286,-27.482884026268493,-30.456949112845905
0.28,-14.297312386619069,-52.767144149983665,-36.07241109046538,-34.49964053334543,-42.34702168341096,-9.54881627765485,-26.226688090985135,-28.965219657007083
0.28400000000000003,-12.801831330515938,-51.51819714015414,-36.92032335508611,-31.844789885740624,-43.15702755168593,-8.365558718239981,-25.358328951514977,-28.7496650349442
0.28800000000000003,-11.837321915063967,-49.80694609001216,-37.948180584592365,-29.546698376596623,-43.72788796603595,-8.058633000836835,-25.25633318804239,-29.696057453673347
0.292,-11.472366493239178,-48.06404207898788,-38.665113413947324,-27.7666876892074,-44.049301073605534,-8.496469334280846,-26.137387817780564,-31.331954424818832
0.296,-11.17371114722846,-46.600282822164786,-38.74974547432862,-26.212239321248262,-44.08745965486196,-9.153044808971572,-27.94248003926259,-33.079608535390435
0.3,-10.127529534482392,-45.45115860069416,-38.18417197249687,-24.353351729707242,-43.77649358580868,-9.390842202726162,-30.276270990809962,-34.437516347502424
0.304,-7.828521626141651,-44.42731728599529,-37.23762324474251,-21.853809756210012,-43.08808505465356,-8.797866235724769,-32.45567293589693,-35.02481601312684
0.308,-4.519600634105473,-43.2856421866893,-36.29261611279776,-18.917645986151456,-42.08946986217188,-7.389951289381997,-33.704079139203714,-34.55362853534734
0.312,-1.158786384384257,-41.878964774114024,-35.60243622450082,-16.286691751208537,-40.909357346916295,-5.580205944086629,-33.44212113766889,-32.81408742669282
0.316,1.0679521575164017,-40.222410920690095,-35.139619900763705,-14.876968553630377,-39.64512206049983,-3.9637144696878295,-31.546280633280503,-29.733251706903957
0.32,1.4130692755279597,-38.45866291978871,-34.633489990554835,-15.255298384580783,-38.28744083827212,-3.023444085295978,-28.42878130075178,-25.47843308266897
0.324,-0.0014250601694811849,-36.780121180202855,-33.78092642680531,-17.279816515366974,-36.742680630976565,-2.9020948288200543,-24.871967035460102,-20.504015254939986
0.328,-2.258673259534703,-35.32785404301842,-32.455574125558314,-20.11805778969574,-34.92887853208663,-3.3629186575326457,-21.668011860165507,-15.482688288115014
0.332,-4.165477232139892,-34.09116920679128,-30.75268247504448,-22.62512237307601,-32.85747155228023,-3.9379044450713536,-19.230606243924967,-11.110507866065973
0.336,-4.919296133124362,-32.891543164213886,-28.880813508213123,-23.887327182654417,-30.663778627702186,-4.163309338844556,-17.409562361513508,-7.858961316406294
0.34,-4.525629961347818,-31.48070645082896,-27.00272963572843,-23.6375036407253,-28.578503776105322,-3.7789554843325277,-15.633049749279508,-5.805843090795179
0.34400000000000003,-3.730181557342121,-29.729114589621304,-25.172845089941575,-22.330242902376312,-26.871270741778176,-2.8009722471635996,-13.325620412524586,-4.644418397316713
0.34800000000000003,-3.5281878927216894,-27.767095440285743,-23.386361561588274,-20.843758189547543,-25.76644648521892,-1.4619541606275561,-10.350204406367993,-3.8800528978670172
0.352,-4.5166561297592125,-25.94889409178211,-21.66115757240118,-19.954575909559367,-25.34422719536019,-0.06380611832196337,-7.186995229678132,-3.100027360624381
0.356,-6.5040692540898135,-24.683976883923947,-20.095647401628412,-19.915960738246213,-25.508721357434638,1.1712290295088224,-4.7394814579831746,-2.1808823554479204
0.36,-8.608104583227032,-24.238332237459986,-18.84187387193424,-20.36939778024157,-26.04186677368955,2.177741361786957,-3.8456234497123205,-1.3145314542070992
0.364,-9.76694342032954,-24.62939730818266,-18.018562261231978,-20.61017005013855,-26.718893597293118,3.028850966411028,-4.777044767370171,-0.8424721174583283
0.368,-9.362083713931725,-25.63495898350766,-17.59412013382348,-20.023224640082844,-27.377761820349974,3.838298063016964,-7.027089006993947,-1.001605615361541
0.372,-7.547877552048021,-26.86225621447818,-17.300899529856906,-18.3959864980784,-27.867771989349194,4.654732140013948,-9.50503896215173,-1.7257830491564619
0.376,-5.124700208725017,-27.86294515043926,-16.69009675145685,-15.96586876110132,-27.953522634818682,5.398339078898061,-11.046661048212172,-2.6305857521813323
0.38,-3.036840998419393,-28.25073505190005,-15.336709589391944,-13.208739120296514,-27.279423907481032,5.8958458487236385,-10.955169271184332,-3.1703614691400617
0.384,-1.8173465680742993,-27.8101219272628,-13.112282944715616,-10.53940275475179,-25.485991535024823,6.004361286997664,-9.281970690620938,-2.8795351442672654
0.388,-1.3083540079869636,-26.53608178399179,-10.34212918891376,-8.114431655154476,-22.421917564680598,5.748848858890824,-6.696126241237835,-1.5795874562923018
0.392,-0.7896207297233104,-24.584062765120052,-7.716082622589738,-5.829343800988227,-18.318298793953772,5.384476454157493,-4.045797857447042,0.5411368677866903
0.396,0.544103481440743,-22.212492754935056,-6.004003678878007,-3.510304001748864,-13.828913051332506,5.324204083423865,-1.9043639488929784,2.9972994957417995
0.4,3.035449872042136,-19.755819008078674,-5.7216311726297135,-1.1660117770129546,-9.877452123616536,5.948783552228633,-0.35261262445465036,5.192868348392494
0.404,6.2588443130434825,-17.628657868559458,-6.929081678403691,0.870981400444407,-7.360613221167,7.389569725653018,0.9077860520476406,6.641939198870659
0.40800000000000003,9.138490379474433,-16.27920129920176,-9.21234865906149,2.030207500635697,-6.793807140902686,9.397236165780669,2.232860740268052,7.134002958562633
0.41200000000000003,10.446561978570116,-16.040029093136468,-11.826565737089368,1.792765024779328,-8.04862431476954,11.388984434513077,3.744237507725529,6.793974876474749
0.41600000000000004,9.419622712235423,-16.942629876732553,-13.944447312445845,0.015177730524101207,-10.342302460059159,12.679919263088777,5.252862728218588,6.0336858466484955
0.42,6.176609852988577,-18.60748648615845,-14.895212331303128,-2.8873687437233,-12.506626529702885,12.80026025702955,6.424128588429994,5.4340891868178005
0.424,1.7052894791038398,-20.330539558550186,-14.34096360891931,-6.031600420878021,-13.454704492118822,11.749423375053539,7.040590887286044,5.584027449574023
0.428,-2.5478952402297637,-21.330217187210565,-12.325096304937233,-8.384809625891648,-12.608747159308905,10.030704052751844,7.180492576812185,6.902314933841353
0.432,-5.26164667252101,-21.039291494841564,-9.189404504816366,-9.151082374012276,-10.080777032005699,8.418234918358849,7.178778507592597,9.477171282341715
0.436,-5.765868421382038,-19.341885466517397,-5.436561323164369,-8.080448666427401,-6.560327804135682,7.574815719491198,7.4009958590118,12.976579356449747
0.44,-4.243924531271887,-16.641368483306906,-1.626343746482462,-5.561803558320889,-3.0062546350918637,7.71287708077989,7.982471339765198,16.679893236707358
0.444,-1.5544290237503446,-13.734749531233774,1.6617692892461946,-2.468047809235486,-0.3205011254855208,8.491406731349343,8.696573290826336,19.65817460778817
0.448,1.2173353381160723,-11.507670612008269,3.874300086540188,0.196626532647997,0.9036087769723053,9.220497230667206,9.0583822319104,21.070111072795953
0.452,3.269248985150398,-10.564559958899963,4.582059918007872,1.7162952782105094,0.49930476236602317,9.253943378377699,8.589079163283259,20.453527044445764
0.456,4.4214049270706255,-10.963801532504249,3.621836754377455,1.978358570038381,-1.2846694808401935,8.360249623386153,7.080773027519854,17.906173462606603
0.46,5.106624328365342,-12.19443603924583,1.2199291698093475,1.5251501728107542,-3.8874167788844716,6.864090605528418,4.720740513904957,14.073044433573614
0.464,6.02313153090472,-13.431769437309867,-2.0136650955989808,1.2878742039918052,-6.6109974244438945,5.471896770493004,2.0090811546308487,9.931437335821101
0.468,7.656615785434042,-13.915482174301133,-5.2333725371499895,2.1281230009381034,-8.800670829262913,4.881663510383987,-0.45445386626192885,6.4609614186651925
0.47200000000000003,9.926792507107393,-13.250482686457417,-7.5956398666630776,4.402701565025836,-9.98781823468164,5.401474978198166,-2.18707898173011,4.3358364733385315
0.47600000000000003,12.164074830215213,-11.517698804088013,-8.528687829867977,7.75767189962221,-9.998302041953707,6.800054075248227,-2.943963423466812,3.7667136798195315
0.48,13.4484234896222,-9.16755538361781,-7.930241641704242,11.267003251389951,-9.002619884761884,8.48062420758015,-2.7105448297375005,4.551360119790843
0.484,13.127295280609133,-6.800609738752428,-6.230814959502368,13.850834888073905,-7.499857623777189,9.855180945035045,-1.6330351508270269,6.26888077578451
0.488,11.24089807201426,-4.918198980375337,-4.243668009262365,14.785674254321293,-6.162926662819245,10.67751004751608,0.04333981856302671,8.483799578589242
0.492,8.597916877320586,-3.74227913037339,-2.832429501449951,14.049196318151417,-5.554540915153439,11.122550101722481,2.01104701506506,10.84735515417833
0.496,6.4185959736905716,-3.188344056998517,-2.5462117083679914,12.304612018507214,-5.850049989048898,11.569234918405073,3.9283818242308826,13.064795739702731
0.5,5.698053233604469,-2.999476928910326,-3.402370915531378,10.511353360119983,-6.726804716045763,12.23879326746328,5.465733143944817,14.804923260169744
0.504,6.612651253061131,-2.9733686575413003,-4.9356927060755424,9.3527364581671,-7.520305986444896,12.933995690935717,6.39032541663596,15.663643893415156
0.508,8.351958186954107,-3.104372665701817,-6.4520949231817895,8.840782153897862,-7.558257548959432,13.085732000052758,6.678215655081658,15.280159727992668
0.512,9.523001046315812,-3.53175422470747,-7.324655373613041,8.352582602207349,-6.484624963472356,12.106655008907182,6.582501002990739,13.57113228208027
0.516,8.941063535595958,-4.341111975255899,-7.209054104296001,7.085879451912206,-4.416569056497451,9.841006643804576,6.586547838795241,10.934171337658427
0.52,6.360021530026643,-5.363819398905207,-6.099044245971186,4.658111396626964,-1.8594779911863952,6.8100080691999665,7.219680011165792,8.243425369999159
0.524,2.7203343258545374,-6.143962533341664,-4.253835867541284,1.4750268032780696,0.5455400089283557,4.058995920916232,8.79728636795221,6.558374528802915
0.528,-0.2892935464972197,-6.128458359994966,-2.077363628959006,-1.392601019201038,2.297293961592459,2.640569660493611,11.204240971295803,6.620285649352354
0.532,-1.1729245079052362,-4.999472687236562,-0.010691658843938967,-2.7946651787085557,3.194441339033119,3.006095205576912,13.84491245980098,8.376199903736506
0.536,0.477301185684496,-2.954863891731179,1.5321276249559332,-2.20705446426291,3.3142414564214278,4.689499280622613,15.831654692920665,10.843522246188968
0.54,3.668688138762718,-0.7384060072023431,2.214556099987135,-0.11987685224198685,2.8596641816823194,6.506681212985313,16.358011157269857,12.474993629068422
0.544,6.499772760818132,0.6348368791300345,1.831746287352189,2.152938194330318,1.975652401883849,7.201836847401864,15.078500701659323,11.903775441259995
0.548,7.222410328401793,0.3806384440334796,0.4151718494966872,3.180753863861355,0.694115213491159,6.189983423403191,12.319145711814599,8.712935327648438
0.552,5.297727752703281,-1.5602271037930677,-1.6593244576283723,2.257437108337399,-0.9522805612062939,3.9481254898696534,8.98667976442107,3.79140541503034
0.556,1.7801842736581648,-4.3681628060668345,-3.697643452333068,-0.15193065841845055,-2.7817457109373436,1.7921136078803102,6.180002882653071,-0.9852261942698988
0.56,-1.2502396741688244,-6.698457794400497,-4.947528656174427,-2.6622822041749714,-4.444370092066606,1.1388756212872977,4.670541139588977,-3.638238747479136
0.5640000000000001,-1.9121781688359079,-7.397156972458902,-5.008787495386514,-3.7904494873030217,-5.584375659234524,2.6728244523949343,4.527194945693282,-3.071425192118568
0.5680000000000001,0.3168423969207197,-6.17363865599998,-4.145440311412244,-2.8481067227844505,-6.068549044486872,5.904509344584085,5.100978626089272,0.35631640312021773
0.5720000000000001,4.21228580199238,-3.8075259321065005,-3.2575042498084485,-0.3547278837754675,-6.096923290671384,9.39564051171942,5.4211642154507445,5.004041769754849
0.5760000000000001,7.4769781501306625,-1.7194996655340447,-3.4300118422167998,2.304197854125732,-6.074781769007473,11.546438571466524,4.801760320928679,8.804936780418984
0.58,8.11515616615361,-1.122290347615035,-5.254212691940779,3.768159880083658,-6.29961847305492,11.514101794235103,3.3281578653143242,10.345511140589451
0.584,5.668287700110227,-2.278613997090247,-8.34303777947764,3.5544906257571256,-6.698151575747602,9.707552436549122,1.9062361689177578,9.551652256024909
0.588,1.5643640312862317,-4.313193036275493,-11.373926004579857,2.3302071836199048,-6.814558543221096,7.545636467268423,1.767742416764122,7.582110483529959
0.592,-1.6794906052002716,-5.726130092409676,-12.71459984630826,1.4150529210273817,-6.099783882858674,6.593198674282803,3.6606481176538637,5.994510541532918
0.596,-1.9821418431032498,-5.349331071359302,-11.368859878399576,1.8147285414966063,-4.36919673736918,7.568714634030357,7.17464406840395,5.68457641916666
0.6,0.9565408059512492,-3.1656655825011057,-7.692520844641194,3.416126841744017,-2.1129805946950455,9.824219378398084,10.655399365604126,6.255957400686839
0.604,5.334476921293458,-0.47337892091752565,-3.4230521329568546,4.904734498603375,-0.40927400915541057,11.634131073223898,11.864007178474594,6.231642239961047
0.608,8.212495283403655,0.8016896521542094,-0.8769221786028538,4.542720376559373,-0.37412083964852627,11.158405443588208,9.126931567559723,4.000593790306311
0.612,7.246368647445706,-0.6920929678942684,-1.670139390064378,1.3759380030425064,-2.3985580396689556,7.550174854558236,2.403937724462139,-1.0473759805283862
0.616,2.179552313216732,-4.743863988548242,-5.696393978561446,-3.8858360713144293,-5.656685928795696,1.5770270202492611,-6.35054916477975,-7.884651598898017
0.62,-4.7921011005512355,-9.43557412824282,-10.99033993195269,-8.914899966642793,-8.2602996923099,-4.618262520499911,-13.821399494638626,-14.125372829219486
0.624,-10.065432211900202,-12.038927448165737,-14.65185598285916,-10.826741220382473,-8.099304417798407,-8.507833899735715,-16.742505767131433,-17.113894019745203
0.628,-10.521161742579011,-10.484899521178136,-14.359015253824623,-7.695220114272161,-3.9551808488550932,-8.402553249410857,-13.411587452678987,-15.244394208532412
0.632,-5.203033878863607,-4.562592703802125,-9.609685944780495,0.34119564612490194,3.7460043366704667,-4.2553068828926826,-4.526222079479567,-8.784563790147786
0.636,4.138027716102783,3.8439186570816446,-1.9877358332679478,11.019029577470405,12.987844674596886,2.362052583776631,7.096600861366369,0.23721512908400655
0.64,13.906995593385886,11.636798240187659,5.6942408437769245,20.98145488182456,21.033881938599393,9.063944595269732,17.770768258299313,9.00056929094535
0.644,20.41778073760304,16.006468490178577,10.86697831644392,27.32451528098443,25.649254521550915,13.784066302098609,24.530917287359557,15.174903384114032
0.648,21.575564941535163,15.750436201212665,12.464735329170253,28.822714364561193,26.037441595388145,15.633345537963578,26.262587361932106,17.830475257097532
0.652,17.639629183092097,11.718740187826256,11.271142989118971,26.224771839476944,23.01505069421779,15.073979852132652,23.841962153193094,17.549595776774595
0.656,10.750890699117463,6.177846677948537,9.177808255478908,21.542613967348984,18.363527527295616,13.410390754638456,19.325278530625383,15.789042387081736
0.66,3.613735605201896,1.5064486184493262,7.852833007461527,16.826390167827412,13.769867273789487,11.954188076590071,14.715509050590413,13.936020307595754
0.664,-1.838082794085949,-1.0075584041225056,7.661416069723373,13.182289987475315,9.98506539446862,11.365597451488156,11.027172753471291,12.64289571394761
0.668,-5.0846746740776325,-1.607313704723822,7.5066340912926535,10.558139255738297,6.677647634728089,11.50022625065435,8.119999805668726,11.76116838826806
0.672,-6.776090604991737,-1.577349620672237,5.672675195125748,8.286286235864281,3.005510028693152,11.732864838553951,5.269024621599101,10.790947391550844
0.676,-7.914947319039584,-2.2194704788896615,1.1213367194711736,5.919736524273048,-1.5091580734519994,11.486625499093407,2.0223263171191093,9.476706172081094
0.68,-9.063593195762792,-3.9624505362977516,-5.5955100696705244,3.754944711666326,-6.38757392542675,10.616789680698275,-1.2421092450163087,8.131792391251565
0.684,-10.075818484095407,-6.16239893447829,-12.420903123312712,2.6726896028400233,-10.299479916948656,9.432342178413819,-3.432391671192022,7.479357407458565
0.6880000000000001,-10.394037461910102,-7.612904032225231,-16.799931747704704,3.457081771688422,-11.76271663372512,8.403180343276404,-3.4105837610949266,8.1463187446667
0.6920000000000001,-9.596285659247428,-7.361585165655924,-16.999185908749553,6.108108915113235,-9.974464880165613,7.800447367511879,-0.7634571081980539,10.1649005486438
0.6960000000000001,-7.784926293420085,-5.308528222985615,-12.985918707375276,9.62685543866985,-5.282275169189745,7.513449327917897,3.8148951271472242,12.802084516443301
0.7000000000000001,-5.537699977315356,-2.209571145407665,-6.361456885212476,12.476331251359625,0.9964483958829646,7.165674706760456,8.787929306409069,14.850387411118277
0.704,-3.5231392660996903,0.8382573738937253,0.5423707692129938,13.431597060299964,7.2472270786784065,6.420454058478072,12.520845919434805,15.210000994487132
0.708,-2.085157830718174,3.058361803192099,5.835277173294969,12.286628098168535,12.299319627522777,5.254149151741217,14.057559582700378,13.427691729953949
0.712,-1.0869411304650498,4.38223425457312,8.838021110291322,9.981518992874271,15.802915303573684,3.9991247955499603,13.483528354097643,9.902870390011572
0.716,-0.10896771584452836,5.333209325696714,10.060539907795146,8.053249788213407,18.057649890791936,3.125827300188348,11.697903804660314,5.668451437842236
0.72,1.1890458492333664,6.53746360143856,10.526884179786236,7.751616323082544,19.4836354555581,2.916492649738416,9.774858546567316,1.8913866708780915
0.724,2.785827188539656,8.192320172649659,10.940701098292834,9.335048238346076,20.118039964057118,3.249672926381777,8.322701603961832,-0.6340845711571319
0.728,4.285312797632855,9.851909818543561,11.252081333608771,11.955246973561884,19.50581739432704,3.6375647597728857,7.220626937537418,-1.7693584933698503
0.732,5.176183421908604,10.682558389873009,10.851615642233469,14.184535140514072,17.060563912082273,3.4985709754238314,5.850825769623384,-1.9869870840943804
0.736,5.146286249612501,9.99458742410826,9.17925301045625,14.839810488225112,12.623306588660341,2.4998773339792706,3.6298083580481943,-2.0648329011984288
0.74,4.240416487073105,7.703031465643392,6.278816877536599,13.612261650796654,6.814611811723182,0.7702702163853701,0.47821907015634224,-2.691755506407276
0.744,2.772860134767143,4.418586710748116,2.8861599773754847,11.147262660477054,0.8875036088674619,-1.1480449753486255,-3.0633317816651697,-4.165305719016487
0.748,1.1090523513146309,1.1418502790169214,0.010123832856493209,8.59244825177484,-3.850311905773367,-2.581967845655072,-6.115769833906938,-6.281951331657183
0.752,-0.5164058159511455,-1.2380453316178546,-1.6946782026991514,6.914756124866017,-6.6960509004451865,-3.07490904869087,-7.947683370921368,-8.442037550882105
0.756,-2.010785108913467,-2.3361854762099483,-2.3223507648455097,6.407980327304585,-7.872425291277409,-2.60889826139055,-8.354627155082312,-9.904706713022392
0.76,-3.3042286154172302,-2.359955261191317,-2.6093628179554003,6.6442622221698,-8.298085565518363,-1.5950242220816335,-7.702726744383767,-10.088069699313792
0.764,-4.263359236884355,-1.9114685204317539,-3.4232399394373942,6.815823981386984,-8.963695149391128,-0.6507222743337024,-6.652937510413608,-8.802902083693198
0.768,-4.715397825315961,-1.6243468999712718,-5.157460417921186,6.240933424754644,-10.270649360681773,-0.28922822509457546,-5.750343267297808,-6.320692775244424
0.772,-4.579214339285386,-1.8416846947081353,-7.418149270048843,4.729723529499779,-11.738235113607914,-0.6943902059464335,-5.137710377993244,-3.2636882799426985
0.776,-3.988556427866513,-2.4885492858770135,-9.18988742358573,2.62639810744804,-12.267448691660093,-1.6916281385618959,-4.567269327770873,-0.3698359326352829
0.78,-3.258101908910078,-3.1533910741425757,-9.363555354091773,0.5731134810432081,-10.791891965979062,-2.8984137858259373,-3.665069479000408,1.7809567204213863
0.784,-2.674829820849993,-3.314366885607967,-7.318143667918321,-0.8289158495866786,-6.943126860639836,-3.952197737049687,-2.261749588214343,2.9567515275499545
0.788,-2.2317739167710897,-2.5791272923474935,-3.2205347610221224,-1.2502209172549783,-1.328372906823006,-4.6902859216156685,-0.5699522211083377,3.286763764846228
0.792,-1.523603893108259,-0.8370234980911846,2.0945610153123084,-0.6591655528400793,4.743550840319756,-5.197042384793235,0.90485951521066,3.107595646817913
0.796,0.0609106912144739,1.7018595948862298,7.535659644226598,0.7964397647598958,9.908482439676902,-5.715451941693232,1.6523700986761014,2.7293568769099465
0.8,2.9340089995765766,4.5689776346862345,12.186267956680638,2.9250797677610194,13.37538334845135,-6.4766839707485815,1.4446830495461427,2.252707912613232
0.804,6.934773687288043,7.156165354794609,15.518409933514135,5.5346930958790495,15.162901051097492,-7.544895275546082,0.44137793455251995,1.535607571843002
0.808,11.248732141224366,8.870397809069061,17.344712440862395,8.379909935437695,15.848002584921346,-8.766737203571324,-0.9542788508548483,0.3071861591416791
0.812,14.725389948560405,9.303907386021137,17.64250857377033,11.089993611757905,16.03217091826224,-9.851826535546365,-2.387382608641019,-1.6523482809404868
0.8160000000000001,16.450304297592425,8.370774106646081,16.444333277685587,13.17529235646083,15.890915114326447,-10.533164960304816,-3.7783780103359277,-4.36740168802794
0.8200000000000001,16.22093059770748,6.344861602157835,13.890096471778179,14.144324002356768,15.099163748434762,-10.721685041694741,-5.330089528089729,-7.631487490779023
0.8240000000000001,14.617022246099339,3.750769302366052,10.346744771205806,13.671162282854482,13.146055219105222,-10.572100277027516,-7.3027305364933,-11.069408579311926
0.8280000000000001,12.624169450640295,1.1569546884953752,6.453995913891106,11.735227466368542,9.824578650975383,-10.416231069101173,-9.701110799537503,-14.226151533872553
0.8320000000000001,11.030709442641637,-1.0288723210798025,2.9891022560243528,8.6538461365501,5.556301767247277,-10.599990128529953,-12.09277845675399,-16.630520772921614
0.836,9.960484345300358,-2.680444072425189,0.5579486867084142,4.974760346542894,1.2903027748200202,-11.299963502584546,-13.712117952302776,-17.83407228086662
0.84,8.843765793334967,-3.9362011162155,-0.7259769436199122,1.2805641822860139,-1.9956051030366666,-12.418885411611313,-13.85206800381502,-17.4859246052323
0.844,6.845558192398869,-5.081321925663815,-1.3596359718757185,-2.004125973672217,-3.893392835404626,-13.612810197947056,-12.317120660985665,-15.459944430297242
0.848,3.4714045742647386,-6.389413043208378,-2.2236889681508956,-4.714463580148617,-4.852939147468959,-14.436601421502587,-9.64767513531666,-11.997494456800496
0.852,-1.0374051595481433,-7.997835371922122,-4.085706774296682,-6.913489033548785,-5.925129021882867,-14.539971904416348,-6.934745408859271,-7.770825123829468
0.856,-5.772129598442007,-9.874774792600448,-7.10085394602595,-8.764512071245633,-8.077383005608823,-13.824170011026808,-5.289546868196737,-3.770679572288259
0.86,-9.636379405900186,-11.846581577603217,-10.589587986932031,-10.372178196195819,-11.460727318418236,-12.478804628131911,-5.231374747722157,-0.9848584212163587
0.864,-11.931830392804386,-13.655044135658017,-13.262189050822258,-11.674176984321491,-15.091162747317668,-10.891039085625266,-6.348590684695921,0.021175477855194913
0.868,-12.682401898273724,-14.99181631781019,-13.795985454299824,-12.432346585921152,-17.18359604212347,-9.47709614686687,-7.460813569651918,-0.6076330522674311
0.872,-12.501471186411493,-15.509245901555147,-11.483065129153147,-12.329748972246989,-16.00995776469253,-8.527164193014357,-7.229982325258902,-2.0502057032235825
0.876,-12.096872749137304,-14.858818882253388,-6.6272580811890975,-11.132865934593099,-10.846139411937628,-8.132347913934154,-4.905369509547597,-3.2008546482488214
0.88,-11.774785786637693,-12.794270557178919,-0.46775222450216347,-8.850960747173644,-2.4744693811908576,-8.205349285730563,-0.7937242376673908,-3.2409587069933536
0.884,-11.255652819450745,-9.335082437184553,5.312970022701364,-5.816179328578471,7.028454539985091,-8.5543722524381,3.819346316081237,-2.0733504970899617
0.888,-9.913974459507841,-4.904693945058824,9.24123907767958,-2.626073073910675,15.12578395826236,-8.954748479396471,7.261943888517862,-0.36875609291985256
0.892,-7.313644910581274,-0.3211740541908341,10.587089323189758,0.036545852661220124,19.881737253289486,-9.189899000917421,8.286068358407647,0.8304096677987332
0.896,-3.6318083224798556,3.4215242956385055,9.540358360848757,1.6591390449318055,20.707154182930765,-9.062850048746554,6.654547137970781,0.731204053215663
0.9,0.3031446278871499,5.516119332479974,6.9871836088312875,2.1086872173333404,18.438022779184138,-8.41426934738854,3.1960087194773337,-0.7261027628940155
0.904,3.4064746512447073,5.687573714553309,4.048864223447481,1.683796071212555,14.764222628648355,-7.161415215021407,-0.6648725483342446,-2.806189613588913
0.908,4.9423814149623695,4.338059125180564,1.628746552345092,0.9715171410401808,11.358496797303815,-5.358849148929949,-3.6214679215377146,-4.393069958280307
0.912,4.97247506284765,2.394204971620127,0.1474601079456761,0.5638895802898105,9.163410988304804,-3.247693186889933,-5.05778617176918,-4.640781232731115
0.916,4.3480677672430375,0.9017590480108879,-0.4516012558821103,0.7672076928706701,8.166789969817387,-1.2335188931866696,-5.186093669558318,-3.4680028544436254
0.92,4.232585740273862,0.5588653964449009,-0.5070204035264396,1.4538753013998758,7.6916858064493,0.2302925910914837,-4.732485176402633,-1.5951069717730206
0.924,5.410652441349669,1.3973254318216277,-0.42173610896429636,2.1270758723064773,6.934746956702952,0.8247485225426772,-4.408555870636292,-0.08175528095171103
0.928,7.76809853224097,2.7826551941423077,-0.5166083034110329,2.1675512020905217,5.427328527540453,0.5163138543015293,-4.491764971029511,0.36177393691946236
0.932,10.259611957397738,3.749907566624188,-0.9870230914755211,1.1426574908740577,3.202378439793847,-0.4130149348241048,-4.739383399647522,-0.1310617216818173
0.936,11.404767550441306,3.5080218700838373,-1.909843477272716,-0.9759365402795765,0.6636774562503547,-1.4820466430689976,-4.634086914328009,-0.5910457744425912
0.9400000000000001,10.07577641289322,1.8791861992862096,-3.2272627399155454,-3.781557794625087,-1.6642588863867331,-2.2284035250741,-3.754886459014415,0.25963175582012354
0.9440000000000001,6.159116902741744,-0.564203828719144,-4.715288437257527,-6.60694483319844,-3.3359164517371482,-2.419968169585445,-2.0379657028195197,3.2386208935076866
0.9480000000000001,0.7385733675887423,-2.7336824387904244,-5.981461864238895,-8.804969367084823,-4.042396835483146,-2.1533066389511077,0.21001205010941248,8.131894421388324
0.9520000000000001,-4.307507003613409,-3.5069389521059975,-6.539933514921813,-9.98592949463864,-3.568523451103772,-1.7795005774314632,2.5073045095714406,13.655238607350157
0.9560000000000001,-7.122227006807975,-2.236153612316002,-5.980970685444845,-10.118635655766866,-1.7769184079184015,-1.6996908056785287,4.443823136300466,17.98959359336959
0.96,-6.703131342813549,0.9691286298145769,-4.170480520147521,-9.464868396874635,1.313240370104495,-2.133520111075768,5.813697349697804,19.619288077657757
0.964,-3.366970545419804,5.293767180771738,-1.3856866726982844,-8.42098271436953,5.376214080483578,-2.9860458957523406,6.585255831475479,18.04358298631223
0.968,1.39112633896832,9.58743487887159,1.7360574007017249,-7.350759885630509,9.712340637797638,-3.8824283381809437,6.793895786072881,13.996698080417445
0.972,5.580131660139614,12.869740381037445,4.4393506540575345,-6.479441943160623,13.377099935583828,-4.357628745877491,6.472467823877196,9.072750008880575
0.976,7.58485003843316,14.710245657644009,6.171372767037155,-5.883619120042567,15.493170437499543,-4.107513515679784,5.679495724160461,4.959340728924872
0.98,6.848296408594024,15.34179135121235,6.837804376542408,-5.52505751965964,15.626337563653578,-3.1659617440836882,4.598584156650304,2.6787117024389318
0.984,4.046424301414618,15.446531677401595,6.825898214419794,-5.2940896941699975,13.98363814317338,-1.9177691158579364,3.5812447578707634,2.210553149353018
0.988,0.6854311669292201,15.739687120094686,6.77772495978229,-5.035575608515273,11.309158218955872,-0.9222817906029377,3.0504072501980772,2.663640981624667
0.992,-1.6452344186513983,16.584932184026798,7.22770921294898,-4.5530819510590845,8.528029993191012,-0.6288723605332507,3.2837005314668204,2.8744539559311306
0.996,-1.9959614717791965,17.830383601250105,8.306631068209413,-3.628558755971426,6.323674175353744,-1.128430683876104,4.204621534035596,2.086164149473916
1.0,-0.40831073817116703,18.94331953501296,9.680646108215342,-2.071000281714305,4.892626449017143,-2.066282432654816,5.3382301847395865,0.3528029052713464
1.004,2.2270781007972573,19.31997900509657,10.720649590951439,0.1924956423540607,3.971317753528183,-2.7796549181637147,5.980225212437972,-1.5364915517168356
1.008,4.707743028598543,18.602263175673556,10.807362061712865,3.0359409577545193,3.087774321902316,-2.612059769769303,5.505294415225308,-2.5495830667741757
1.012,6.123612757744922,16.841792799623818,9.625213375759245,6.116764208519044,1.8811149931656246,-1.2540368040058638,3.6672705217686143,-2.028651261216055
1.016,6.231073029845447,14.43925285221735,7.279923928559356,8.951881779994665,0.2835673347781267,1.0544315305414784,0.7256212610041075,-0.09189742677517643
1.02,5.4480100310270245,11.94258586743922,4.229846933987915,11.078838450701141,-1.4975255835477128,3.577009010414713,-2.6620180892800818,2.4092564223542468
1.024,4.499493211621939,9.819298102909897,1.0992813712771294,12.22366339513178,-3.145751333718181,5.396725515514845,-5.70685658831394,4.356269552416052
1.028,3.961359179034389,8.331018264929526,-1.5042466774507375,12.401522827391773,-4.404629718625301,5.851280989136285,-7.759076704880044,4.9853303866239
1.032,3.972821202102068,7.553702134513969,-3.08969696653503,11.900276969365677,-5.133246504385966,4.873656984520494,-8.456224821390379,4.306239183577873
1.036,4.252848372651897,7.476506179250691,-3.3044728927807228,11.152277786010245,-5.247880341423297,3.0602883425071923,-7.728802676082296,3.080086108305295
1.04,4.360358919765076,8.07661275573355,-1.9339621934627758,10.56102377665161,-4.6301227296619345,1.4010425116098304,-5.726158378630316,2.3596248535268387
1.044,3.993883808647297,9.277389386548975,1.0256096542398154,10.342642948083267,-3.138762823892648,0.7979536378702505,-2.765508478850734,2.849115493341742
1.048,3.149713613948279,10.837443410236347,5.261456706655736,10.462302577137962,-0.7343755816671091,1.6103116829708597,0.6845820827343232,4.4668284831755045
1.052,2.084828980531711,12.301730411025346,10.112550951999083,10.702070096149328,2.3796057363990712,3.4634362573901853,4.032694804636321,6.369263300649436
1.056,1.141716625393883,13.100763245808366,14.688560378773673,10.814602518699303,5.720827145276871,5.432445799124707,6.667683069330451,7.42920018253335
1.06,0.5766742957582665,12.808039864361717,18.15142081998215,10.682569277499397,8.677544812518818,6.506540768541981,8.154107378097251,6.896241568363166
1.064,0.5054805350291645,11.410765935032941,20.024733815477475,10.396118103471508,10.756234292718773,6.09290354223549,8.417100526947706,4.837514165787525
1.068,0.9630916909034113,9.40772949370512,20.351341054079285,10.20239809539271,11.775177989475424,4.295684973825246,7.791654483215552,2.0904891757404584
1.072,1.974739310523546,7.629945880087234,19.59213167682242,10.354318924344625,11.875197816550099,1.8210947691131878,6.857008476831197,-0.2538904269340492
1.076,3.5571318251199955,6.844244762758535,18.316249275494556,10.958383226733986,11.340974370249342,-0.4121145270505622,6.116813215792263,-1.5150829223443907
1.08,5.629844116368986,7.357280942529087,16.875175202048013,11.908125249700333,10.371751516550376,-1.7390790844765434,5.707451697867782,-1.8134651783534537
1.084,7.889452027533025,8.81714449726178,15.243139613106223,12.919997944571605,8.946780503389618,-2.0336354777223278,5.323407243179645,-1.9387736848862005
1.088,9.78665194837754,10.353698406364856,13.139343091141654,13.65768124110673,6.901720927478664,-1.664287590117965,4.435876687160999,-2.766665248714162
1.092,10.68831185457384,11.003475457994682,10.35734219701817,13.868471636603772,4.174103907635526,-1.1814003968297584,2.6964353048606426,-4.5869556604957324
1.096,10.16560389298752,10.17569932061383,7.0553937538477385,13.448769942122908,1.0139101197864875,-0.9544757508037947,0.267417627479972,-6.787860453739086
1.1,8.237615420905286,7.913982953923551,3.795701916326834,12.4133679809961,-2.013943719119652,-0.9836763069179142,-2.144688887974553,-8.125653040531233
1.104,5.402372063276744,4.812913752180748,1.275196987139907,10.804413457536157,-4.284110584228529,-0.9846528298689918,-3.6004003602406556,-7.436718134592866
1.108,2.4169480194962034,1.679841324787958,-0.08166829443234747,8.635985666701345,-5.469313610646623,-0.6590377630091098,-3.4132902378123617,-4.362144948177047
1.112,-0.075181186624377,-0.8421042139468682,-0.40103369286475754,5.930125885767666,-5.749416433747228,0.055087832465687825,-1.529190246424605,0.36537925804577753
1.116,-1.8776249938914589,-2.4926185751510275,-0.3202540417998989,2.8145747822595695,-5.721208050874793,0.9167911902382002,1.4167254442795638,5.255170580345293
1.12,-3.3195714295716243,-3.3395743668359046,-0.5998029641471021,-0.38254926305853587,-6.007430182833332,1.536255020817407,4.399923933810442,8.821218829160898
1.124,-4.999260964615587,-3.556278867125002,-1.6428362637341252,-3.1323853350527315,-6.809750442746463,1.6432579017573516,6.4827882331769615,10.325144567044845
1.1280000000000001,-7.339661472542048,-3.226905793948845,-3.2376615456541913,-4.849419817288435,-7.711809989401672,1.2806023930379524,7.189916070237814,10.060666721679809
1.1320000000000001,-10.220278481701826,-2.3121788108462624,-4.670081686622325,-5.126497086321251,-7.866072543596374,0.783105267434621,6.6187438269707854,9.041299351950329
1.1360000000000001,-12.901604607892295,-0.7761236976857617,-5.131769537299078,-3.926453050020882,-6.463884611290723,0.5622494666185958,5.291160167408634,8.32819631923121
1.1400000000000001,-14.312323280762485,1.2613437263385094,-4.156531072878806,-1.6095722268833015,-3.2028127848332133,0.8513903990606195,3.895495683664649,8.433331877050477
1.1440000000000001,-13.58260357805193,3.470453114395241,-1.8271169303598072,1.2144676002858432,1.5073660473919972,1.577817393352234,3.0805614909791075,9.152610080474005
1.1480000000000001,-10.544587609336759,5.419339701550143,1.3522944002661461,3.932635398234652,6.7145231666188465,2.4337194939016626,3.3495124826081337,9.870786977947319
1.1520000000000001,-5.927122090747616,6.767908209613779,4.784077209115367,6.127105668151671,11.337730234707806,3.0826343838134562,4.977936886406951,10.056707235177782
1.156,-1.1166538110583133,7.394151365135258,8.035459813186208,7.62354084050412,14.547406713204964,3.3411892016456477,7.865155701521871,9.558328658332357
1.16,2.407059734151062,7.365174152847885,10.849560473156089,8.379572867122988,15.910228587333222,3.2002570624890723,11.332732829083398,8.483995742406478
1.164,3.6834849199435666,6.756258720967708,12.914184907870549,8.310593419385896,15.261518116761636,2.6785473591480695,14.026535840139331,6.7891131392379975
1.168,2.622078063927802,5.4640601002943185,13.628014962854195,7.201055659253598,12.487694136495065,1.6462598514990532,14.145189573242533,3.9462552121467525
1.172,-0.039313901618697855,3.204305243329145,12.147348770844474,4.8063056142491405,7.471288417091273,-0.2009632567578592,10.086685447746277,-0.9419860869347758
1.176,-3.147937507289498,-0.2699085301633204,7.801340807209726,1.0878537805483575,0.2951962729061961,-3.1440836910305734,1.3124662428008378,-8.541556865912753
1.18,-5.695200944495355,-4.835044709716385,0.6807371419276933,-3.56452610201859,-8.416855039377424,-7.115306902050179,-11.01225380658525,-18.526491907574382
1.184,-7.219797934196777,-9.795001657008925,-7.9962150941441905,-8.296783444919583,-17.31808065705536,-11.459754550940488,-24.049393437952858,-29.182257102536823
1.188,-7.88014203541843,-14.003989439011548,-16.077495717150214,-12.017816639088778,-24.558304198053065,-14.988843808595448,-34.1453491586808,-37.75611564819519
1.192,-8.18178335570883,-16.29514900065533,-21.24001617883596,-13.788861322190314,-28.389315391002583,-16.38000776548597,-38.22375106214349,-41.488435578644385
1.196,-8.534578363362925,-16.01110113368304,-21.990002705224924,-13.181620494844537,-27.89082667730554,-14.755797721768431,-35.080870319146925,-38.84113817007892
1.2,-8.91170747186925,-13.320123892467564,-18.35711305481027,-10.41004431433339,-23.408816474890045,-10.150803240186178,-25.908823282050434,-30.262839144157624
1.204,-8.830017634518754,-9.140750466083773,-11.879247073181432,-6.179458466827782,-16.439231543272854,-3.590743025419215,-13.738052853988847,-18.02997526940817
1.208,-7.6923146321069,-4.7229946987267795,-4.88309022273279,-1.3775485211535852,-9.011526649335792,3.2730098579313562,-2.0796893657479814,-5.247575425936702
1.212,-5.261643942585579,-1.096494367467585,0.5818448805230219,3.2318948723004723,-2.866166617199724,8.819329249832663,6.553385684412206,5.4749771387787405
1.216,-1.9679449632367323,1.3051418554873635,3.5876049269636496,7.163257929352767,1.1538082005549768,12.089231613185802,11.508438603014838,12.972023979205005
1.22,1.1732062515407051,2.677521574237744,4.549888178028596,10.179684145599822,3.2374029016259556,13.078708050926252,13.844179217458077,17.61202972861065
1.224,3.038063617987973,3.5574476429983406,4.75971024751243,12.170133347540286,4.259949804842108,12.58336621426497,15.355625984829203,20.58030770129244
1.228,3.024488113442203,4.42931609696825,5.546375257607451,13.066174246714581,5.209272297372536,11.719007993386185,17.38806251686674,22.85931873982736
1.232,1.458960235095219,5.472705005537591,7.5667277792563254,12.8675651689191,6.711402515233203,11.373288520359893,20.11028256863119,24.53035591537173
1.236,-0.5118654686680202,6.552574363662643,10.569883811947875,11.72465987821397,8.854076796642403,11.860042682902531,22.60184768176441,24.796798218823824
1.24,-1.5116476623011295,7.431172654785314,13.703400063163372,9.997305834142935,11.32437921816745,12.904276160124937,23.606073060169365,22.660722164654544
1.244,-0.6972210977482973,7.999089459399329,16.078875351642637,8.192600517469145,13.665951156992833,13.914724637596919,22.41607269749693,17.781353179221696
1.248,1.7395123966502979,8.355100948795098,17.229209521679422,6.783237248831938,15.476135439608242,14.364893249215129,19.358031798623415,10.96468623083274
1.252,4.655460096636034,8.705901971469757,17.22621357963044,6.019430650528193,16.480098445847943,14.073275421696962,15.614441824815913,3.967694360065252
1.256,6.619760689960458,9.187424637318145,16.47432254502928,5.862272892658439,16.529454114840064,13.264392210387086,12.5590270121902,-1.2739762791625253
1.26,6.760330084523048,9.756552407560775,15.39433452600315,6.074572107790118,15.621852544616104,12.404632472609592,11.054176774637199,-3.557689171543643
1.264,5.2817144069131245,10.212518535872277,14.201880794510089,6.38523008240827,13.94361667404928,11.915640679956596,11.105472064593414,-2.9577568841014
1.268,3.318004904195732,10.3164204099985,12.882245510929806,6.604805022635446,11.871128521258925,11.9191784266186,12.019139540371725,-0.7205267601875676
1.272,2.1835574912338416,9.907412030295745,11.299737331755296,6.60609131815545,9.851008126237502,12.132280895353688,12.892707436392811,1.4062168672971893
1.276,2.5008004435203475,8.939288220594335,9.324830280267179,6.21626128281423,8.170377017870123,11.966475033817915,13.102875631110692,2.0380151821918844
1.28,3.7377536443709687,7.441825420874011,6.900568948764885,5.149647027466017,6.751954561144885,10.794280552268901,12.516147633834407,0.765523891637713
1.284,4.473705048309057,5.462830713291623,4.041000636550962,3.089370159415921,5.131112230934832,8.270637331761463,11.371718009399956,-1.7644869614396157
1.288,3.3003477522524918,3.0889821450214185,0.8470361329364096,-0.05883323049329192,2.7166767193393753,4.574652394681834,10.001714008560157,-4.267314003982392
1.292,-0.198987531698549,0.544820982575402,-2.4056923768266643,-3.902538125836145,-0.7550937640307893,0.44371507560754253,8.626522282164842,-5.490606104223843
1.296,-5.0386367357778,-1.7393432730495988,-5.174681835078445,-7.524942278819253,-4.855228633765364,-3.0461327946431993,7.3438657328661066,-4.802275858526627
1.3,-9.251301440918724,-3.1699483932561634,-6.678762810790431,-9.773921401176267,-8.451866013204835,-4.889290387765868,6.247924004959714,-2.4488192841126875
1.304,-10.92713998322597,-3.193450105974989,-6.130712655572097,-9.788232649239035,-10.149111311895012,-4.575639088277967,5.533578777197363,0.6027088721330074
1.308,-9.273925910333674,-1.5773005996379652,-3.121228455477649,-7.48603228722277,-8.987052234028397,-2.3295307555235922,5.45685718779805,3.1272553733833774
1.312,-5.054728677745516,1.4048735930418843,2.0394532073923983,-3.7037586179212667,-5.022221643957437,0.9651259989695973,6.15540470713313,4.182211225199353
1.316,-0.14393955706600536,5.014678306438327,8.243888174058156,0.14466362963685242,0.558563163976487,4.1319466275090235,7.44453076337868,3.479586048370038
1.32,3.5268788837192915,8.346317546622231,13.903402364495378,2.740555357989251,5.915443846899507,6.191950262493265,8.765707047280557,1.4424194598686881
1.324,4.989258228717517,10.70369461061182,17.550351443349427,3.488672050160858,9.38249812480808,6.73597519570103,9.366016962090725,-1.0568145100460242
1.328,4.6116616604977025,11.83453375501449,18.427509974053464,2.7304642247336233,10.192076370160066,6.008324474278197,8.632679417183681,-3.1395220474005328
1.332,3.6592674506691765,11.901531600999988,16.766503211283634,1.4309001756682846,8.71276477907304,4.68615253059761,6.409319378104556,-4.330948731285389
1.336,3.3457650936370555,11.217190569106606,13.601154005998069,0.5220581729281548,6.093582139783393,3.484708487154421,3.1139717363730597,-4.741015184767093
1.34,4.035486029612002,9.974092800252038,10.237894320610394,0.3304206642014833,3.5758164101980583,2.816184701247039,-0.4030516206403263,-4.920892046549852
1.344,5.069737552164952,8.131786867976189,7.647339266436575,0.42720476442173094,1.8577925599101945,2.674586664486924,-3.195149203240362,-5.474426311542629
1.348,5.277751636560424,5.542741522577671,6.103023302250222,-0.015667879933971562,0.8664375978714816,2.7819609963808034,-4.56937902235768,-6.62129905603615
1.352,3.82661338316575,2.2252093604165566,5.221468862333495,-1.6024681639664777,0.011815601254966168,2.863403097984701,-4.301866932713892,-7.9783979451494815
1.356,0.8282989967210597,-1.4406134903510974,4.327700484656816,-4.2413160333662745,-1.2978952357998423,2.8614857513275638,-2.654536186335463,-8.702679772944975
1.36,-2.6964146687478205,-4.755565863899392,2.915660109201781,-7.128794635410486,-3.2226097651746386,2.945374930575781,-0.2256488860130048,-7.945971013377857
1.364,-5.432622763350992,-6.9917626463275155,0.9334676608796144,-9.197830179137782,-5.4027056225686465,3.3371288815451408,2.285202392076826,-5.37987627486109
1.368,-6.545071580074364,-7.774438085928523,-1.2575652801488104,-9.747442911319922,-7.2446536793067935,4.092476593776155,4.280175025907738,-1.4921149760193657
1.372,-6.118329203602116,-7.307787379606452,-3.166446586001257,-8.856210319845559,-8.344781659869113,4.993420924327438,5.378736930331797,2.53922705315199
1.3760000000000001,-5.005205138814745,-6.283602123166929,-4.4966514126890615,-7.320893455625992,-8.751017559708998,5.643963219881698,5.4637669273943175,5.3714451685445965
1.3800000000000001,-4.219342669257458,-5.496305850923818,-5.28459660149656,-6.156429371752893,-8.8718462800407,5.704821316376183,4.673712372943555,6.155707965070178
1.3840000000000001,-4.28556142297748,-5.39647714979219,-5.787329535218305,-5.976624993139922,-9.113074573225276,5.11227214812061,3.3507542672105046,4.978739118121666
1.3880000000000001,-4.9642099433012845,-5.852625832409103,-6.210859498830359,-6.644984501755971,-9.505891888678889,4.144974024544354,1.9512666920600168,2.8368266051493265
1.3920000000000001,-5.479689352185233,-6.255814030556394,-6.4741502528886485,-7.385011169486461,-9.590250236168686,3.293430909361632,0.9206205639020482,1.1491679961618502
1.3960000000000001,-5.063783625903852,-5.9047210718727,-6.175319471159128,-7.261211236120289,-8.654016394419159,3.007735959950878,0.5602874301275733,1.0606364200448297
1.4000000000000001,-3.4410627098022815,-4.4220478964143695,-4.787405286759167,-5.731435371479165,-6.1785577757427745,3.465246171595936,0.9292361530660855,2.881133711522125
1.4040000000000001,-0.952274936557842,-1.9760446722893903,-2.002155063196369,-2.9366202987257566,-2.2338384597851473,4.502047237583611,1.8126028020433296,5.953916660680989
1.408,1.7148721086714431,0.8057470579624351,1.9790311017950444,0.4160565367074014,2.4262776462383044,5.737101776343479,2.783485512029074,9.010422129986182
1.412,3.9718813919644163,3.1759207161403538,6.4107170301249425,3.48044419953294,6.667681757940045,6.808143784106505,3.361842390433594,10.834396149188251
1.416,5.640216002900161,4.6370771764104575,10.264649417147666,5.718786635818105,9.504997731044568,7.5660028393594985,3.20405913274044,10.867518205881424
1.42,6.939758648852148,5.142787189223782,12.680103551861976,7.110478832941226,10.571224348606847,8.122625429836262,2.2471329122618044,9.4613621348999
1.424,8.232428173549124,5.0523084232254405,13.37986004263712,8.04267553300997,10.26749945820302,8.74634029860863,0.7611933167681855,7.686161029532741
1.428,9.731345143990438,4.88374596111953,12.818226556889385,8.984461194551841,9.496805219157977,9.678065976489961,-0.7256457667263021,6.799607559896685
1.432,11.357289266466069,5.017801271010285,11.949697723092868,10.158495164192573,9.126669149157351,10.977370035285276,-1.6200274446619005,7.659987904096852
1.436,12.8127676356562,5.509434715520911,11.721180737687064,11.404210330350907,9.483610033671539,12.482342631679785,-1.4798454401006893,10.36189958702198
1.44,13.792609984907358,6.106518442324159,12.562264784013678,12.299838918328533,10.174205302744667,13.89470245220582,-0.17938058285835723,14.246010059776381
1.444,14.140884533589087,6.407375990276705,14.125241988415837,12.428930727515763,10.315739831454266,14.928925394318867,2.044006363474182,18.250576959901082
1.448,13.873322193701824,6.062473188086187,15.44281542695444,11.635010203812271,9.06992018706569,15.457610571456826,4.691382613993483,21.422415300237844
1.452,13.093108154856964,4.928303088229768,15.43982580815009,10.131760125328583,6.184749539569566,15.572010795915048,7.196835518650914,23.324068556723432
1.456,11.891443481193164,3.1125212098731936,13.533613279993006,8.418407183859017,2.235981380479643,15.532846418031113,9.122809094085824,24.160628279380035
1.46,10.38054882270626,0.9671449750894681,10.025640950726483,7.10016806360909,-1.5451438041109213,15.652061298902481,10.28891512689006,24.59594565030602
1.464,8.798071931563754,-0.9923734387793957,6.028803498792513,6.675671942006375,-3.8115436087655326,16.140446930370672,10.765251931026796,25.353845444959006
1.468,7.535465169978124,-2.228899352692679,2.9520506222052063,7.365556763221321,-3.736334412625183,16.991089058255966,10.758112528292259,26.820776473075966
1.472,7.014226300594601,-2.3434679460087864,1.8195112009125296,9.036471744344453,-1.4083453907305739,17.950798746918736,10.472984133901264,28.84819418331972
1.476,7.420886470032201,-1.235333949123742,2.770767932207491,11.21621355032039,2.2000046892826504,18.59231891707168,10.030837505602904,30.83726071786623
1.48,8.479932988446308,0.829190059330358,5.03494511934241,13.221208949538777,5.703302772105417,18.476417572010178,9.487747415605554,32.06643816076394
1.484,9.4629492098411,3.2798160281536184,7.391757838297053,14.375630486259979,7.966723142778392,17.35292864139774,8.924207974116143,32.097235107596134
1.488,9.487357374580824,5.417060051397129,8.827947485911864,14.241589112092697,8.599768216356097,15.308143815844232,8.492343705593157,31.019348073999936
1.492,7.9908190049045515,6.65662452266406,9.031968625896297,12.78921015468768,8.051481897231497,12.790484453100362,8.371614797737493,29.421151547372574
1.496,5.121900142697996,6.742383753975446,8.463873875816716,10.430017605360263,7.273901038357508,10.487604663190723,8.645682954702352,28.091383108701848
1.5,1.7732752413121489,5.832391172996722,7.986239127478257,7.875670255318255,7.157505010240129,9.09097396839934,9.185549373309186,27.59672034020332
1.504,-0.8118768605472724,4.401728700194326,8.286757781642336,5.86252033573146,8.040041843115432,9.040338714865356,9.643866693715609,27.96575765439775
1.508,-1.6714811776073475,3.0046661432606925,9.441112468906795,4.856984573105365,9.539530442531031,10.358920722193943,9.605786246080243,28.64678882559565
1.512,-0.6425923769056681,2.023459387996809,10.873040795271663,4.877873728346458,10.78329543390646,12.645250647583453,8.832638034909905,28.767485587293777
1.516,1.5297794828093174,1.5261822861293695,11.714387210402492,5.518397525205728,10.887250469129867,15.21428686822037,7.4543807058526,27.562978490041132
1.52,3.5912643722622306,1.3189629786575097,11.340771030225369,6.173604619441903,9.431564037819044,17.31707051668127,5.9641014949920645,24.753268451178883
1.524,4.446646032483841,1.126248324113476,9.73885133006479,6.33045626146486,6.669485194506706,18.347140379461052,4.977679031329899,20.680031261399563
1.528,3.7128487035661237,0.7740667027301242,7.48415737880714,5.761478808311949,3.375955868381425,17.964133094097633,4.874070392155772,16.142782739458198
1.532,1.871893770789029,0.2762688877837718,5.365276437871216,4.556331791553021,0.4543061371332442,16.129878374096734,5.529418572354189,12.034534084094048
1.536,-0.042366881421912694,-0.20968002416702802,3.912235658510326,3.0032812085682963,-1.4632156192665207,13.090730335938133,6.328887169269365,8.973437860404374
1.54,-0.9962555955698917,-0.49161036670557223,3.131061004110961,1.4356160133229423,-2.2062995626129123,9.338281812957575,6.488861753512538,7.103285127363051
1.544,-0.48112745628895937,-0.47659151387779275,2.569038609151903,0.09980477589851944,-2.019928637195335,5.528812138974899,5.500217449287447,6.107061765436811
1.548,1.2980187317680247,-0.23346344513993245,1.6488101995855686,-0.8874465998887899,-1.351461765510976,2.3609937543442356,3.431496096040064,5.40891669616758
1.552,3.61267648321882,0.05395656381188019,0.062359045066841645,-1.507135652072975,-0.6119116236095579,0.40799999975206447,0.9180830862114817,4.454829191097815
1.556,5.605866198595322,0.18506927147063834,-2.0352218878342683,-1.807477305053908,-0.0499113666392077,-0.0636667180697259,-1.174656441227853,2.9413429520682257
1.56,6.655172716402376,0.045739488830804476,-4.1179691987435945,-1.905303742922115,0.2569910600232106,0.7904868716213969,-2.216450547628483,0.9284418472998368
1.564,6.520269562595786,-0.34923422182691866,-5.576277555526758,-2.0094631515858055,0.3379424506256328,2.4247691014243173,-2.1260778907089843,-1.1776309547421988
1.568,5.293194816120376,-0.8876799173021936,-6.015542230605206,-2.4021441281365696,0.26888192862770666,4.100052365105512,-1.3536804166287766,-2.75366106362344
1.572,3.231188725152606,-1.445873597429454,-5.419158738162878,-3.3638448062465613,0.13376981591864023,5.161941617945558,-0.5773841745467507,-3.1924557242309675
1.576,0.5941759119650669,-1.980498576835089,-4.102096225766218,-5.063062930046726,-0.0012982973184989532,5.2622065877731075,-0.3184796983077831,-2.1848245229630265
1.58,-2.410458273609038,-2.5626283231504203,-2.5332969947048696,-7.460538192621243,-0.11735709346430667,4.414599821964657,-0.721464647049288,0.04207825089179096
1.584,-5.600767463223747,-3.358644997675583,-1.1830401974693814,-10.302839841337118,-0.3001751989359036,2.8732619890179194,-1.6134979244452552,2.653355119357002
1.588,-8.763456218755891,-4.5493226661037625,-0.437808106362354,-13.201713665417628,-0.7551535201801016,0.9397992191661615,-2.741843978590623,4.420503560682846
1.592,-11.64855537618132,-6.2287622861895215,-0.5737153501131615,-15.76522365810888,-1.7307768543469138,-1.1733372592952946,-3.9962142663280247,4.199516876800772
1.596,-14.013893237635784,-8.325311873297778,-1.7311858785092227,-17.70047588108355,-3.356323421622619,-3.3357246341247446,-5.441113286043219,1.493864746377767
1.6,-15.642128075047367,-10.545804884613062,-3.83474402341335,-18.80095926114427,-5.456949522771538,-5.3640286884437955,-7.123897720855894,-3.17431300795306
1.604,-16.336289300475983,-12.411312949394414,-6.5165278617378135,-18.871895802185463,-7.504619281016858,-6.894007710294318,-8.838364155890304,-8.340744022718354
1.608,-15.93592961199829,-13.407588250423942,-9.142701404292893,-17.702360526462144,-8.807436836026682,-7.416441414941801,-10.068042937062273,-12.183677301472926
1.612,-14.374125976122741,-13.188979097925767,-10.997420014515228,-15.135116850433405,-8.874802650005222,-6.511413163043471,-10.214506990057998,-13.385922753623163
1.616,-11.788508300205649,-11.760369836869359,-11.590483870091703,-11.235062698495312,-7.774271090285765,-4.166839729372441,-8.998813986683672,-11.845434791557636
1.62,-8.638917251688326,-9.530650902917841,-10.920426566786773,-6.448691480534762,-6.226421221712371,-0.9652992820010695,-6.773031353593979,-8.823938811423432
1.624,-5.713397733694364,-7.1776927339196845,-9.520590087720848,-1.6012982213378564,-5.314141875611313,2.038111902853416,-4.479277598980843,-6.368361705866846
1.6280000000000001,-3.9244493134065124,-5.368329326704043,-8.234529112367454,2.334205990395276,-5.924631218107606,3.7487644541433838,-3.2193871263116307,-6.260105384477356
1.6320000000000001,-3.946018541173544,-4.450202653750239,-7.799580199327465,4.628284877140686,-8.201606523155533,3.575493685380934,-3.646656948261807,-9.03249097805383
1.6360000000000001,-5.863774422898132,-4.282313602823706,-8.464794907524265,5.137084504458471,-11.349724384136607,1.7732372292957734,-5.5408784775227105,-13.61285768479138
1.6400000000000001,-9.01671003226329,-4.284962137624461,-9.850390653911745,4.4023171449844085,-13.93635039997207,-0.6353481402948091,-7.850770531058515,-17.822964890579897
1.6440000000000001,-12.170546686404123,-3.7099380963318254,-11.140796217836396,3.4118926913233736,-14.57902001659022,-2.3547559693834046,-9.219747666193143,-19.501297012709983
1.6480000000000001,-14.0260908861801,-2.0249984499932907,-11.515203464587103,3.1032532099998207,-12.669569408293682,-2.4762765462655807,-8.714370979003434,-17.64453516354115
1.6520000000000001,-13.811411831207806,0.7982732580530865,-10.562669305101736,3.8688351964301546,-8.723400365306588,-0.9432542100475985,-6.343450420381487,-12.950057696907606
1.6560000000000001,-11.66401930750908,4.232850748851888,-8.46453209563515,5.331549666596402,-4.154013782239417,1.4342316419933923,-3.0704672311476315,-7.4564948265542625
1.6600000000000001,-8.58657814176513,7.4193414522169405,-5.844139657503547,6.532734653503212,-0.569226994120072,3.44283284885023,-0.2954440066969255,-3.462203789189516
1.6640000000000001,-5.981682719975652,9.54744960509197,-3.4000747403079004,6.437059719697572,1.025693574439174,4.132918898882053,0.8906891180886305,-2.327234270152985
1.668,-5.003846488223644,10.194022376277644,-1.5564228193397867,4.488464407928404,0.6821564206984476,3.3085140990551736,0.25845096506600385,-3.8179926653501752
1.672,-6.040496325986169,9.462947714826441,-0.32928153251850745,0.9269529975772457,-0.6135958828581352,1.588508250824816,-1.500552710986085,-6.3370687560636725
1.676,-8.588426202233677,7.856976425548055,0.5275189367530402,-3.2999166843674175,-1.5593935692277228,0.013607819819299038,-3.220740144188312,-7.884568757886882
1.68,-11.57086818589596,5.987490948722552,1.237927011521606,-6.961424937338961,-1.271363093547734,-0.5573351138737053,-3.929445138619485,-7.183526100747258
1.684,-13.88706602602906,4.30571302037788,1.7844306699325898,-9.063288163366451,0.28266860648727743,0.09279077019164106,-3.351431242235776,-4.336785632054671
1.688,-14.891369726083212,2.9832363564792104,1.895341378667581,-9.199429365027754,2.3665276781375724,1.4797853619602392,-1.9766736439305532,-0.6772447774310422
1.692,-14.562537773472286,1.9786792017766857,1.2407538756988288,-7.588772393362888,3.9855773072722513,2.7655055263239774,-0.7038683572027367,2.060243202620768
1.696,-13.358461674293721,1.1778285059699556,-0.3203805773473505,-4.864528453825187,4.470426595818935,3.2676814253718476,-0.3180950630867301,2.7225935482383647
1.7,-11.871370497116004,0.5194344871924841,-2.5878498232150378,-1.763131953903212,3.807163959947502,2.8339756147179287,-1.1085200039087795,1.3148058409678924
1.704,-10.521150778196898,0.01788509359357704,-5.066544049306685,1.098147017577503,2.5419897601295816,1.8648157097923104,-2.823401815658144,-1.1343542154718307
1.708,-9.47049731644438,-0.3275402362469322,-7.197764289143379,3.2571009540060913,1.345732545680221,0.9912402232912427,-4.937759751526755,-3.302740826307854
1.712,-8.722256184551952,-0.619091961651975,-8.615171014210318,4.342648339428706,0.5603561613415877,0.6455842883533478,-7.0064843407581066,-4.407255900428936
1.716,-8.285450653771477,-1.0715251234760217,-9.287111839991667,4.030380201391381,0.006888686380079889,0.7937679716123967,-8.855955603241455,-4.62744420020681
1.72,-8.226270545059378,-1.883449803059193,-9.450555315698693,2.133095277740722,-0.8086035058167909,0.9950813427385583,-10.507945534605824,-4.884253102800358
1.724,-8.55624671825717,-3.045838917723813,-9.393677478713471,-1.2078187115657784,-2.2402146496460773,0.725451275400701,-11.927932926926587,-6.1318468170666165
1.728,-9.067131285355572,-4.250696354167303,-9.252115268833222,-5.387335851635726,-4.128204881524653,-0.25698957415625046,-12.832644608870396,-8.639303668485809
1.732,-9.273460470071768,-4.984388134917026,-8.937576318163337,-9.407110262114657,-5.7617472139154415,-1.7376980852204724,-12.729954377977265,-11.712011462030205
1.736,-8.571479597985672,-4.806858644762542,-8.25623240427285,-12.197694796399446,-6.243544370448035,-3.1804174267490453,-11.201230166370806,-14.03475877297933
1.74,-6.602174200908848,-3.682752650905968,-7.1293762460018115,-13.079101118786639,-5.05035576381124,-4.077995153153097,-8.256697664202875,-14.451480283740239
1.744,-3.6031610389436537,-2.1340493073166726,-5.751031064483868,-12.109185120873008,-2.4382387570767605,-4.2877115013707225,-4.510993433985277,-12.706548783731705
1.748,-0.479987994937801,-1.075250253809827,-4.566021805538185,-10.083763344629915,0.5853760395038989,-4.136485682636703,-1.0014630964760727,-9.687830964061504
1.752,1.5222668305923435,-1.3657307442035744,-4.0419907207542565,-8.13910572444911,2.7626576205684614,-4.201913674569369,1.3095069555820373,-6.997411275653576
1.756,1.4151180930839473,-3.3189767033036333,-4.383660866253194,-7.158102896246419,3.279256446367981,-4.900379572905877,2.071721638803865,-6.0791168262694555
1.76,-0.9687008495448026,-6.439057828097248,-5.365662843652899,-7.297814574330914,2.259206168464516,-6.156994875320379,1.791311146798762,-7.4132928559374704
1.764,-4.790914520884144,-9.56848295189775,-6.40585103426838,-7.931855035089029,0.7537082633862155,-7.381375543713148,1.5808520654172753,-10.252946888042061
1.768,-8.579988101637355,-11.44347521806867,-6.879434719277924,-8.08692357587097,0.17001743274704495,-7.80555246494805,2.4949982814396208,-13.07803828037504
1.772,-10.978496238083608,-11.37623576191254,-6.522017856148523,-7.123107272162088,1.430100586782828,-7.0069721650615975,4.78265653899507,-14.523068611248164
1.776,-11.492973657964285,-9.721630176338294,-5.714049863483524,-5.274035298050876,4.289293098437156,-5.305851015584267,7.473252289983066,-14.258672822217704
1.78,-10.809363597545598,-7.824526730853904,-5.424420145720433,-3.6839351550752326,7.247287633147607,-3.7695544825437537,8.626072498318536,-13.30378950604063
1.784,-10.431574958779493,-7.4104639210409005,-6.797915206358994,-3.852357456446043,8.162554663735136,-3.757692715698795,6.1798805112139235,-13.560521732602865
1.788,-11.82930528820907,-9.719733405052466,-10.562322813546416,-6.773269500394235,5.287277339139109,-6.219601253316796,-0.9762049199835019,-16.798748879893537
1.792,-15.519908812702852,-14.804760414104749,-16.543221141615504,-12.218938466225154,-1.7714529006589146,-11.092545717558096,-12.21757651133521,-23.60123338037738
1.796,-20.609330968813083,-21.384517914308162,-23.56328536600995,-18.613406688540636,-11.673508824305827,-17.152197149140193,-25.123659728873463,-32.84784647102788
1.8,-25.076725013630494,-27.342711896975743,-29.801351053998587,-23.612319794963696,-21.755987828471916,-22.43134404452394,-36.23826064885725,-42.03619301284198
1.804,-26.697917860648886,-30.637246921539372,-33.47747223789247,-25.12182672040035,-29.060327247866553,-25.038673183938954,-42.34194702121022,-48.290134943294106
1.808,-24.144187887468433,-30.177913164328857,-33.55312926003262,-22.239715609212,-31.50201991503036,-23.986478463639287,-41.66216156577866,-49.56044701427527
1.812,-17.67081601010068,-26.232222402551997,-30.10443538697109,-15.619970464693324,-28.626746346462824,-19.60928592192795,-34.4842885385915,-45.420589884328365
1.816,-9.068009273817552,-20.22240048720687,-24.238828123872736,-7.1158832529145,-21.666999691115052,-13.378050410217838,-22.936888767189885,-37.11167297338034
1.82,-0.8618975216495528,-14.006742269886672,-17.573343495263543,1.1121184779913165,-12.888847564689968,-7.208772688039971,-10.075903347747953,-26.864296178149743
1.824,4.789924217981024,-9.047552327527228,-11.54469212049662,7.516643036073219,-4.592871080763871,-2.6343378466917784,1.2744560907813138,-16.90775757535448
1.828,6.947169887145719,-5.9074668078956165,-6.922013651315865,11.627130556251359,1.712607341396506,-0.25585819654224906,9.385243561469906,-8.693875349668815
1.832,6.10398989521309,-4.255373616706493,-3.7141560098889386,13.891914464542424,5.636125350698421,0.29274458095096634,13.882779429899529,-2.6652628431183985
1.836,3.7147782611600633,-3.3198006768525374,-1.4719205291166872,15.074723634766997,7.659674383619858,-0.08697196228058601,15.402855446001922,1.4265249562195095
1.84,1.369469330148604,-2.4483408296700873,0.26534863601864345,15.65441111263408,8.596594945742254,-0.5660649216151796,14.961511136947593,3.9701233237046836
1.844,0.07518850908127206,-1.4333541725100076,1.6661010558045746,15.588467629504521,9.103148317850355,-0.8156465504798689,13.418957754347502,5.094845531533792
1.848,-0.015065241525917372,-0.46959735901327804,2.5928167622150795,14.541710392003552,9.477453832618266,-1.0450968684599502,11.261993848009297,4.651727970334832
1.852,0.6477455071581062,0.17382530382292316,2.8582443021514337,12.377143556006558,9.776078147435328,-1.6861668784094945,8.71270527933666,2.532354627503082
1.856,1.5115119439642513,0.47709208477590437,2.534613251382325,9.512186291167382,10.057812440074485,-2.958243093769852,5.987849553248452,-0.9361347689882678
1.86,2.3250251328399827,0.7455424641711943,2.0624059937872516,6.858832787920619,10.512052721321197,-4.622417658449194,3.451097106169982,-4.863818211515536
1.864,3.1969601405589856,1.3756386245104295,2.0504172786941126,5.353000222914488,11.348796009344369,-6.077755917573086,1.527830538823764,-8.081121707376951
1.868,4.32930052107713,2.48248710793996,2.885597615419101,5.374881156766605,12.550809566137104,-6.715437633534748,0.4823032068852626,-9.665423162190564
1.872,5.683197356726851,3.68284239021159,4.410544008885154,6.468412789372451,13.715682254695821,-6.293576531441431,0.2427905784215909,-9.389183239894919
1.8760000000000001,6.847529004162425,4.21314027614244,5.89949766571408,7.570129943917891,14.155676932870847,-5.073901379853851,0.43042929945931974,-7.792369210183097
1.8800000000000001,7.227377816991975,3.364032263617446,6.411383310795827,7.641284801523398,13.277499859745149,-3.634811528845603,0.6152845151182191,-5.821699183097735
1.8840000000000001,6.443165372860676,0.9765304761267544,5.335264342025766,6.325912109995443,11.025817196087246,-2.4883057365823333,0.615473289264628,-4.255353153952456
1.8880000000000001,4.646992024116116,-2.3421104223225484,2.802734937162313,4.208636057050171,8.077901765585466,-1.7547532080880046,0.6239057452985435,-3.2723459165172244
1.8920000000000001,2.500267341696599,-5.460678638030913,-0.3030881432832757,2.48034097969321,5.604701834641219,-1.1164239845256816,1.0463909424552185,-2.4489285841445962
1.8960000000000001,0.8114669489150401,-7.322373938175588,-2.789371941180434,2.1985548301991003,4.668519481399926,-0.0711112345343281,2.1363698471250245,-1.1724046916406223
1.9000000000000001,0.04152178897857084,-7.551722599437198,-3.8099649429277633,3.5797919976257617,5.586165594958857,1.6611949617963546,3.6582459653200203,0.7924660557946481
1.9040000000000001,0.028038972893227765,-6.674451881548521,-3.3463076024509064,5.775353695132253,7.66025661798858,3.849090502704712,4.841069184282787,2.9712508729953697
1.9080000000000001,0.14836396009104647,-5.795110066484085,-2.2219241070279168,7.2912939776661005,9.483260559641167,5.775388520985871,4.714427236186566,4.327241012693776
1.9120000000000001,-0.18986554090042773,-5.908445892943291,-1.6284023389616777,6.813146986924949,9.685594856769058,6.571488960807983,2.665864310465622,3.831336247623767
1.9160000000000001,-1.0321288920131337,-7.24506906776287,-2.4198382364484132,3.9631231674093215,7.721464014351113,5.684190331772697,-1.0949867028766676,1.125630434087725
1.92,-1.7062506016991392,-9.061280990770683,-4.579855461510306,-0.45101827880171186,4.240722658978484,3.2062975395383546,-5.472889525323808,-3.13375675745192
1.924,-1.179832275283843,-10.031101070841032,-7.180437606743908,-4.84697970076013,0.8015298547838938,-0.13015819861720956,-8.922625904362576,-7.504105356034415
1.928,1.2401862345968766,-9.03228252081226,-8.867152935345985,-7.688289457936662,-0.9424067439990722,-3.276130616080991,-10.171461116869978,-10.441095508942453
1.932,5.2630761059745055,-5.881829941539763,-8.612039457732863,-8.263581166595031,-0.1437700609503736,-5.3328251326620375,-8.86713672278438,-11.086376722689238
1.936,9.47231662941067,-1.5822036767976897,-6.319835662194237,-6.9978359364649805,2.744451116066557,-5.919443725050769,-5.79094873784743,-9.708635451485861
1.94,11.886792605364462,2.1160904705197936,-2.9273378659081573,-5.133150295362611,6.183896873906633,-5.260359735687416,-2.4876728997096507,-7.540791290184643
1.944,10.963107765721361,3.612061980935323,0.06389652657298939,-4.002456442382027,8.361900222117129,-3.9826481636764584,-0.4989016673707738,-6.1136568153069675
1.948,6.49168179777007,2.30986199625022,1.3565753317679992,-4.327551055177537,8.144676195593547,-2.7626191021336126,-0.6034747342700939,-6.4569460851726035
1.952,-0.13342123267511852,-1.0503596070529966,0.4951526122672476,-5.925266351927348,5.639809135140695,-2.02456363836518,-2.4807974187642685,-8.615204590996655
1.956,-6.473868435160512,-4.777093350723135,-1.969297449543319,-7.948706409393708,2.0647162334466884,-1.819930149909851,-4.963649415933105,-11.71682897714254
1.96,-10.180162675947031,-7.101586840268283,-4.836046481644189,-9.46009176611733,-0.9660233992744907,-1.9087216085554246,-6.716699127917309,-14.525947095905394
1.964,-10.119742199410666,-7.071573887682007,-6.9318499965329465,-9.984943142512748,-2.3294345033614263,-1.968106464462835,-6.971445835539271,-16.142316393185865
1.968,-6.899618122274205,-4.986761789745287,-7.71785354970325,-9.732183967565106,-1.9591404655707265,-1.7894372530508917,-5.91094766835522,-16.447736545632324
1.972,-2.5298646440378434,-2.1693006839104783,-7.505880249177608,-9.399373899737839,-0.796041575531035,-1.3777296925363771,-4.511558479669475,-16.08143969043431
1.976,0.5820088355485495,-0.2415051570342257,-7.208730408646716,-9.72789894836933,-0.20193316275026518,-0.9300941419460287,-3.9584234106141594,-16.002074515597087
1.98,0.7845358586614566,-0.30547236272104783,-7.784464552471491,-11.075511487758376,-1.1783458958843767,-0.7278916229734023,-4.967676678648786,-16.91429549268014
1.984,-2.088991371729662,-2.440916856795411,-9.685500520001824,-13.230851880129194,-3.818116387409191,-0.9996755846932501,-7.377518639049413,-18.87868213042111
1.988,-6.775232054219941,-5.773922786266667,-12.625610481315107,-15.566183196201564,-7.298036536787549,-1.8260611900259391,-10.23349992709609,-21.323470192189234
1.992,-11.301905805755268,-9.002062832282263,-15.749045997351459,-17.388082379045045,-10.360119938221487,-3.103725621304875,-12.290688099064937,-23.39012923032351
1.996,-13.93029802364481,-11.05582504320455,-18.080422219077718,-18.260571710942713,-11.989137674635458,-4.564351129098213,-12.645614839026166,-24.38594205033587
2.0,-13.862967809676775,-11.547850611036665,-18.98680712818941,-18.143743051506135,-11.907456198328873,-5.849425200713085,-11.15415716847292,-24.092197394967116
2.004,-11.423280788958436,-10.815124398087846,-18.412474533000022,-17.316283162937907,-10.638177499044104,-6.628194839239768,-8.444320274908023,-22.773794404854925
2.008,-7.701633550919723,-9.603788617826467,-16.810730529606644,-16.16274660366571,-9.155434450527537,-6.71872290956253,-5.567331387850572,-20.945257988699268
2.012,-3.9482056605138496,-8.625693587230671,-14.860731760045383,-14.972366558962676,-8.351945569131203,-6.169563213288711,-3.497049475759013,-19.07359981715217
2.016,-1.0905312216946186,-8.264550940834852,-13.183975686531994,-13.880855023084678,-8.648577909908454,-5.2728233355146585,-2.7583287584702703,-17.416005448028955
2.02,0.4497846827948706,-8.520989399274185,-12.16645785845867,-12.936270448542473,-9.895223928793712,-4.480084999050632,-3.336000770379542,-16.050948393210092
2.024,0.6526370441524705,-9.163317717741847,-11.94206990163184,-12.207893234911808,-11.558962199362213,-4.24446999124757,-4.857728099815176,-15.039836425103204
2.028,-0.32681289521133294,-9.943034764425647,-12.48811695139193,-11.841209991195228,-13.057058291542035,-4.8533807927751695,-6.88633608445798,-14.571800577783506
2.032,-2.2756066850897696,-10.693043120867515,-13.685172216297815,-11.982761038198078,-13.998188926012517,-6.301578565254204,-9.10943762305942,-14.939175525908468
2.036,-4.9029096789086,-11.307577394275995,-15.303300313819818,-12.645845768725849,-14.249097102478572,-8.267244929706067,-11.352654071859433,-16.34156228379379
2.04,-7.769963005439877,-11.664559402789564,-16.94715537330694,-13.620683507864669,-13.848487855668282,-10.222807764885147,-13.463996635304738,-18.660365600062505
2.044,-10.276749379635476,-11.583664096241137,-18.059060215273803,-14.494343895545171,-12.873875141083317,-11.623647985526986,-15.19148013549966,-21.36027444026149
2.048,-11.80219373232012,-10.896876744167002,-18.052285269193817,-14.806250876298236,-11.385630342164404,-12.096966492399588,-16.166724589734258,-23.614675995821017
2.052,-11.975443753375657,-9.604864842403003,-16.56424259016103,-14.294595826514524,-9.491362485053514,-11.574704707441015,-16.0452225041563,-24.631973483914408
2.056,-10.907900357590734,-7.996827819704322,-13.700401534196772,-13.081630164898343,-7.456550049970474,-10.318662303237033,-14.7145174999564,-24.007472612785932
2.06,-9.205892990998564,-6.611229657220974,-10.103871065731255,-11.673325295803807,-5.735937508805591,-8.826470843981042,-12.430519786325021,-21.900891662573486
2.064,-7.730554259279415,-6.026188212299985,-6.760321293490506,-10.76036825408437,-4.856817072345393,-7.652243392059063,-9.772726816879185,-18.93892281513672
2.068,-7.2053017670841655,-6.571571677690372,-4.594670277770774,-10.893613503056258,-5.184045659220374,-7.202628142913454,-7.41600833533721,-15.882825167713236
2.072,-7.861889039913876,-8.113004508062204,-4.043628359926288,-12.187268174273413,-6.682124342273482,-7.580260144253771,-5.833742029266887,-13.236253608944025
2.076,-9.33352829490832,-10.067043000870399,-4.852661217661989,-14.221412918466285,-8.842031746374687,-8.532251068728328,-5.094963236615513,-11.022112645149264
2.08,-10.854635203217185,-11.653267772171375,-6.211507782883473,-16.20863795460764,-10.841023425747608,-9.548614705466662,-4.8678713450876785,-8.87656428770606
2.084,-11.666647310370536,-12.264384124146773,-7.181100660183574,-17.36256948371738,-11.884458006814384,-10.086064313369661,-4.640639362954516,-6.4006197404596605
2.088,-11.427198779344508,-11.770760314774407,-7.206775190339158,-17.298773187482766,-11.58207446933966,-9.832363942234679,-4.044380600312252,-3.5737019861353474
2.092,-10.385857907519721,-10.574916594487831,-6.424416882241758,-16.24295814126026,-10.15044450220148,-8.888590827736152,-3.095421122348853,-0.967508969564733
2.096,-9.232796953316438,-9.388809716025207,-5.585424020523988,-14.92932201918893,-8.332103020077739,-7.754169879007804,-2.224381886739593,0.4062727433110922
2.1,-8.699240003285922,-8.839184508794233,-5.620436811967011,-14.221022773545883,-7.055337149821071,-7.104790626372505,-2.0675798139113795,-0.43637870843622295
2.104,-9.135119986176505,-9.107133163390017,-7.055831109728842,-14.638677013197594,-6.987030538327872,-7.447420558421527,-3.119958584901724,-3.894297314355299
2.108,-10.27746510059751,-9.795445369996514,-9.607483110653675,-16.038882877642664,-8.200796756933869,-8.824871669436106,-5.422480397992331,-9.426001026019094
2.112,-11.343302825702494,-10.100657267626502,-12.202975786301295,-17.624783278680297,-10.131730980090197,-10.740924907024237,-8.467161075039257,-15.606366027588592
2.116,-11.396267661980573,-9.20705549884633,-13.442286621596622,-18.313089524625866,-11.842306249516696,-12.369673550364496,-11.369219512249401,-20.598076893023972
2.12,-9.801041336259232,-6.697076319480402,-12.275392796759206,-17.27165854628538,-12.458676974599712,-12.952043321803103,-13.234425592728712,-22.829985047192167
2.124,-6.539491082867698,-2.7634247317660083,-8.554855354248502,-14.353354206173208,-11.562609201398345,-12.186055794537879,-13.549075451700446,-21.568648793222565
2.128,-2.237647693747249,1.8666097003292634,-3.1761401221467622,-10.204922234015612,-9.357950069947492,-10.396772156584575,-12.39738051715949,-17.130441857361802
2.132,2.091002111195621,6.241007789175228,2.2708834178285997,-5.993380292391976,-6.541070979097185,-8.375803407594958,-10.403168545622975,-10.664529601182494
2.136,5.447979264937658,9.551477069869179,6.171842812851537,-2.8901773902871355,-3.963468364458322,-6.964044991415449,-8.413368921403162,-3.6405290807870188
2.14,7.195913495825607,11.382106985712426,7.5610579012570724,-1.5731033101837966,-2.2616817673372225,-6.60895485261608,-7.088056565236457,2.6979826669535214
2.144,7.192109140911725,11.738222641093671,6.4695464004539645,-1.9961660902681615,-1.6293806675298583,-7.132029874737327,-6.593196878775416,7.68502681068685
2.148,5.696265856113769,10.887198208784184,3.8127050436633,-3.519037626530917,-1.8121711155390585,-7.8333411385847285,-6.548679244196592,11.28221077203034
2.152,3.1767632119101563,9.16156827085274,0.9093061044075057,-5.280754402435832,-2.2873098786838,-7.870720041400091,-6.260430827553137,13.883542785692043
2.156,0.1484424561497235,6.8458628100906935,-1.1132895700909557,-6.597451943956003,-2.517951912453327,-6.699527541077259,-5.106339935252208,16.032419691208815
2.16,-2.875362621467275,4.208770498018794,-1.7317460573926837,-7.168605547135485,-2.1415503676464596,-4.336648496716862,-2.8766426716260867,18.202818758795274
2.164,-5.344379974010508,1.622904995077306,-1.0888264059858557,-7.015644383938707,-1.0219422752909395,-1.3098190407818038,0.1074832710460214,20.713246158647053
2.168,-6.667184671065343,-0.3787046652166737,0.2492110759503703,-6.259896368926547,0.7954899443711838,1.6457746478445188,3.1414988372789594,23.74212790013644
2.172,-6.327438034224542,-1.2037694021898915,1.6623564511498898,-4.925784791879778,3.151889725737874,3.9539300277460825,5.457792846774055,27.355392920062513
2.176,-4.133757751541907,-0.46261073753373694,2.7540210343267972,-2.928843029194468,5.799584160690074,5.418893728108742,6.5474852458048645,31.493280534454243
2.18,-0.45911843601743385,1.758502496794108,3.4322457373547195,-0.24276544599933914,8.394649246807148,6.1992160847598825,6.3302035544456885,35.93949963312889
2.184,3.7158770684095543,4.796796572363974,3.809718330543774,2.882832311837319,10.508814991972713,6.600598382500493,5.110326598141455,40.327891670368444
2.188,7.0505093951283015,7.590651961374874,4.042717199972913,5.833338205236487,11.710459360539062,6.839269911108659,3.375796451739461,44.228645535196165
2.192,8.343085927018365,9.107382780942771,4.2315449240926455,7.787247045245294,11.720787224271703,6.922980009760067,1.5757386254010726,47.305553830432245
2.196,7.063602403317304,8.815399644269519,4.423436914322792,8.068696717543844,10.568764391109426,6.716415608396574,0.002225454266408633,49.465608743588064
2.2,3.6380089405134868,6.9601004321200435,4.673574030758118,6.511610420919169,8.651178997599118,6.118281165436656,-1.1868400599782944,50.90874424874528
2.204,-0.681197254174549,4.480155345902745,5.065897137253842,3.619547237923598,6.62032116916555,5.1998968583448,-1.87570114574919,52.02040940489451
2.208,-4.323997758385303,2.582270266644173,5.656844898918962,0.4142115623042173,5.128790977314111,4.206944243771204,-1.9259784828816464,53.16155270405352
2.212,-6.063656402281822,2.1834278492565318,6.376445421378321,-1.973387874995069,4.552770803768681,3.4261469372349893,-1.2084195060506318,54.46991834597793
2.216,-5.486991035016672,3.5021713278238167,6.985975977166618,-2.752425414015306,4.847010560859189,3.0094860048179726,0.2838720763299989,55.790697411702695
2.22,-3.066119545230663,5.999913136273335,7.155261652235367,-1.7399118211665154,5.60994238424928,2.8804184372495456,2.322688755895342,56.77956160971735
2.224,0.15150247666099403,8.686810455383238,6.656778250714979,0.6597120290680323,6.330195686803336,2.7819217805472363,4.4445532922663915,57.1208530355118
2.228,3.0658711976450377,10.62393925517108,5.570688944655558,3.7305702521423427,6.680634088942611,2.4390995918131466,6.10017740648027,56.72890725930074
2.232,4.95567039459263,11.34859408676266,4.350239472362773,6.788728253385557,6.68456783749923,1.733173328810608,6.882131277242934,55.80047451016253
2.236,5.640344584144941,11.013792464163885,3.664888121388799,9.41588256732723,6.656198714294305,0.7762535133283563,6.714530097374563,54.69489485506165
2.24,5.358632983239431,10.203570914111424,4.075383653418157,11.496569403544527,6.96606720136748,-0.1519517453689332,5.887872083461957,53.71150928886527
2.244,4.506388163728843,9.569953518227862,5.726798738691059,13.092072003193948,7.787598912441467,-0.7571206795300895,4.917738457718315,52.906870475710775
2.248,3.423187373239216,9.496572899337423,8.226094744224383,14.272343476324977,8.975092286661834,-0.8688884855955621,4.298920116729391,52.06683766326978
2.2520000000000002,2.3373480517223015,9.972222865497486,10.794706727294567,15.026618634344231,10.153013848436672,-0.48499666235989025,4.2943925341800195,50.853518050808816
2.2560000000000002,1.4430112804932378,10.697524574279498,12.621232531055398,15.292184614078678,10.948531430148591,0.28797121370450895,4.867870744434299,49.04386416290254
2.2600000000000002,0.9782914810565444,11.316383913730078,13.215451198276128,15.042993357007163,11.2098752827755,1.3274729340403155,5.7575692786447235,46.69740700380862
2.2640000000000002,1.1984259960614736,11.622174321284888,12.58487409158738,14.349575143799484,11.08258369857242,2.5409675723368537,6.640154176575834,44.1460435441827
2.2680000000000002,2.2347007025080075,11.608519353270253,11.1435146382546,13.350476816481205,10.885506324028313,3.832400794907471,7.266511612933073,41.79178318447998
2.2720000000000002,3.9192299523523957,11.359774142112428,9.428864243461817,12.153717460824282,10.868125674092937,5.018523440520539,7.497123824863365,39.82114395038138
2.2760000000000002,5.715633660526805,10.883251010537492,7.808981245812674,10.744010668095484,11.008385358898067,5.775605034681121,7.2517342584467315,38.00659184077449
2.2800000000000002,6.856063623195723,10.042159542862635,6.36926837060264,8.989481383935754,11.008533721633512,5.696222625209316,6.457682728671443,35.7383022263283
2.2840000000000003,6.665346517165176,8.666484281484088,5.041222789762287,6.774859968554381,10.519888037937108,4.460509456740169,5.079707999593438,32.30859434450508
2.2880000000000003,4.908719388102952,6.770749970795009,3.8367440960619774,4.173120558234245,9.443938256195793,2.0409692992355986,3.2294467436174727,27.319997172855665
2.2920000000000003,1.9726366124605192,4.732383951246675,3.0077561842898604,1.526207486108774,8.114815163227092,-1.179312374135634,1.27272795970282,20.998727997850665
2.2960000000000003,-1.211828318716016,3.2722158309317706,2.9807064303607262,-0.6377755823079383,7.2153026514130545,-4.466960633763392,-0.18793332004889862,14.23677418082707
2.3000000000000003,-3.5049453104061286,3.1849455585287387,4.0799102014767925,-1.840752180827053,7.435031896773239,-6.984633352400351,-0.5050979837708383,8.305164527785735
2.3040000000000003,-4.025374017715762,4.923810887374856,6.205597559455072,-1.926802261970579,9.044566068438598,-8.120385189453486,0.7202565173606104,4.357701600514474
2.308,-2.539572855268034,8.247489836326992,8.687737104050143,-1.210771354406063,11.625761241466932,-7.748051903589499,3.380042224316014,2.933113353327144
2.312,0.3853303745917174,12.15256794761882,10.470023005636051,-0.39956093449904984,14.155598478167605,-6.289817725846206,6.809849692354874,3.6992947460491905
2.316,3.544337006801584,15.167550114305698,10.538874863996796,-0.3053837544870248,15.418902589968127,-4.5515037372422285,9.995473655861645,5.562975784208902
2.32,5.532325820988319,15.938396360394563,8.418555273172387,-1.4680078359041318,14.580848652002032,-3.3876117876568514,11.97563405725873,7.111707757820454
2.324,5.306758406970857,13.862848486049472,4.488034983066598,-3.872397287602496,11.643783140027267,-3.346670935986822,12.259012864292345,7.20490862880547
2.328,2.6522463569286288,9.448138161680504,-0.08882367011716497,-6.914910295179197,7.522300695306001,-4.456373350053582,11.023462875428208,5.439897364269882
2.332,-1.638729022628354,4.212698662382934,-3.7986519470027815,-9.623340482344304,3.6950509780608627,-6.2331353437124335,9.00699039351423,2.3019881148927652
2.336,-6.008935835001864,0.11648285615927989,-5.39016170195174,-11.053740670103025,1.5772073905960156,-7.910707760250261,7.146374034588803,-1.0760811566941584
2.34,-8.730064746607525,-1.239154810453158,-4.382370077136557,-10.672672015078547,1.911809277630823,-8.783750621832382,6.149461641593234,-3.4391231924673775
2.344,-8.629944199336705,0.7121952921984303,-1.2434509088998311,-8.567220070937537,4.4663517804496,-8.507374756323543,6.218637747605612,-3.975641642433743
2.348,-5.656909764153397,5.2368241192295955,2.8152875862458018,-5.412153504959292,8.154151889132947,-7.235691290330351,7.032043515031432,-2.6900973794259926
2.352,-0.9941075872856686,10.58787899584405,6.332018440605907,-2.2197973438242116,11.511651279248724,-5.539180250774507,7.963943472286701,-0.41321301649406905
2.356,3.375022290799734,14.71389052701295,8.15242158968266,0.004605426600619467,13.293687267502776,-4.139852391098657,8.409649357717626,1.5620691139865812
2.36,5.5077194949618615,16.08917145731209,7.831639622007856,0.575480727224317,12.922925889022167,-3.5927430665067277,8.047446803790194,2.0575629443170556
2.364,4.384854040901075,14.309378168128092,5.7330147563322384,-0.6871552685827282,10.619505312348792,-4.047905813864759,6.928795607544089,0.5424418802756463
2.368,0.4100489769513729,10.198894626900085,2.8192724412138546,-3.4335165984721243,7.20430008274451,-5.197615171338839,5.394347580907038,-2.612836167129558
2.372,-4.729610582845112,5.413463151085182,0.24480702430594192,-6.902797570619555,3.7150724200552645,-6.428554091301976,3.8926737926598207,-6.281176008939951
2.376,-8.822570751229648,1.7102642377783468,-1.1017718056137369,-10.158643521052795,1.0074727837449586,-7.10793700500426,2.7962251966040412,-9.074616095013425
2.38,-10.154728519960145,0.22182776631939305,-0.9247664810138758,-12.368323110876418,-0.4972249126733459,-6.871404412800189,2.2759286751587524,-9.979141721728752
2.384,-8.270086131525318,1.0631772740522933,0.40854014991771237,-13.037936201550792,-0.8472127450857556,-5.7694261519072825,2.273030313012214,-8.81294927899421
2.388,-4.114533746538541,3.410165683142054,2.0812465776840554,-12.14749662188251,-0.41873809810959983,-4.214058232884781,2.5591340441889088,-6.291549315264092
2.392,0.5027757798125094,5.992502328698947,3.2374171550919755,-10.1288822850629,0.3202262453695539,-2.756917666707068,2.868302475659675,-3.651182365094428
2.396,3.826043363691042,7.722196662784086,3.3934138542844607,-7.699915439937968,1.0185163720889818,-1.817990652119306,3.0509245177094044,-2.0110437733610524
2.4,4.978294943856099,8.172114522912409,2.668785966003952,-5.59754428936435,1.5580620424214544,-1.5023514863439686,3.187950254526868,-1.7997370052935366
2.404,4.279049913547055,7.692188332622834,1.7099855995767257,-4.304832881861785,2.046334096718965,-1.6010489091174804,3.5943897731838206,-2.5567558870741323
2.408,2.899710334276506,7.1021102928457935,1.3120641310504197,-3.915288282300594,2.6784541606332937,-1.7756540497823607,4.655347991141639,-3.2531299499653414
2.412,2.0989075726508872,7.149841951999747,1.9194963340733011,-4.187294127523614,3.53270048923531,-1.8154658773244137,6.51837055960948,-2.982214205716218
2.416,2.4635096900686904,8.007629545999976,3.2489345063301016,-4.7670568264858275,4.373193281963779,-1.826031228850752,8.779291831921341,-1.6533273939996889
2.42,3.5733527569973376,9.075964865801211,4.269699502350704,-5.45322233919012,4.577164737072167,-2.22948645570591,10.363646348288057,-0.2834050244871378
2.424,4.246864896003785,9.212208181782216,3.6051576049899268,-6.357131563651478,3.2741569663396604,-3.563935022089481,9.76163179509092,-0.6550430092772785
2.428,3.2221498308347236,7.2884166904440235,0.20165748810541118,-7.846620271624033,-0.3034044775165512,-6.177595463096395,5.628432440588654,-4.446963612227819
2.432,-0.1064685406705621,2.823639799966486,-6.044102986816483,-10.282406229152002,-6.367525867468828,-9.9689157779992,-2.4579026171282976,-12.246833429185472
2.436,-5.297102659175039,-3.634233893896976,-14.039012856709064,-13.70012845785891,-14.243982379904764,-14.313156556096828,-13.453753586641483,-22.967118589446727
2.44,-10.973657566251177,-10.564080653172141,-21.765314773023192,-17.595712718937307,-22.34862720987644,-18.224490880677422,-24.86858964476187,-34.022752982438305
2.444,-15.354715672171665,-15.959899222370382,-26.98335286764882,-20.95450114772882,-28.566055229055564,-20.6818256332258,-33.46203374766674,-42.24281058599536
2.448,-16.947558395450756,-18.072699799029692,-28.07416963834862,-22.563482686254588,-30.95260055644269,-20.98860357086278,-36.40638970971554,-45.106898695973996
2.452,-15.07714458832811,-16.07877729618133,-24.63924532454621,-21.47287678994519,-28.478734489059775,-19.014034080640158,-32.4290679013568,-41.72942918346075
2.456,-10.065101592593578,-10.407085476345287,-17.627482814736368,-17.420066782621916,-21.501094949510616,-15.22221157624017,-22.403516981965595,-33.140318013006436
2.46,-3.0556134046962597,-2.5996349296863173,-8.954804316997752,-11.021876491752323,-11.720302359596417,-10.506212164129693,-9.072109594047106,-21.767398812106876
2.464,4.397396062845928,5.241594750710078,-0.7943710502719341,-3.6383403521059563,-1.5943539605405022,-5.890476774254239,4.000269409575367,-10.40411980755971
2.468,10.792405177241108,11.17439333999539,5.149821195533832,3.039641199120865,6.551495356085979,-2.2355774282896164,13.775511749821362,-1.1909982834772563
2.472,15.042687159882007,14.021026439521279,8.098697924596081,7.521362890002024,11.325736910876003,-0.04046198003561585,18.779779972192728,4.913421995558565
2.476,16.670398213484305,13.646007675860346,8.262223243818653,8.965712404781698,12.642976411298946,0.6269283414699203,19.390815939674667,8.03267625544322
2.48,15.841481343578948,10.848562172597894,6.573707648235427,7.404934145237576,11.538883214507678,0.07316742418879585,17.315896200812176,8.845168975055458
2.484,13.25206298855528,6.957313123785639,4.250922633136952,3.6678401225358357,9.546075484086487,-1.1629021785481655,14.57691590017589,8.004879342114918
2.488,9.897522323410158,3.3105123589394907,2.372708307858261,-0.9487658387420197,7.962708926040705,-2.4886596688170357,12.554828410238088,5.858605495162919
2.492,6.776945266346729,0.8307290976503054,1.605906554352714,-5.125739031849662,7.367781529093463,-3.4202993717929076,11.550267390539375,2.556030415597661
2.496,4.6100119345233,-0.17871982155429578,2.1110331125274797,-7.927956951990609,7.5609216163265955,-3.6883938658108946,10.986911815679377,-1.627554153066285
2.5,3.6558155787265605,0.011812940904519564,3.5982514254491207,-9.031369035717034,7.886344972085112,-3.265227361142024,10.02938115405891,-6.060220375949484
2.504,3.6874958996274927,0.7822970380344714,5.47576117764072,-8.71483196652116,7.707875587226113,-2.312548413107379,8.20877560836243,-9.828561595853216
2.508,4.134659710158758,1.4484976511951118,7.0354432596826655,-7.646857059749209,6.750153270304736,-1.0735810101664356,5.705921200150669,-12.113414418812226
2.512,4.336241920644511,1.5167709743927844,7.649851380575797,-6.563210820743052,5.155151960037074,0.23387323683277828,3.1827886911028145,-12.63776151607999
2.516,3.7710979769517508,0.810495166745568,6.92778732167244,-5.995282451785442,3.26425938839418,1.472817305181934,1.3130759772989222,-11.88836871519402
2.52,2.199392363101083,-0.5355027528231631,4.80766968281057,-6.133847973817183,1.3234850220479757,2.569782082953907,0.3570321363044968,-10.940543400394745
2.524,-0.2830610784426426,-2.15970493307816,1.583699550192705,-6.839308353632532,-0.6648494519162114,3.455856475854034,0.04615159586160189,-10.957455059780614
2.528,-3.2996148347408507,-3.616964857683911,-2.167410822682996,-7.777632371665732,-2.8685969069722432,4.014668913454443,-0.18659674412424465,-12.624372138505123
2.532,-6.303039338274971,-4.5148943822814545,-5.724740051291519,-8.575693951594303,-5.37480535793577,4.097579561293742,-0.7927900073530054,-15.812762810897311
2.536,-8.68181722549673,-4.616010926403646,-8.405498984413157,-8.912736018387704,-7.962890731615289,3.616437342931931,-1.7885715908255406,-19.644606198953397
2.54,-9.862929915975656,-3.884981094686509,-9.732326121502751,-8.530391010534458,-10.076889960925996,2.6647529057222528,-2.7262727284580706,-22.90537060132624
2.544,-9.451742324702309,-2.4853065421878,-9.545962006073637,-7.225803609865579,-11.05795767606844,1.5734417704609314,-2.9808917052478137,-24.5905952519563
2.548,-7.400182130800204,-0.7452209106794498,-8.043110156702824,-4.889341554010571,-10.530336387271404,0.8275484035580121,-2.16975917918694,-24.321356668035378
2.552,-4.117468149916476,0.9238205617944004,-5.72016061805698,-1.5925134190556491,-8.69437755312299,0.8524294400210692,-0.4379533025960427,-22.45512580321315
2.556,-0.45299905713250155,2.1259386885298,-3.2454478176155135,2.304984664919857,-6.341331577559117,1.7656671580355123,1.5552290083160187,-19.8815534292944
2.56,2.522234329226194,2.593580236922662,-1.2643730636140162,6.145159206036396,-4.521068233801316,3.2454662188372367,2.962797457987108,-17.62241618382177
2.564,3.8970002814653526,2.285138367652735,-0.1898819649475172,9.135940016193217,-4.012444513966216,4.631668614557384,3.2116642469832186,-16.41821185335857
2.568,3.3142051705176527,1.4193523207131875,-0.05871348842720181,10.660937938662073,-4.890080813258237,5.239297881414586,2.332273381660343,-16.463330992050942
2.572,1.1825257250320647,0.42921534021286334,-0.5060015451720119,10.598280843869588,-6.4280459455512755,4.725226219093656,0.9781884303547486,-17.35548369834305
2.576,-1.4462730666755306,-0.1847805734579424,-0.9008589070883772,9.448858314257222,-7.4301979848464725,3.310602978465795,0.11452346988721729,-18.25562675903484
2.58,-3.3302406823240744,-0.058063253141426685,-0.6058808208117625,8.14437366453626,-6.8361754160717965,1.706456976046411,0.5280767791698509,-18.208676629760248
2.584,-3.603857802534776,0.8745542961171395,0.750872123295494,7.611579652326327,-4.278117518564272,0.761499259561333,2.430908739043616,-16.507397324863632
2.588,-2.1940299772052185,2.316873057464136,3.1000836334528685,8.294724995736487,-0.3076181816359167,1.0155808244576292,5.350391313654654,-12.983843019721917
2.592,0.13431405836081467,3.713600949402462,5.955810299463565,9.90177114775247,3.84833079831526,2.407630293922921,8.361437677472622,-8.128047217843687
2.596,2.1483154091770302,4.483034954370623,8.62165478166753,11.540582061068562,6.865147663300149,4.30924356628384,10.527567919152716,-2.974183923196051
2.6,2.7596215070236667,4.286940397241096,10.490270176439708,12.208748490599874,7.934145431996967,5.871627151794655,11.317919779647582,1.2272385666797163
2.604,1.5689550881297691,3.204268601655258,11.28758451372164,11.371632330582088,7.090898546960489,6.490837936305979,10.789271444074984,3.4337980359118774
2.608,-0.9619366875083415,1.6869345330123906,11.116306342341431,9.27699004825854,5.07960052605813,6.118926726667269,9.44515554454938,3.1603613543315987
2.612,-3.7587039591794564,0.3340747985832877,10.311468169936006,6.840893304349947,2.8728734692349462,5.2389997707864495,7.876866233981673,0.6118285012639717
2.616,-5.671820828365071,-0.42275555517676366,9.19298864428174,5.153244915137293,1.128343083001937,4.534271969357633,6.399171582766485,-3.4507268792540344
2.62,-6.0407401577415385,-0.5720604409725638,7.866162996918092,4.873717081911536,-0.11521819332574523,4.448536489206617,4.889068479449634,-8.050907988752442
2.624,-4.979846386440386,-0.5541719085717887,6.207562608271701,5.878978552995477,-1.334473394189672,4.910074211315077,2.9163622641021902,-12.35987148258073
2.628,-3.268747400445818,-1.0524796432152925,4.024992027980716,7.352565461660333,-3.1112544809589053,5.392644033119268,0.08808382642018842,-15.912820258589363
2.632,-1.9018639436437752,-2.6123505837126686,1.3121625740081981,8.270919168260662,-5.65526149787911,5.270009363703593,-3.5982612042248547,-18.597162459290303
2.636,-1.571459739898728,-5.309511486703059,-1.592188756156247,7.976532562143575,-8.575746438787064,4.236901080354073,-7.625601358156473,-20.48235454306723
2.64,-2.359947061543153,-8.647447959614738,-4.067016008169276,6.495050291852067,-11.044352884721548,2.530831253582164,-11.151632091211923,-21.63321016006512
2.644,-3.7614773379455073,-11.733699227733723,-5.465119625964917,4.437035361395374,-12.233000997687213,0.8178781398692081,-13.412611866353927,-22.036503680427813
2.648,-5.006919812456772,-13.68100457201922,-5.444703564287693,2.5637471020681915,-11.778880364200404,-0.19077095765669583,-14.116974450264024,-21.689404610890506
2.652,-5.48644609049029,-14.013661591875234,-4.170939305636239,1.3214200488637289,-9.987948816618655,-0.15656062643620317,-13.599687653497313,-20.766568705484588
2.656,-5.045283175456689,-12.884446405025756,-2.2675516583417448,0.6318042567199882,-7.670266855661566,0.6932610198878137,-12.63274418776109,-19.709595844134128
2.66,-4.013018203481124,-10.986994329598701,-0.5249590569439988,0.05591296454849726,-5.712882386847696,1.7009685771531622,-11.998021009268541,-19.144073090973507
2.664,-2.9642994841497057,-9.20735367165571,0.48458554740068394,-0.7935762923643779,-4.639179690091623,2.171796491375517,-12.065173414728179,-19.61902910547542
2.668,-2.3701670537980135,-8.207271261537016,0.6660945928281308,-1.8886090646319644,-4.413826376629686,1.7847567507346866,-12.623277086690905,-21.29882028085376
2.672,-2.3391814575027183,-8.143366037410487,0.41162562984050055,-2.7203620491673064,-4.571312836323614,0.7698951987172222,-13.059348418090849,-23.799441769386704
2.676,-2.592437827419417,-8.672276070990847,0.3526025925309568,-2.5943427896499998,-4.5740992751277645,-0.24082608450726184,-12.781048780788751,-26.292839132479457
2.68,-2.6739496819805026,-9.221627948209061,0.9884415172446097,-1.1026184235811343,-4.170670917190819,-0.6031720889018288,-11.635386734488748,-27.862551157752478
2.684,-2.2673102817229847,-9.365753327518405,2.387694583891971,1.5260817945086274,-3.5414227782155194,-0.0611413385099695,-10.080466329331102,-27.948379253057738
2.688,-1.430233720652268,-9.091007403900448,4.127116957589806,4.433228977389717,-3.1590510488554173,1.070642746712565,-8.984679977928863,-26.652181724772163
2.692,-0.5860589851938585,-8.776730369588222,5.504988078929955,6.519091188268703,-3.4538480003050154,2.051692218122298,-9.159328140590333,-24.73379621177628
2.696,-0.26062412689793746,-8.915004674281136,5.902562146697164,6.998980129854772,-4.503243668617415,2.1110354287275186,-10.884848471888745,-23.27117629679651
2.7,-0.7249459978945652,-9.730883289023495,5.109332632625637,5.813932296884104,-5.931025101380101,0.8673236114909741,-13.68374172509175,-23.136555642141047
2.704,-1.7335159115075385,-10.92074718291724,3.458830369749876,3.67826517139747,-7.06057880549065,-1.4461963920866765,-16.47501759874058,-24.532644840404828
2.708,-2.5452785294269233,-11.699476597840885,1.706049304231783,1.7351814855069279,-7.2359020888488885,-4.065577862218561,-18.034736566189622,-26.829160936347307
2.712,-2.261764386303639,-11.160001327535156,0.7098936866027543,1.0126968472623048,-6.134160890875592,-6.041469702041468,-17.53260753803079,-28.797797522507153
2.716,-0.3094951303041853,-8.766569442314676,1.068501910157238,1.973139310553961,-3.916266687882853,-6.6675306403462855,-14.892712787768232,-29.146040588070264
2.72,3.1960988301320867,-4.716500461513078,2.8650413320008283,4.371884290440903,-1.1589249564217425,-5.788369946267267,-10.826328916955845,-27.133378666224417
2.724,7.415876241562955,0.05107305062733758,5.640113890677867,7.454800389501543,1.3846689575457276,-3.8414361271434245,-6.539375590873533,-22.9845391697163
2.728,11.1403960663813,4.231540431263738,8.575911300160215,10.356201160831006,3.062678508320687,-1.627215354988948,-3.2671635408582915,-17.881202273233157
2.732,13.344378282839216,6.737619970706419,10.811151575926942,12.46608699584749,3.5369283097948028,0.05755174291834919,-1.8379822000611057,-13.519606643028055
2.736,13.636561872288667,7.18156119887999,11.757701341002985,13.589764423405086,2.855242752975755,0.75157467121835,-2.4248212882380358,-11.411708994618039
2.74,12.377523167536992,6.010615484962727,11.29446760984115,13.87785875519512,1.3915466115681738,0.4789480805893618,-4.552767387468975,-12.234331364758873
2.744,10.400972916574801,4.222099050226916,9.773746064885245,13.623697105891097,-0.29403661952710536,-0.34095781293626715,-7.325785330618601,-15.525103847699938
2.748,8.495228221254592,2.810540102493178,7.848314948223333,13.070064608295752,-1.6256781868464714,-1.1569300274459238,-9.765823688129785,-19.864747924589665
2.7520000000000002,7.005350812518145,2.292217209770797,6.225461772450217,12.3632227727187,-2.1406196103753246,-1.5708858785392295,-11.12817750438171,-23.462405991137075
2.7560000000000002,5.762475080710374,2.537786597621789,5.429864927432845,11.618599569568687,-1.5781523663222288,-1.5109600167047574,-11.105404770038149,-24.887863558029494
2.7600000000000002,4.369294229417619,2.9861025094082834,5.652914871077655,11.00927487256854,0.07249917500894298,-1.2168884532125048,-9.873505239162569,-23.623268410704895
2.7640000000000002,2.635222866257436,3.081752115575682,6.72948363028695,10.778224931526893,2.5683272359519833,-1.0603004016616069,-7.980688578687477,-20.193934610405904
2.7680000000000002,0.8422821730478063,2.64977454405107,8.242842107760453,11.12437089475793,5.456770745146059,-1.3161165161918689,-6.113006441529706,-15.854794116643461
2.7720000000000002,-0.354411287100902,1.9721946904553533,9.689485182661201,12.027947602806762,8.161647280505804,-2.0161504673656054,-4.839632027636526,-12.021117171618243
2.7760000000000002,-0.36338338763653155,1.5146886038323828,10.617503346495823,13.134338720077267,10.08649105581867,-2.956317312005922,-4.438579912611658,-9.722532601695548
2.7800000000000002,0.8597507138122182,1.5032429500629405,10.704601552135273,13.812113429991541,10.733336163309104,-3.8376065485722393,-4.8577585563057255,-9.320634948535371
2.7840000000000003,2.644862855184556,1.6629183008849395,9.78545574874579,13.407813085265161,9.825466201596782,-4.4456677868247425,-5.817614566813063,-10.567028244402536
2.7880000000000003,3.898166094502585,1.2993821997424675,7.83782831454937,11.57319137135164,7.3946881445108374,-4.757799053707004,-6.995695948579396,-12.886060033556078
2.7920000000000003,3.7163644817733257,-0.28311395273271955,4.987675492295011,8.504789554503077,3.829842186970154,-4.915512068709177,-8.165736321155237,-15.669914531954873
2.7960000000000003,1.949340831376503,-3.290462925443535,1.5157276145921514,4.932653423863485,-0.17163230400797147,-5.0927612854084146,-9.228509869834852,-18.440121869582526
2.8000000000000003,-0.6483514940919122,-7.178660643303829,-2.1282005885984745,1.841744961428958,-3.744878776858968,-5.359285735744379,-10.128248016527778,-20.837360608166364
2.8040000000000003,-2.8003866707167617,-10.81403868898019,-5.351963373385388,0.047041314932812384,-6.0797127500077295,-5.639160875140533,-10.736649411388498,-22.536199549831508
2.8080000000000003,-3.4322275479783,-13.00991207092261,-7.551624942295803,-0.17704376820165635,-6.688195944694826,-5.7901110382345,-10.822435218086412,-23.236466655474487
2.8120000000000003,-2.2796738299684876,-13.108736290538218,-8.286041134675997,0.8114100829984636,-5.580656739981805,-5.744743342176207,-10.15233618118691,-22.783094178028932
2.816,-0.014567951622893816,-11.29162423623302,-7.437157215105117,2.2533217513321233,-3.270996676976438,-5.601862015007555,-8.678926452884753,-21.33203113280433
2.82,2.17952034761538,-8.448036885823512,-5.289275188362581,3.3999529599630023,-0.5949871787995562,-5.5856137799464705,-6.694053332576914,-19.424252831137892
2.824,3.31951126987974,-5.688105338355399,-2.4765874954864557,3.879310321960702,1.6006907947382842,-5.886307949839193,-4.80678101284775,-17.846879803459615
2.828,3.1694181515404125,-3.7962375969332243,0.19845885145332431,3.8095831165276195,2.762865222258938,-6.4896152328992684,-3.7140815056254723,-17.294977839597777
2.832,2.2864827631203752,-2.933944067592847,2.0160990974122797,3.6035841916550453,2.7978760755956955,-7.12955674135037,-3.855302435509657,-18.005636195789066
2.836,1.5541504425343646,-2.7410143821657584,2.545258895069537,3.5964405652478035,2.0089533270111133,-7.425315593547566,-5.144665842699169,-19.584201837801174
2.84,1.5264509373587316,-2.7274300756967023,1.7312307232207331,3.7444768440857388,0.8505086261792485,-7.139014411722201,-6.957135369411162,-21.15820393500144
2.844,2.040262220745319,-2.6630921129691956,-0.14388136862760348,3.612426144951087,-0.3516180216345788,-6.386770690556546,-8.407890018011585,-21.80739273886843
2.848,2.345319011720221,-2.7181621127110134,-2.5986903830636834,2.6772279828701357,-1.5630589404152033,-5.646312004375659,-8.788591023414142,-21.036541911596032
2.852,1.6739537691582882,-3.262769224053386,-5.091388804851704,0.7735606269563959,-2.9734251065320905,-5.520150004775132,-7.9224576092137795,-19.01769526983071
2.856,-0.14886283572786851,-4.503349997864007,-7.135724676498285,-1.6325649481048004,-4.7685332062910675,-6.369257330756682,-6.240492447822817,-16.477874893276294
2.86,-2.473642874306961,-6.2110242348277325,-8.375492157231292,-3.5497783982887086,-6.887496763912395,-8.041979402493553,-4.537923048494804,-14.299086734985167
2.864,-4.152657459472039,-7.746181185463911,-8.630470803434036,-3.946233590563452,-8.926167416422004,-9.87894958595325,-3.5427549746004843,-13.065570024404906
2.868,-4.226834914914889,-8.381845834803471,-7.919424813575461,-2.362188461880578,-10.267124338556414,-11.019126788637777,-3.5304238555527263,-12.813326165178069
2.872,-2.512696324757485,-7.703301107324137,-6.447462749966462,0.7316514811291199,-10.3619401351217,-10.850792441664908,-4.202349747219387,-13.102857978569318
2.876,0.27658404889780286,-5.847677724489131,-4.561206417498511,4.068226166428303,-9.017867400851856,-9.339419655535266,-4.878714666922633,-13.334099537464908
2.88,2.9778434340139484,-3.4182647892173463,-2.6510274666472924,6.1974881233243195,-6.5127730421309025,-7.027604850699163,-4.875324205144125,-13.08239319859581
2.884,4.712298306745879,-1.1187547241762559,-1.011043120275076,6.2749232157393635,-3.4554573419499093,-4.701723554662294,-3.8446778267352784,-12.241658581510592
2.888,5.430775070299546,0.6544048259962665,0.2822501570198028,4.582256602374628,-0.474147548204769,-2.9161139762022685,-1.8953988402047344,-10.919280696727583
2.892,5.917107420866728,2.012022753109136,1.4034352901295506,2.456533904093021,2.0859231837152947,-1.6733965585019632,0.5287732555239018,-9.213751441292743
2.896,7.229514339198431,3.4321551451822643,2.6739034372046717,1.6185589983904265,4.266180407515094,-0.4585843564143488,2.892265131098611,-7.061942734329705
2.9,9.928000164345008,5.377221835612431,4.35736370615632,3.2468308375928245,6.3476887109135305,1.3911580811106887,4.784567150916473,-4.28129559368972
2.904,13.583903027007409,7.914410969506889,6.460095913740702,7.2953121286032,8.553572291449882,4.209077880705763,6.003690079853413,-0.7794471466261257
2.908,16.883748473173114,10.561313784664549,8.632346588596988,12.4293987176261,10.779652571152269,7.714612059254478,6.50250753208752,3.237410694026721
2.912,18.301229345245588,12.48398132911916,10.27687069235867,16.651944815591833,12.557970194541326,11.110092281767265,6.313003162503719,7.258330485183478
2.916,16.946333924986448,12.9295385255042,10.823065466882099,18.29203844390713,13.281248308731165,13.498685668667576,5.542730108911201,10.705031430789631
2.92,13.088331539824253,11.647724638526142,10.033098622482271,16.83330626668237,12.56887381745355,14.37220366037991,4.448889102130579,13.275713572583754
2.924,8.057346108055526,9.070928394656903,8.181390215236888,13.157489683221229,10.55636609308317,13.868535998899688,3.503412096310967,15.167402091630947
2.928,3.590355259406124,6.14733575121727,5.993395292336913,9.081741972063128,7.908341796439572,12.647954829682249,3.324598746911306,16.989674684062038
2.932,0.983880091030187,3.9130889213168984,4.3436799272384405,6.436609169905751,5.526658367713367,11.471613294428607,4.440015910847251,19.38468547604498
2.936,0.5291183474281524,3.0275023899849884,3.849468342003888,6.176528734523572,4.105694358354526,10.755164500841829,6.984316155085935,22.581987402673576
2.94,1.5209254158095291,3.506103887723384,4.562092470005382,7.984588017619444,3.782976649044258,10.382521142432324,10.51094060741434,26.16739817688608
2.944,2.794667402814639,4.777045345314718,5.9172085249363136,10.547005570439524,4.096474593212349,9.892375240141519,14.070997268752308,29.245124304528645
2.948,3.4247874252868087,5.992819839838262,6.983155014260888,12.30821205134987,4.279265713781342,8.89562104678157,16.578191522485895,30.92356468150433
2.952,3.2038420525823312,6.457732200001715,6.927077412696121,12.312475689978442,3.759572656817568,7.443541391927738,17.305143911113873,30.841527784079744
2.956,2.658746709389902,5.963985383172599,5.464197686644411,10.688832281234,2.571574338953212,6.0929843640863055,16.25475742946037,29.41130767641721
2.96,2.640295989121455,4.8752094664689025,3.0469494384626614,8.548267754212134,1.4163612193861468,5.603839244274923,14.179217751897795,27.60891349424446
2.964,3.7441383213573545,3.9269661543864345,0.6828348242002562,7.369284071573929,1.3144489055632675,6.450944522983946,12.214668007064802,26.427704940647345
2.968,5.925253127487849,3.8505705964277013,-0.5532266517590756,8.2078942553037,3.012573348382716,8.46346307640033,11.322155727363452,26.315037711673085
2.972,8.505918476263105,5.000384054275003,-0.08773216656192062,11.136821878585806,6.46060672398545,10.8300319717614,11.81319864392458,26.92530278476329
2.976,10.527086390222166,7.1481688836432795,1.7906776591661355,15.172821889465126,10.662183049614214,12.484785417387457,13.2101241464527,27.34778338577189
2.98,11.242208763219764,9.550535690445088,3.990138589573121,18.723257665061055,14.023698126966451,12.657469270196543,14.516531866042214,26.678512026887347
2.984,10.487633055775632,11.273795201408802,5.104826208182828,20.320803996268182,15.059966108901733,11.271790239081042,14.746667848294805,24.5907724839401
2.988,8.737040036683766,11.615644312366953,4.10890234209046,19.28188070315025,13.10595996205376,8.963720346847253,13.428229922868468,21.568338972443826
2.992,6.831179961516455,10.437938002665362,0.9207251219733621,15.995863412584868,8.676619733494078,6.72020738648871,10.821908116510826,18.673733008208387
2.996,5.567887924736965,8.252017822188918,-3.4535850500063248,11.742979140563989,3.287596753393018,5.375015505320107,7.780599157008737,17.006892521784607
3.0,5.360964553959207,6.002788161796957,-7.305344832502215,8.13824118022535,-1.1959659365306834,5.245196777285855,5.338623033432441,17.165120192844938
3.004,6.107706421780279,4.63369198345481,-8.988216262716037,6.44953133389356,-3.379959338111803,6.093310391855198,4.245755743663267,18.992948185202636
