Timestamp,O1,Oz,O2,PO3,PO4,TP7,TP8,Fz
0.0,-2.7853275241795927e-12,2.2737367544323206e-13,-1.7621459846850485e-12,-3.979039320256561e-12,-1.7621459846850485e-12,-2.8421709430404007e-12,6.821210263296962e-13,0.0
0.004,-15.95051525912038,-32.83141442711815,-23.228175474833904,-14.30504953641821,-28.770623244951366,-5.010798869430118,-9.41060757752416,-9.324441832465595
0.008,-26.50681488201502,-56.30648170829551,-39.7830862405404,-24.050410155139616,-48.788291170539566,-8.214573386790903,-15.333990833907023,-15.372259829566019
0.012,-28.899226088155615,-65.28538180533474,-45.97824870084787,-26.81743254108966,-55.288861433197496,-8.694409329723953,-15.889324721251683,-16.449459322698885
0.016,-24.167446231077747,-60.85336043092639,-42.53916757157447,-23.3221222605643,-49.40513571501842,-6.823589031121969,-11.584990814868661,-13.187142885809862
0.02,-16.324687341862727,-49.18944469711738,-33.81733040120798,-16.785073647196953,-37.110043026032145,-3.9767352229858943,-4.933384439630231,-8.078513682857533
0.024,-10.028797370606014,-38.02597022554414,-25.288715881348935,-11.087064178897037,-25.853309890020483,-1.7452376954606734,0.8651628810061993,-4.100008101192657
0.028,-8.156529482938765,-32.77569366253368,-20.805165358906436,-8.799218499621702,-20.825577828207514,-1.1145973770892397,3.464357746888993,-3.1879124408593498
0.032,-10.632949714093115,-34.427396750515015,-21.087816056663485,-10.160677087638021,-22.854705599185422,-2.0557697227319522,2.3362430208389924,-5.391471622451718
0.036000000000000004,-15.04730716914952,-40.12664488179195,-24.13067854357263,-13.457995719738221,-28.88448664239553,-3.729875503653375,-1.2923039342374523,-9.12884980396234
0.04,-18.5005839923046,-45.73649392044223,-27.03489507180052,-16.41851800078507,-34.45533419000549,-5.118858181105679,-5.362449041256411,-12.292705376865456
0.044,-19.422871713386826,-48.545834550129314,-27.960265264777604,-17.635449475828466,-36.48277542329498,-5.635642136417005,-8.141957635213828,-13.492022142583323
0.048,-18.281202716609755,-48.54390146355098,-27.064083830333516,-17.20587821858112,-34.76213965613749,-5.387148713976785,-9.002613454879736,-12.739002599951846
0.052000000000000005,-16.90428336684812,-47.7526565174241,-26.01511923005853,-16.33069522845932,-31.546208459960127,-4.985681976195792,-8.465182258571929,-11.260108417559763
0.056,-17.017969867873603,-48.35665228336052,-26.580957693810376,-16.280886427624182,-29.738071330913755,-5.082536408326973,-7.607893745125125,-10.626100896667026
0.06,-19.036776797634218,-51.04607188956402,-29.33175958365581,-17.50124319486514,-31.007528224048855,-5.960750696047398,-7.3034025509811045,-11.76948129849086
0.064,-21.845999095136847,-54.58273599369633,-33.239667922996034,-19.386005623727385,-34.91849955837577,-7.409290775778459,-7.728131226530195,-14.456653288065013
0.068,-23.627616303963862,-56.753968271273095,-36.3619819669907,-20.797369305441123,-39.45414506052225,-8.912803989275233,-8.382788121872863,-17.466938238336525
0.07200000000000001,-23.138860418784986,-55.97531113590199,-37.11575615221048,-20.909870206816947,-42.44573387134653,-9.996192180614742,-8.547959330563287,-19.31959544309933
0.076,-20.557670129321025,-52.4056492681228,-35.27394709124957,-19.771037952941413,-42.89734099356696,-10.486382593062672,-7.81752794004791,-19.102505199484426
0.08,-17.356812323173784,-47.86664297910423,-32.076080026868766,-18.215895811264716,-41.402919781708476,-10.544617517067536,-6.366936989827025,-16.92510831726122
0.084,-15.300700437963798,-44.623256369260105,-29.389140672004544,-17.20674036314591,-39.45993155942563,-10.470668632659624,-4.7911898099848145,-13.76010955676088
0.088,-15.275220773710714,-43.91850513039759,-28.518579787990518,-17.11014451267738,-38.28258693927651,-10.456869680022294,-3.6723813117599775,-10.84780641286909
0.092,-16.73053911451558,-45.255327400394236,-29.434968389297552,-17.425319372230547,-37.964311816105266,-10.462014664575292,-3.1869984929728616,-9.048180962467711
0.096,-18.074731719657336,-46.85513271886731,-30.880017472367285,-17.142009304436783,-37.52218470933013,-10.277525449258803,-3.010283596101374,-8.498053152928549
0.1,-17.740697480153898,-46.92109200842137,-31.223206202976172,-15.4732236696251,-35.7128733804509,-9.696269110067078,-2.5602481342127703,-8.705266515096184
0.10400000000000001,-15.187265734589317,-44.77010102923063,-29.446324241697198,-12.433343222545545,-31.961239617392664,-8.659446553556108,-1.3998227504391707,-8.957213348547327
0.108,-11.231343683441878,-41.14254920619612,-25.691943887027264,-8.891535557008723,-26.804734320330226,-7.284515249382025,0.4522586447630488,-8.768707414043263
0.112,-7.5512971149777,-37.58419284198561,-21.1169783923456,-6.074301192052758,-21.619073760918894,-5.788040536246967,2.4818633627384656,-8.124952278605576
0.116,-5.718634154738766,-35.39745669556663,-17.21704025189561,-4.852189272726463,-17.861548474810974,-4.386686205964679,3.930465759851529,-7.430453445808496
0.12,-6.38890116175412,-34.90419641658994,-15.094749825874999,-5.290831669597878,-16.360678601659373,-3.2544597173757097,4.16545800037801,-7.244610268502981
0.124,-9.063455826044361,-35.39169486885382,-15.014003199205575,-6.686663558461902,-16.999624894514398,-2.52902462263836,2.9908336631632437,-7.955227965336974
0.128,-12.503999869091302,-35.72106216495112,-16.44123632521297,-8.041250640710416,-18.934651365613576,-2.3164793561294914,0.747189607975713,-9.555419496658601
0.132,-15.467111404407774,-35.144372993920086,-18.45940732030317,-8.648572166910867,-21.151870261539557,-2.645912549464583,-1.8372933643806846,-11.616945968070297
0.136,-17.297772577636266,-33.787132915668565,-20.26675693144199,-8.431338504013183,-22.997720223524084,-3.4023555095390066,-3.9729471178514473,-13.459870148798586
0.14,-18.08104778177176,-32.528433476399016,-21.50924067126485,-7.8726638341513535,-24.40941036012447,-4.290635959356223,-5.145508891627742,-14.421639500309084
0.14400000000000002,-18.343841786143514,-32.36893583303876,-22.298790143304757,-7.62947583190595,-25.756265320457373,-4.902545958114388,-5.322800856557592,-14.118972183425512
0.148,-18.599022531791945,-33.769171566590444,-23.018667671674223,-8.130604885835623,-27.49441123836519,-4.902820214076542,-4.95752713821264,-12.602276599767265
0.152,-19.06768719501244,-36.41099843217336,-24.09463177814345,-9.424979594681986,-29.90287357492781,-4.252746404818879,-4.8091755385994475,-10.367613831185963
0.156,-19.710900124236673,-39.47853609514314,-25.829929923569296,-11.316595322930539,-33.01203158079659,-3.322408818512258,-5.646871227791962,-8.216502102049276
0.16,-20.455781232747086,-42.206433842509114,-28.320836524428728,-13.621402635801417,-36.674398518919276,-2.7733370232482457,-7.923926628542631,-6.997375576853301
0.164,-21.32960811312404,-44.21423162143276,-31.354912817121033,-16.26695575814273,-40.57456552876968,-3.2165882870430096,-11.51942960907013,-7.2886078916719725
0.168,-22.386912526120852,-45.459842227673306,-34.345428635955386,-19.170223125271946,-44.17350118793274,-4.829740381324541,-15.674844828742664,-9.150883744831617
0.17200000000000001,-23.524813379681973,-45.959371502719364,-36.420531286898154,-22.03628504958789,-46.71296895746386,-7.178677882546481,-19.218568366749082,-12.093175567683602
0.176,-24.362741183607795,-45.549299820751,-36.70232510462017,-24.28929495547817,-47.38839287986673,-9.385741617099143,-21.025404280770886,-15.286819729488457
0.18,-24.381652134138278,-43.953432537471826,-34.72954229374966,-25.295676819793414,-45.706448045390175,-10.581091548024574,-20.537062558582534,-17.930703284563037
0.184,-23.266200588020297,-41.076180099204294,-30.777121603040143,-24.771012216661916,-41.813668545096846,-10.379112287805697,-18.08514669797796,-19.59163153009763
0.188,-21.23079404266582,-37.302306857387464,-25.869797021853344,-23.09583811642841,-36.583277915260965,-9.103792453431083,-14.807384739476106,-20.323271317588024
0.192,-19.076685880764956,-33.54025090176708,-21.42104791334384,-21.267600235523105,-31.343346679909644,-7.6062862569381195,-12.135481345511153,-20.490374652178048
0.196,-17.849808979703766,-30.89162961143694,-18.62407673878414,-20.419880273129593,-27.32381336081704,-6.7656781168517455,-11.073872631284189,-20.413546038395907
0.2,-18.24742190691336,-30.08816113919727,-17.899566733559425,-21.131771317610173,-25.091825602949655,-6.955510750499457,-11.641171578280591,-20.041231992397115
0.20400000000000001,-20.098613879237803,-30.978043092142457,-18.66817707829523,-22.921059959417335,-24.258505930978913,-7.79408550301946,-12.801584465873702,-18.873693476935046
0.20800000000000002,-22.281757364071893,-32.461400418734286,-19.63950502668689,-24.31406056662115,-23.69478490168882,-8.34878805537744,-12.993698480674993,-16.23849425249989
0.212,-23.216642071086653,-33.01009595047981,-19.513371743199798,-23.555709028301976,-22.200538420081443,-7.693087879756035,-11.020523681122313,-11.789069082387755
0.216,-21.709497344078727,-31.526092090609666,-17.72038951234208,-19.620233607219234,-19.26963205761723,-5.505458157421685,-6.824779409636449,-5.942055755472325
0.22,-17.685967392368184,-28.054132897783347,-14.791719402653655,-12.949816072132535,-15.495868603452777,-2.333294126878627,-1.6768455396008903,0.06502088190154609
0.224,-12.340079549631923,-23.838673495313685,-12.070977044722326,-5.412861433409375,-12.283537222935763,0.6625311468960717,2.4253813346680317,4.629220059859222
0.228,-7.594822251723485,-20.69774743205994,-10.950873706993775,0.5435084434506052,-11.045476323344758,2.344620813941674,3.8490144919271643,6.539132464710974
0.232,-5.163966244765675,-20.079495478493413,-12.095782147894056,3.101015426235449,-12.37592276530421,2.245402381822032,2.291578563609278,5.6137949496840065
0.23600000000000002,-5.714371282308662,-22.28799496509839,-15.070398811260475,1.9850124158012932,-15.658841562113935,0.8401407023852698,-0.9549901773494867,2.84906550401206
0.24,-8.604679303861758,-26.356663162473467,-18.63222536354749,-1.469586927645537,-19.412335257234417,-0.7359878763886627,-3.683828030905147,-0.09520497948983575
0.244,-12.35959149487303,-30.668172251766123,-21.54531581397532,-5.171576863486962,-22.220871983448944,-1.3908009686085734,-4.0921755492850025,-1.850059025343171
0.248,-15.573293180819974,-33.92204585734521,-23.40400392695517,-7.548986340774491,-23.679990801377016,-0.7825009007547123,-1.9961003236522856,-2.2030978333466464
0.252,-17.682120871613165,-35.82870506684458,-24.92964623333114,-8.474493068730112,-24.72220936174159,0.41039449650634197,0.8110177981880042,-2.3377452823342537
0.256,-19.164967955851125,-37.126250213513686,-27.520916908775803,-9.282713460940272,-27.077682979237238,0.8292614019824214,1.3657377471206473,-4.251386951847735
0.26,-21.08805791734551,-38.96198606288749,-32.31088151815197,-11.864975740874229,-32.174477006947086,-0.784346329257005,-2.8638383343148917,-9.625160279184684
0.264,-24.28688799994893,-42.0184330734827,-39.26098689086541,-17.358187984152664,-40.08457516970134,-4.7983781034809,-12.414505404658485,-18.734072024238003
0.268,-28.665756713557244,-45.893272855585906,-46.8172862837705,-25.190331892694985,-49.11784850001766,-10.334795767133528,-25.16339568485091,-29.985118145862316
0.272,-33.04628709710789,-49.103971955677366,-52.366262587590654,-33.064690632387965,-56.33481927614048,-15.564824913264147,-36.991142039491706,-40.36659994659021
0.276,-35.666420919233474,-49.75297215982255,-53.32169501714884,-37.94980282333677,-58.77934815311778,-18.519959083065487,-43.52730014010967,-46.64335336367844
0.28,-35.07030941394669,-46.5402681776942,-48.34427535815462,-37.56728602040971,-54.84952667981838,-17.998372814949562,-42.11485281336718,-46.725088580599504
0.28400000000000003,-30.894851377999657,-39.556870042160995,-38.07339544998831,-31.556551306757,-45.08989691133786,-14.091130514976157,-33.016545897509104,-40.52929364032957
0.28800000000000003,-24.1079875444899,-30.392854535763945,-24.985411398377437,-21.68099845635004,-31.99188588367292,-8.068067956892719,-19.25790971197989,-29.939146782836588
0.292,-16.563035479403084,-21.458867943084442,-12.410069792904892,-10.968447860424817,-18.886906072635384,-1.7064709975875303,-5.213566177968232,-17.930001123584816
0.296,-10.137316363364448,-14.8953778505537,-3.197790217045849,-2.269560064952998,-8.52389157705693,3.547946858358273,5.319256809655826,-7.342960663118674
0.3,-5.94780656279363,-11.694774056164079,1.2957600740616044,2.9621894945323675,-2.0938534127714092,7.126814894335666,10.5810402091156,0.07916501995077851
0.304,-4.050723648196026,-11.470859638328307,1.4777060893295584,5.04178743215175,0.8679992927645799,9.326142925953718,11.182292324908758,3.9826637753990326
0.308,-3.710251351190095,-12.916961765290353,-0.9984590331116578,5.471309601263556,1.782568424273336,10.82710402445855,9.288246158246238,5.043069102031268
0.312,-4.004013229851466,-14.614342868085942,-4.176135373449711,5.832705269085864,2.0248944340346497,12.08913125292338,7.217179365429274,4.290671310726793
0.316,-4.371058869790318,-15.723168657374686,-6.663080100678485,6.834370670197586,2.1963877856283034,13.00604154878306,6.253084961997274,2.546475616909902
0.32,-4.823763565886679,-16.267628559403192,-8.085999398194872,7.999457580813669,1.970723612124857,13.014427045903403,6.225489379093915,0.22144755473004807
0.324,-5.734982396399801,-16.915207499269968,-8.995524876094919,8.117303359176276,0.5106537103629307,11.561220448978247,5.961803999164204,-2.5253040458110263
0.328,-7.372832531489848,-18.41898239827549,-10.349887224260215,6.135952403927149,-2.842921650078779,8.621053009199386,4.239176962390957,-5.482339027650369
0.332,-9.499440689015955,-21.037849638734883,-12.866173427009926,1.9372105531481338,-8.009487968928852,4.9216856811117395,0.644163839687053,-8.207755648824559
0.336,-11.307362920004152,-24.26216930701844,-16.587578144868417,-3.4517707657284973,-14.048197230348137,1.7142804472152875,-4.139116431281536,-10.114223536651707
0.34,-11.786906919459398,-27.02223172248216,-20.869251974927693,-8.326252709087385,-19.539424358296287,0.1878155504359711,-8.716151895452413,-10.754939922687754
0.34400000000000003,-10.307656525105585,-28.223559154667328,-24.707002424834855,-11.142131915447408,-23.207873587335484,0.8625714338938906,-11.745072585187472,-10.098032821386369
0.34800000000000003,-7.057878751610474,-27.288244007368576,-27.18952089251684,-11.231938372172749,-24.419039779135517,3.3160588638497757,-12.606096265028327,-8.582595426814578
0.352,-3.0675247979984306,-24.40251307063886,-27.832445719000702,-9.023418712407874,-23.29494746510602,6.401853851509941,-11.618761812594357,-6.907809800319683
0.356,0.23482296081806453,-20.37423282788268,-26.663423565955327,-5.703690348250348,-20.45996329000036,8.821502871927805,-9.746384394314418,-5.696252380279702
0.36,1.6802206942098792,-16.269623961715297,-24.110684897971396,-2.5977011991144536,-16.668460105833674,9.722744224186727,-8.022667903647061,-5.2298620438716625
0.364,0.9030972201119312,-13.020223606396826,-20.792620390512525,-0.6119590316552603,-12.542241541401268,9.00568166857579,-7.044480573185183,-5.399725799280986
0.368,-1.5193700884392456,-11.175569752979527,-17.329875931058154,-0.020899413339748207,-8.531536149429485,7.196689236721795,-6.78789020833392,-5.863755349677604
0.372,-4.3790472619398315,-10.83237440260416,-14.21806376181155,-0.5959036876299706,-5.013466655341631,5.031393943851526,-6.775154443065276,-6.264112397313056
0.376,-6.425217350328467,-11.70494577574948,-11.770855023026797,-1.8985643190171686,-2.383327557398502,3.0252806391222293,-6.438140778966044,-6.375214325892102
0.38,-6.947987844639442,-13.307763323453742,-10.146151130725798,-3.538638465793838,-1.0539149727289896,1.2794092315546095,-5.460901569738326,-6.13031252029441
0.384,-6.043778921161447,-15.13005516901626,-9.374849943364097,-5.239773757728699,-1.3085047844790552,-0.3913542150323792,-3.91783946332248,-5.57441972026254
0.388,-4.434549406984615,-16.714615145506173,-9.345616515296001,-6.726043965126792,-3.071483831114847,-2.1312366384890993,-2.166487255182574,-4.814149201805776
0.392,-2.9783568915886462,-17.650365885684778,-9.770787115115354,-7.591443714540446,-5.752408518903849,-3.7761125631800496,-0.6168167055877802,-4.012062316750416
0.396,-2.148438818476052,-17.546926376817964,-10.183735554477494,-7.316893250088924,-8.312058500459216,-4.851055038247523,0.4762132338671563,-3.426341508258929
0.4,-1.8202788356090878,-16.127497108198895,-10.070966354965549,-5.507277482509835,-9.63534355971774,-4.86159536771811,1.0711780779763558,-3.424991865099855
0.404,-1.4760336711701711,-13.427806439938195,-9.123051011098141,-2.2241671142217,-9.069752511266415,-3.690842697224525,1.2438107293626217,-4.3995881933688
0.40800000000000003,-0.6538716931377166,-9.94716332019641,-7.460482175823131,1.823876370977814,-6.831364850438604,-1.8221884740419227,1.0522304492283183,-6.570660198996848
0.41200000000000003,0.6683275266198052,-6.586284915952206,-5.6760697078861995,5.4257126785998935,-4.009812352529252,-0.19883145974745275,0.4758524942217264,-9.770475733212152
0.41600000000000004,2.0229448570003115,-4.318758641016075,-4.608310020043064,7.342093080101904,-2.108419729013349,0.23650601211102185,-0.518217644168999,-13.357162802154562
0.42,2.740841386190823,-3.7708297448937174,-4.948946059177615,6.8653721137302455,-2.3462803713226776,-0.9467102117005197,-1.8577964457822418,-16.37350881363227
0.424,2.390379566207457,-4.91228307798815,-6.8675414653384905,4.175904665680719,-5.054770377942077,-3.4060203820686183,-3.3083176648622157,-17.919516936647142
0.428,1.0944159447863058,-7.026581544593,-9.852079615441653,0.2940270824210529,-9.469317150314964,-6.181704278752477,-4.535170410452565,-17.567165032359753
0.432,-0.5030069962658672,-9.003455961794316,-12.861850163167901,-3.373642234864974,-14.026794292873205,-8.188965906364956,-5.267055567508578,-15.589532534177124
0.436,-1.612038690890131,-9.840912286561206,-14.756333377379406,-5.671551055813097,-17.048456939433777,-8.77180106204787,-5.471174650666853,-12.87218023797459
0.44,-1.804528841345018,-9.156478002961421,-14.832814583978688,-6.205114480503198,-17.51820315539169,-8.016379748361032,-5.432644238286684,-10.547109644890952
0.444,-1.330653315030304,-7.430230445212601,-13.191694575367364,-5.466726410192905,-15.559740546879539,-6.656730040032016,-5.669423150666034,-9.52153415297289
0.448,-1.007274092933585,-5.7989591061086685,-10.693846446192538,-4.511116232783934,-12.340851692122783,-5.6367883087777955,-6.683698237117824,-10.121724919753433
0.452,-1.7258529917630767,-5.467398865234827,-8.505068519527413,-4.36000396871259,-9.436711973228967,-5.597458983491833,-8.67961205485426,-12.024826978900364
0.456,-3.864336819290884,-7.041435496812483,-7.476528861926681,-5.46476339235096,-7.997162087311608,-6.584899829280857,-11.411793934720663,-14.491677235756015
0.46,-6.986709560776717,-10.178959351757612,-7.718381468399002,-7.522252559417666,-8.188999583158648,-8.120649673414391,-14.255722686014451,-16.75595437095626
0.464,-10.034083019883838,-13.763307960087559,-8.612979795768979,-9.731027774805398,-9.220136330857713,-9.564481190481729,-16.483150681507823,-18.387874938549885
0.468,-11.888393363042724,-16.48824168556189,-9.250423747544119,-11.306883417399149,-9.904901007917942,-10.511123786192456,-17.601482156704378,-19.433572579825977
0.47200000000000003,-11.994247265835156,-17.518908965546643,-9.00829988817668,-11.944769031941405,-9.41103877232149,-10.973465388648037,-17.560658293761435,-20.27261195197434
0.47600000000000003,-10.64325362865543,-16.84941047357802,-7.914125341088038,-11.942301741253232,-7.739814737417078,-11.252613518724502,-16.706961578758637,-21.29674413380144
0.48,-8.7679415930279,-15.211321246146326,-6.599973438369716,-11.94251496263064,-5.698355944479886,-11.62322826503123,-15.535974190638171,-22.613552205499673
0.484,-7.400881324846523,-13.631019987918307,-5.90230206272895,-12.485765985555645,-4.400344237928721,-12.083094240268565,-14.40959832490148,-23.953805330525483
0.488,-7.114289261587373,-12.895584910044818,-6.3452131218869,-13.639208536885008,-4.587058560527339,-12.338428892668162,-13.395868803703706,-24.809652168463344
0.492,-7.76050984588619,-13.218637490664605,-7.8335813447051805,-14.934327184363156,-6.174698691445656,-12.03333653571417,-12.328297026817836,-24.72222690960416
0.496,-8.637090829950012,-14.2552300867153,-9.730817481809254,-15.64592680308283,-8.290392747239139,-11.052639964766058,-11.033115080283551,-23.544645039422903
0.5,-8.962554662550701,-15.438102358683182,-11.284074532783052,-15.252596700049253,-9.80513410567903,-9.678086723642082,-9.560781810881508,-21.540016953750637
0.504,-8.361402090999036,-16.389188449436574,-12.116748107442277,-13.796435870535788,-10.035319234790222,-8.476860471607324,-8.26707004059358,-19.263457046926305
0.508,-7.0477150830688515,-17.114581943447433,-12.45577424662622,-11.912510042939175,-9.16799343395894,-7.971605393469417,-7.663619964044983,-17.287492091174045
0.512,-5.616940382852135,-17.856595451727685,-12.918694271077243,-10.492052632318519,-8.12248772470366,-8.30194260532835,-8.088034139046613,-15.920620408180184
0.516,-4.631614495870281,-18.75638186784795,-14.007650821739048,-10.187617511861845,-7.940050671000449,-9.115590119891749,-9.40867594355882,-15.080082306915529
0.52,-4.298290730691178,-19.630366508105908,-15.677864575758122,-11.069884356320927,-9.111602083705634,-9.784487388483285,-10.981163612777891,-14.396401447309472
0.524,-4.433163315926777,-20.03778717509317,-17.265852527172115,-12.626848499057814,-11.252004776973308,-9.822139011188256,-11.91348970248032,-13.48847367839494
0.528,-4.69138124101778,-19.59943272785813,-17.842020111221245,-14.092982847124858,-13.317351545752558,-9.223322673919938,-11.505356292748957,-12.234327972722895
0.532,-4.851455894139008,-18.319925264912854,-16.764782882836926,-14.888579523287945,-14.212930559221377,-8.491834185306288,-9.622063228984189,-10.872434347043736
0.536,-4.933175531117627,-16.66506003739812,-14.079456667307909,-14.90207661323575,-13.418461436023108,-8.320179466772743,-6.792607101750946,-9.880062097787686
0.54,-5.074887838156542,-15.33614417666513,-10.530239649924283,-14.466576105112836,-11.279335945646494,-9.102735883998093,-3.95208081816304,-9.68171892021428
0.544,-5.283180898520186,-14.861358405594729,-7.1613828520953575,-14.062933930208146,-8.786984036731269,-10.596732200121323,-1.9634605033209027,-10.355403238498411
0.548,-5.264347976919112,-15.256651506745015,-4.748821223160007,-13.95354963010027,-6.9845589844477445,-11.963587580361946,-1.1768565618840512,-11.512339052659854
0.552,-4.498852984988503,-15.978296680760081,-3.410438620931018,-13.984552394045295,-6.354636734154042,-12.189931355906992,-1.2643168723498093,-12.422312352883637
0.556,-2.5432789088971504,-16.204978781371324,-2.6108137692701803,-13.67590334146189,-6.547457579363595,-10.6652314925268,-1.4208468610402178,-12.3430223743851
0.56,0.6006293736470525,-15.333278861526765,-1.5851264154697446,-12.555589537568267,-6.645437000344373,-7.581505020714758,-0.8381233752118078,-10.891671591010663
0.5640000000000001,4.301952132419501,-13.379472761475654,0.09723235817273235,-10.52626565398873,-5.795171908854627,-3.909813835615296,0.8155379094635009,-8.264799657305502
0.5680000000000001,7.491391112716428,-11.010182916624785,2.2105811878284385,-8.018494064922606,-3.80198926452249,-0.9472986619389303,3.1871343148227425,-5.182759217254215
0.5720000000000001,9.16107997050267,-9.167084975264288,3.987858631534664,-5.817323763386412,-1.3146429684005625,0.3273241497520303,5.419094331410406,-2.5699477005339304
0.5760000000000001,8.897698343992488,-8.522756207575299,4.580881840243478,-4.665591527424567,0.4977746518645745,-0.2704071256603129,6.603518145094995,-1.1375993207861939
0.58,7.153759110782289,-9.116543389533263,3.57774405831708,-4.871046678356606,0.5798344980370302,-2.080694963673068,6.263554728687723,-1.0691396444642578
0.584,5.066267843712126,-10.395731477844379,1.2535241218261035,-6.15173929509524,-1.4335249435101787,-3.9910213235789342,4.600552265477745,-1.964682379299802
0.588,3.9018846814527706,-11.61790105770433,-1.5924636695509662,-7.810002458983718,-5.028547991014534,-5.036048094409807,2.3755722014102503,-3.0670965857823376
0.592,4.432206162334182,-12.329346690670718,-4.076147791029143,-9.126231804796817,-9.0840216446162,-4.872998607542058,0.5041737465348888,-3.6439005186043687
0.596,6.571285841756321,-12.609222831036277,-5.659485712827632,-9.738001674923453,-12.423104548936408,-3.884766449541985,-0.3972122452310032,-3.3332129069547136
0.6,9.460301236111604,-12.943699281490922,-6.335074111407948,-9.793156321430843,-14.341464371001052,-2.890452376364692,-0.2754875373523191,-2.279747797577329
0.604,11.93328744120629,-13.821250602716077,-6.4847337192622945,-9.802057823775385,-14.832601180019196,-2.657885849591139,0.402675146099682,-1.022925756630002
0.608,13.118663928638512,-15.312976055240483,-6.531964063209898,-10.277128196054264,-14.419203971587308,-3.496344172196814,0.9569738127031542,-0.20174314977180074
0.612,12.852309378356154,-16.91286619160644,-6.619914416125653,-11.37965414809537,-13.715768865867972,-5.138210681498549,0.8838370682644836,-0.23529218939916063
0.616,11.698735005901085,-17.75043722572866,-6.518837902113546,-12.780092960739125,-13.002436431487126,-6.946612206980717,0.09867049815125029,-1.134712775846765
0.62,10.589286463386884,-17.07767940729002,-5.814733646220134,-13.823340710161801,-12.085911074631099,-8.294202601353618,-1.08118519281129,-2.533616199287053
0.624,10.289122268209098,-14.734957573839324,-4.224451095065433,-13.902893496797333,-10.498618650005596,-8.883486112622222,-2.17133978278639,-3.8914674008949532
0.628,10.963292077959409,-11.322249423010248,-1.8358742378497936,-12.839704035906834,-7.901721364432547,-8.843881278623257,-2.820436248086253,-4.751536134764592
0.632,12.100181696911704,-7.933902629511863,0.8989207499840859,-11.027843201909945,-4.4131400117196335,-8.576667410733535,-2.9853210324301926,-4.915201105449114
0.636,12.828425395249269,-5.588216877806758,3.417149384778895,-9.249979522384706,-0.6398336326649314,-8.466876313078501,-2.881327757465897,-4.4447862292011
0.64,12.43432366808986,-4.712393660541466,5.3299320974055036,-8.27887723943229,2.5650505668525057,-8.647551755956783,-2.779196302151149,-3.540208218921407
0.644,10.791223843084026,-4.973261524903705,6.563831352572606,-8.48349678980594,4.480395836935486,-8.954979594660927,-2.7948461226696963,-2.4002942605086446
0.648,8.468695530994523,-5.53548986769249,7.286972745071239,-9.653618931350934,4.815098682330699,-9.078393594359568,-2.814770817438557,-1.1602094109116479
0.652,6.444012304567309,-5.591124812232351,7.67369664457317,-11.145727722917172,3.762660121251315,-8.795042022293956,-2.61820715023498,0.05631956162437746
0.656,5.5690479873995855,-4.841256271244106,7.699737573186667,-12.250781865641102,1.824951616690555,-8.135052245550469,-2.0947187669175946,1.0386213767060326
0.66,6.073902301220301,-3.680026424929565,7.100861164792377,-12.582208511611498,-0.4943499325433436,-7.379601410829082,-1.4154146496014164,1.4335723377937484
0.664,7.3767598707515845,-2.9895627843733337,5.518907104180471,-12.266967731990462,-2.9434299667340724,-6.898993400195195,-1.0271878225656792,0.825426956559113
0.668,8.33059822502571,-3.6488841139830583,2.7586846056371996,-11.83043388283545,-5.56482871841132,-6.925037680257219,-1.4377851968503137,-1.0423101456124186
0.672,7.804176333521696,-6.010868354940385,-0.9886717097093651,-11.843339546957282,-8.4992078331303,-7.387558787800344,-2.9007962220756554,-4.0144327860100475
0.676,5.307217829210913,-9.628473846042994,-5.097469869738802,-12.543686231010383,-11.694971231457544,-7.924734130127945,-5.195009893380757,-7.4169895329343944
0.68,1.2994818825966377,-13.411199881862956,-8.708588841772269,-13.675731373300778,-14.74468658871075,-8.06910056624838,-7.64554900242149,-10.195158253594172
0.684,-2.9772726364250275,-16.114445742923238,-11.058359437078707,-14.635645036915548,-16.954722040589104,-7.508324389970312,-9.396498808350998,-11.3049036764412
0.6880000000000001,-6.076199500713074,-16.918578766992084,-11.780663107170824,-14.845708548994708,-17.637698915627027,-6.2820376331885655,-9.820544921066357,-10.202866858228617
0.6920000000000001,-7.034636427544228,-15.793623253972441,-11.018595659457162,-14.12041109710026,-16.450216494045833,-4.794234443155915,-8.844513396865636,-7.177769615988382
0.6960000000000001,-5.803755982419034,-13.461442907348726,-9.293774727458924,-12.795586195005285,-13.577588435003122,-3.6240694470143353,-7.00717336286516,-3.326288894239724
0.7000000000000001,-3.22028615325803,-11.022460442676504,-7.250073860396128,-11.558149184360559,-9.692708079742715,-3.235569897511141,-5.214122273006751,-0.15047445333766518
0.704,-0.5394948243574049,-9.42357225125778,-5.380689113773485,-11.051847532332545,-5.68499408328762,-3.736097999726894,-4.299630780183293,1.0706355911487435
0.708,1.1946448851024911,-9.036347729018075,-3.8739540686333385,-11.492617708618809,-2.303192314376645,-4.808572926712145,-4.6197007967621175,-0.15413817455612389
0.712,1.604786038186944,-9.530576721323484,-2.6232955365568955,-12.513018258475654,0.12655138873191163,-5.85265217945323,-5.87371305308659,-3.2876454044019283
0.716,1.0431545606194845,-10.076673920531107,-1.3567251471690724,-13.317379837366275,1.789098079343944,-6.2621274323322496,-7.221020807990044,-6.961608009536121
0.72,0.2589375916375616,-9.788423252630196,0.1731770906361021,-13.075362987191852,3.214167932101475,-5.69894635234084,-7.657266945892388,-9.538668397466154
0.724,-0.07841879508265492,-8.160382190853852,2.056219585236704,-11.320870432388233,4.967351524065407,-4.21881599097776,-6.462100907170452,-9.785348701872863
0.728,0.27486816520263346,-5.307184652790852,4.187325983711958,-8.153808663241762,7.349006566218918,-2.1913010358133533,-3.51171204688967,-7.346435963107524
0.732,1.1139200603167865,-1.88739227012735,6.332147379289438,-4.157225693982014,10.245966339835945,-0.07057063628826654,0.6701170618734977,-2.8192615472797797
0.736,2.0548536396869395,1.2393996758244157,8.254352855169259,-0.11002374370923462,13.184810091773727,1.8358795997361312,5.125886772018248,2.5511601123752143
0.74,2.847169894495437,3.394463512127345,9.794519036329746,3.3108178286153134,15.508526794278282,3.4627973177108515,8.8224464456149,7.384309019300986
0.744,3.5182552766161734,4.325998036825524,10.870077550527128,5.698827698433206,16.595572955853925,4.904101060582889,10.99090772338468,10.647088985678693
0.748,4.262599210447263,4.215103953013056,11.410931213592448,6.910056620789078,16.040833662922523,6.222993053075243,11.322332699639901,11.914567426516783
0.752,5.191607488745774,3.4944971948553416,11.312281303815723,6.970936317083101,13.774096261767625,7.30268226120279,9.995839928866985,11.369025378380684
0.756,6.150418929710554,2.6052547262047483,10.451397747113674,6.019319235542412,10.103911130612346,7.856358384900204,7.561630810693714,9.605032253057288
0.76,6.757249534120831,1.8047838558498484,8.750714774102335,4.315416475263646,5.64558584326943,7.604004512880692,4.730159795635132,7.352101177086752
0.764,6.656174030763566,1.1118542710064503,6.268082158444145,2.2785673199878147,1.1604904414087969,6.502962053032547,2.165152526300176,5.231947748976609
0.768,5.79655690386511,0.3721090735356256,3.2332580042482277,0.4482158966972065,-2.6715674739533597,4.8600530873450225,0.3282715705255441,3.6136455067123734
0.772,4.531750707543779,-0.6121765236081274,0.0002575085098897034,-0.6808099005344275,-5.4655572773357335,3.228866753815282,-0.609560104040952,2.567873141556902
0.776,3.4315663364209286,-1.9676693446369882,-3.0644209284940302,-0.8951782324002124,-7.23691910931484,2.1300116966656333,-0.7769119640909139,1.8954592787691809
0.78,2.9183272786569887,-3.6982703070756315,-5.705414588666599,-0.4217723443654222,-8.339308130206575,1.7592786194279597,-0.5342004217883414,1.2354219515433442
0.784,2.9678668447566565,-5.685916410332709,-7.835343538927077,0.13445552229381974,-9.228964248911268,1.8767221596750687,-0.3357177346184699,0.23396383776469065
0.788,3.0936598137870988,-7.704703972896652,-9.46814653598858,0.0931336636452329,-10.143473831710764,1.972133936221553,-0.549723878857435,-1.2628825030377584
0.792,2.6698650550148386,-9.416471785553654,-10.567859763024103,-0.8900793889955594,-10.85346453414246,1.6355413200265048,-1.2993652350888851,-3.055970663883727
0.796,1.3993114948464154,-10.371203624025895,-10.916021811110795,-2.5460717148604886,-10.64947372740886,0.8957878212656851,-2.38600274192936,-4.574833336308302
0.8,-0.3890032340110565,-10.087518964851824,-10.125151337540217,-4.059272898775475,-8.646328594079819,0.28033301775781183,-3.346018099081107,-5.0656009919388225
0.804,-1.8495191417560477,-8.24795950161024,-7.844852201397089,-4.4974218002534485,-4.307597370431495,0.5145963896640069,-3.6552899150331086,-3.9510504410428666
0.808,-2.107706515687312,-4.942160416781974,-4.072321611640916,-3.3807765475110045,2.069261001515599,2.0186967889135303,-2.990936429991166,-1.1970845929099596
0.812,-0.8255388854192347,-0.7929891674236842,0.642326033712493,-1.0368841019300135,9.22243604762582,4.518089866595801,-1.4096091043360275,2.541458707617039
0.8160000000000001,1.506596341625368,3.154427148903835,5.2629515356399565,1.4990650290331473,15.297799048133243,7.051482364056142,0.6637027352338691,6.136631832635544
0.8200000000000001,3.76618884462016,5.789381754517478,8.63411676466626,3.0201576379204766,18.59909279710274,8.436404876521237,2.654702265364051,8.50866285234838
0.8240000000000001,4.777605513720118,6.390656924509074,9.980574762698836,2.8151451906801412,18.356957637574936,7.948095926807582,4.139506889317147,9.1899179098192
0.8280000000000001,3.948653600613966,4.9530468665180365,9.277943215020684,1.0810213271585098,15.111205061346425,5.820658216493825,5.073588147552584,8.61931804364076
0.8320000000000001,1.5990640763444617,2.2215585300861562,7.2972086576262996,-1.1572137828342761,10.497042111075046,3.246619947375393,5.810034224806941,7.975398897808077
0.836,-1.2475126925065751,-0.6431425941513567,5.237440536980841,-2.6112047263361546,6.487175160355719,1.8091127674855443,6.864693246964521,8.570714723018568
0.84,-3.4666188998969574,-2.6185580448008636,4.1149211488840365,-2.464450545671639,4.450699266032956,2.6329692866760297,8.550874206515914,11.11555126681776
0.844,-4.463375172385895,-3.29705881670327,4.248607124019429,-0.8407412034886192,4.534634352055946,5.734858609694925,10.711291409299406,15.2726042441667
0.848,-4.444245063650442,-3.0316212415299333,5.123865859814828,1.2724634213811328,5.6944064300734,9.963398142962433,12.722183260658994,19.784179759905214
0.852,-4.1614258810905085,-2.651899292864414,5.73025745363401,2.6104884243243873,6.368428261813818,13.591570216525497,13.803546918962525,23.13172350038485
0.856,-4.3006139724205354,-2.8901729970172596,5.205437181020443,2.3907220773091353,5.443494139776959,15.241691713726937,13.475783140033968,24.377912170663194
0.86,-4.925268244993674,-3.8732420350773396,3.387448779338598,0.7846443216080274,2.938346539483149,14.609211250483668,11.871229141787865,23.678262326594563
0.864,-5.375352022776497,-5.006109081456685,0.9423630577160225,-1.1876665057270657,0.004776593365733106,12.556345277089122,9.685325224507608,22.127245657976005
0.868,-4.709791946829682,-5.34261790044755,-1.0235441680314636,-2.28154245973235,-1.7716178398015927,10.519178762602508,7.742576777890463,20.998973994052903
0.872,-2.4334754669118297,-4.229586607949784,-1.64723141880188,-1.8084017037580793,-1.3717551635132281,9.587311767747678,6.421020508455001,20.823530384858373
0.876,0.9613570983746058,-1.8344796981554055,-0.8679188975153522,-0.106752649145335,0.9541307913358708,9.805198830774316,5.298367493923649,20.885069966902336
0.88,4.038265647694232,0.7913159958825133,0.4865796312172961,1.5901503532836045,3.7188057816720175,10.136298108052415,3.298918295645592,19.52333917741089
0.884,5.090947753997625,2.2076813875862342,1.1648935144807808,1.8309645697989936,4.989179050108362,9.127188313400268,-0.6572162951445648,15.131895183173924
0.888,3.105381723645479,1.3839023632730232,0.2474111129162111,-0.2051657776074194,3.504496686010725,5.889465233639044,-6.840673936729388,7.320391443199526
0.892,-1.5239512484067177,-1.6131924300854905,-2.208727489615626,-4.146227825116853,-0.4826508603684374,0.8208787654792786,-14.189737597551755,-2.4505446453785
0.896,-6.980272373939556,-5.45555751099343,-5.0357908890663055,-8.472005947224659,-5.142192855630157,-4.383481962244787,-20.44943540320105,-11.212628019064425
0.9,-10.80072787264595,-8.080499413588655,-6.459651121981494,-11.170231530787703,-7.879680383784631,-7.478506404718587,-23.016605894273255,-15.72471606615511
0.904,-11.071332585401933,-7.668126637779096,-4.985198541237651,-10.671383522653741,-6.621023269210781,-6.789375500917458,-20.12693357759207,-13.996637412970927
0.908,-7.421066194924833,-3.5893916602974514,-0.21372059649729636,-6.603934150626742,-0.9109198716579385,-2.097175203843335,-11.795282218523425,-6.3072167651882864
0.912,-1.2677760266873292,3.191853363306393,6.856780489207949,0.00415593440561679,7.768426619666457,5.185722648780029,0.008680539362444506,4.846816829947784
0.916,4.820241633976025,10.485219515765039,14.206908844187069,7.161134407589316,16.62600886273333,12.642836119018739,12.066111572602267,15.866155679192161
0.92,8.335789660265505,15.830842276689282,19.656103361899795,12.755514898217484,22.80175098999848,17.954743229215865,21.196204631334467,23.645908665644583
0.924,7.992995728777885,17.575442207641572,21.781951011557908,15.411727728655478,24.585413483289585,19.89965355802883,25.519787400765154,26.837540606958783
0.928,4.238453832594757,15.518627343258117,20.42092718612139,14.959783894410975,21.995591564709343,18.754963107092067,25.07070181453537,26.148216962850483
0.932,-1.121872817403073,10.837251268183195,16.53946077872098,12.342007892255879,16.491391499532483,15.951291795209954,21.498091462971843,23.60120098038169
0.936,-5.927277858622347,5.3964922168191265,11.61339789855333,9.06458244445912,10.068181250413772,13.221496783426801,17.08535041719449,21.245015908658615
0.9400000000000001,-8.734472890332654,0.834916758579368,6.871163474473406,6.48770999595331,4.264889730079517,11.733966402463352,13.625160563539794,20.067302893794135
0.9440000000000001,-9.390711988578687,-2.0876344398026276,2.819941436894908,5.299033449520493,-0.38429496505602856,11.641598892570528,11.72664906554769,19.680173609559915
0.9480000000000001,-8.859741752948139,-3.5985036897728833,-0.7515744327113225,5.37286068072649,-4.240291180944553,12.214666396925168,10.84526741592083,18.8652340522101
0.9520000000000001,-8.456286785762813,-4.473041241372812,-4.339294212943173,6.033101668380027,-7.932921868414724,12.411406781002825,9.922493578930812,16.583282032734132
0.9560000000000001,-8.968247675416933,-5.353688995958578,-8.144843017022367,6.542112556696338,-11.653786405840151,11.522995227677711,8.210057860545703,12.793846156311929
0.96,-10.183616618185852,-6.2580780949175505,-11.711811306343293,6.535931807040583,-14.817045751654291,9.542216320222451,5.787301567752252,8.594457431880073
0.964,-11.07282329527834,-6.553394373738001,-14.019024080547524,6.1873474902274666,-16.286466933779593,7.097143888317532,3.4841147852014274,5.6238720306832874
0.968,-10.488671604990941,-5.386918856364446,-13.972805135234012,6.03629443218324,-15.016815889085706,5.047016540372169,2.318965986069088,5.1086081671362535
0.972,-7.927609762124803,-2.2881131250637736,-11.02231941542368,6.618814545850796,-10.70477793321868,4.018330144624542,2.8261438514991823,7.1340154029021505
0.976,-3.8999384444296084,2.4311467667511124,-5.557197654445417,8.12369789751665,-4.059092869831602,4.138149330477972,4.688838640022823,10.57172839441455
0.98,0.30110022412827675,7.704906571843935,1.137456411966923,10.266681417956079,3.4493821967587337,5.07507053330346,6.886117010168618,13.687150216801228
0.984,3.27174003841742,12.151536185604641,7.358417534767341,12.431783397068557,10.206544656678943,6.301140786828455,8.247617504959635,15.036904084382513
0.988,4.209168247249181,14.675564161229545,11.659825915720262,13.994010430305934,15.09862050685797,7.392287158010731,8.085851389679874,14.166914046241118
0.992,3.2490671153354924,14.905131740895513,13.386958706606492,14.620189355271577,17.843011901082036,8.181864651779051,6.5306704705371885,11.732190935055314
0.996,1.2758517570473487,13.270345582522623,12.832909080517652,14.384087140083011,18.891821117115,8.710812185101076,4.391954936425009,9.018326669679936
1.0,-0.6399940555929788,10.709973768531086,10.966785827484728,13.63932251870574,19.01359587880006,9.050411253177117,2.6550148512494616,7.177192960928778
1.004,-1.8446013874164464,8.178324445968656,8.88601052734009,12.737552371961101,18.81639742234165,9.142436916034058,1.9057840000559736,6.618591525180136
1.008,-2.3878587099407014,6.218808994254232,7.284573747276227,11.775628796935962,18.466310403944135,8.782051840003987,2.0200014871147687,6.879664535876373
1.012,-2.8594685810885494,4.818778397439246,6.2100863753189515,10.532904800731103,17.719865794159887,7.753468018955118,2.2925766516882504,6.999171298765077
1.016,-3.932618616023774,3.572836233207113,5.190673881031898,8.63253218709815,16.18960653639749,6.015755458765398,1.8887595387673173,6.126346428625311
1.02,-5.903654415631081,2.0246942928179124,3.6263684248897334,5.837615150484908,13.648059914470196,3.815109654472053,0.3531177545864921,4.009183578471493
1.024,-8.492638621012702,-0.005770665132104114,1.2189348625588536,2.303358734887297,10.205193111695507,1.630415757573246,-2.116058576489422,1.0972784706677885
1.028,-11.001941223771837,-2.2878975596026976,-1.7999860592244659,-1.3784956691029038,6.287514546823445,-0.02965457285154116,-4.773316136128642,-1.7583726582424788
1.032,-12.693454249208571,-4.277064240005075,-4.7514427584187615,-4.375020779895294,2.478718195386705,-0.8539220786333317,-6.727508447344007,-3.796687334492617
1.036,-13.1411678629172,-5.361910196286772,-6.838438091440821,-5.946892272700552,-0.6568043132231196,-0.854226378898602,-7.408099371857816,-4.738868492343499
1.04,-12.370358646392788,-5.1342397550633905,-7.5339532567113565,-5.754989094629991,-2.6924234463028824,-0.32058755989874044,-6.833804604623992,-4.879758724558997
1.044,-10.740485525403074,-3.549632648209581,-6.809488520250852,-3.9836627602708177,-3.3743770096373282,0.35900696884573335,-5.554890679037726,-4.857393058443904
1.048,-8.69706207829472,-0.9286734237634846,-5.099156684414083,-1.235259296981667,-2.622569525191693,0.9021248123690384,-4.3220394774516535,-5.255560664427321
1.052,-6.557859959816824,2.1900175834828133,-3.0209742372312576,1.7384856872165528,-0.540540238095673,1.2383123570793941,-3.6768976877965542,-6.275958645489027
1.056,-4.451702853922143,5.262767789591862,-1.0245820203936091,4.318739162674092,2.5638381566202497,1.4680157503867122,-3.6998248967584004,-7.651859331286687
1.06,-2.406543319319553,7.914334837415936,0.8213701440972727,6.181191302584239,6.173735260494141,1.705833254080062,-4.043627635275243,-8.837748169490624
1.064,-0.468971160559704,10.019684268897436,2.7961600272731175,7.306139591865303,9.637881224004104,1.9287122239575183,-4.207655680887456,-9.345627277580661
1.068,1.2265658932603856,11.648915212002066,5.251374829195129,7.853736920673327,12.31539244687724,1.9333158004578763,-3.8778042340918546,-9.036413761228232
1.072,2.4724043850653743,12.92240411318312,8.255844865276913,8.003060729236495,13.745255240557753,1.434228598062873,-3.13408208018609,-8.21066245534712
1.076,3.0635905377816925,13.880114427652643,11.395323286277062,7.8559878164460315,13.782461174257833,0.2476082787620726,-2.4060280166436314,-7.455640054678497
1.08,2.87352279532206,14.434694283694853,13.862934230603969,7.435721963209289,12.631693451367937,-1.5606909069269932,-2.207729089060649,-7.33631143039338
1.084,1.8860775446039497,14.438845893971575,14.807932096917284,6.757094650008639,10.757774728400591,-3.661929839519871,-2.808577420515576,-8.10019402155558
1.088,0.1914287922263611,13.819416803625018,13.763324357400506,5.902709123377917,8.70340990709201,-5.591770577385887,-4.041202494035133,-9.55080528160397
1.092,-2.019416825422468,12.693739885290825,10.924142030683015,5.0457163980418045,6.895722180309804,-6.946525066744016,-5.365455659155941,-11.14815327148608
1.096,-4.452914946845567,11.3807361107024,7.103275258195481,4.401530857061971,5.520609299877378,-7.53208732567191,-6.156904900950394,-12.282583498769782
1.1,-6.73665687026778,10.262741480965815,3.3651045194346807,4.126201850837333,4.489053362218328,-7.38787633236916,-6.058975265500067,-12.582178834642036
1.104,-8.491307194954743,9.56118392947974,0.5271991301501657,4.227143767076086,3.494801595145418,-6.690462850797758,-5.207679029347673,-12.101274156879299
1.108,-9.476974415627637,9.134809271233053,-1.2246298259376545,4.523613496196049,2.123162636723009,-5.620593977546832,-4.19050339321484,-11.291372753539235
1.112,-9.732896686207368,8.457627237678707,-2.38985786596254,4.698475247440911,-0.01077471739745306,-4.285561812188462,-3.7556798446057655,-10.775121171981937
1.116,-9.592312607279382,6.860137890682381,-3.806425701187436,4.444894685316285,-3.0913768414859533,-2.7389709518110976,-4.411692337968361,-11.030134561444811
1.12,-9.53264224634313,3.925132324513015,-6.106469302036203,3.6348568695771064,-6.954719236775645,-1.0741117582583684,-6.137027058047352,-12.14499014307603
1.124,-9.900687492603993,-0.15219830462228856,-9.260276277350613,2.4378940515653085,-11.019671489008033,0.48836454156207765,-8.352888261371845,-13.76269733654226
1.1280000000000001,-10.666360873633494,-4.4740746471425155,-12.470951320770155,1.311251726831415,-14.363296716946707,1.6117723237657628,-10.168467525884353,-15.229198439413267
1.1320000000000001,-11.355326431980757,-7.709442759437707,-14.486141070645317,0.844298422949123,-15.959193746842402,1.9708601625234223,-10.77067955606617,-15.880257763120426
1.1360000000000001,-11.254853488802837,-8.63354100379911,-14.17427957513928,1.501965665710486,-15.024428244598766,1.423698540949772,-9.772925633956675,-15.330935250312905
1.1400000000000001,-9.815102739442864,-6.705662869622756,-11.08616452869137,3.367481054297059,-11.363110497690968,0.12373315225340775,-7.353620210380086,-13.629691113530498
1.1440000000000001,-7.024769615331024,-2.38446086958038,-5.717928938223395,6.010623516966916,-5.556580607189289,-1.5200125376750293,-4.141627190764211,-11.237840029432846
1.1480000000000001,-3.526285387088592,2.990430814876163,0.6505923236227318,8.577914383540246,1.1144107159925625,-3.018945401615383,-0.9312140008064489,-8.835026545987603
1.1520000000000001,-0.37873227583077096,7.709887547480321,6.450367491542238,10.091260263663116,7.0209217215019635,-4.024968084106149,1.6179027017692533,-7.053656176805816
1.156,1.4295882983624324,10.378795659197749,10.424250966329055,9.84536174369623,10.716721740480352,-4.475337978382413,3.166530167140536,-6.256978264939789
1.16,1.4595429095834334,10.440933620750002,12.049004086971763,7.722655833505996,11.43155100250624,-4.573914087664889,3.719578967031339,-6.432419445319283
1.164,0.026751798136501748,8.324179224578074,11.632962542877976,4.285581114208526,9.342719262867377,-4.616558738011008,3.540111271066962,-7.209272699017674
1.168,-1.9663924848669012,5.165194603627697,10.086389477741704,0.5869238165805655,5.495364396130299,-4.769321309378938,3.023099700302737,-7.988970188021085
1.172,-3.477802592004082,2.2752807265524098,8.503245615591368,-2.2330440568539416,1.3920333974324421,-4.938564812122422,2.5814521884831265,-8.145751360445502
1.176,-3.826856638641857,0.6158921026099051,7.754738715188978,-3.3900478663540525,-1.5706709902078728,-4.8126166177016785,2.57482603599874,-7.223130212054457
1.18,-2.9751094011912755,0.512766406036917,8.23065556533993,-2.744004684939682,-2.6001024057704853,-4.056508222872253,3.2529923641523055,-5.081767324400971
1.184,-1.4681514960948334,1.6815658650893965,9.774025365146827,-0.8123063844764147,-1.7530982995208433,-2.552925611910723,4.6746846104988435,-1.9731536586150469
1.188,-0.11678477861823922,3.467110755215799,11.775703562379931,1.4732468994579904,0.14466346796507423,-0.5489536907352885,6.622980859593554,1.4913207208119275
1.192,0.40523964982594407,5.151461095446393,13.380787502198473,3.151789667051162,1.8689971489411619,1.3885399847895314,8.592267346998597,4.495389941323992
1.196,-0.15183212545116476,6.2024196001398195,13.759709219290471,3.5967685388541213,2.3119492835207893,2.6020314131737905,9.905981044683358,6.269424154838816
1.2,-1.5547331029260931,6.3885498252248,12.389932547418539,2.710967115348467,0.9254490720391004,2.646815612235514,9.95466698162545,6.348999924281998
1.204,-3.230114332714038,5.786398402977284,9.28187091720747,0.9069158895508735,-2.064601870873048,1.5231605291874075,8.468004227575875,4.753628902344644
1.208,-4.515033596824196,4.707145943519208,5.04397246897679,-1.1025058623699806,-5.766084850392872,-0.28724659374711337,5.684842122870577,1.9963648576022024
1.212,-4.907799668214466,3.581750351502251,0.7255274255558106,-2.602814335099538,-8.9936168958684,-2.0179467877023853,2.3139408576262213,-1.1069010173150673
1.216,-4.221203926039834,2.8438853102916255,-2.5317939814740384,-3.1279164182888053,-10.724521755321348,-2.9457114954157078,-0.7262792993260518,-3.744438931646073
1.22,-2.6221010145886794,2.8055801416599024,-3.9284344634284025,-2.587127163153127,-10.462985516775461,-2.689553119305856,-2.6824007954392073,-5.406665208195591
1.224,-0.5611040983362727,3.556065045347623,-3.330537295395061,-1.2394010570706087,-8.366410684604034,-1.3520030856034282,-3.2661989132511735,-6.038249698533946
1.228,1.3949419068421776,4.923942702319891,-1.3099850232570134,0.45935178538911714,-5.1064709272859545,0.5755984290708511,-2.7289131565939897,-5.969454520763975
1.232,2.7719907082973805,6.529519748992243,1.1414154846547717,2.052503877822346,-1.558829401199091,2.4737095513419263,-1.6789020105688905,-5.686041909092637
1.236,3.373225114856268,7.9280104025356195,3.097062617777283,3.2454635832245913,1.5307934485381338,3.894154867274665,-0.7406512052139078,-5.552714899267812
1.24,3.366660945739568,8.77880666259125,4.126580720677339,3.972107980326655,3.748203708629262,4.75186018444856,-0.23863615777827363,-5.630607740617052
1.244,3.191788461851502,8.952942632673512,4.437272062665215,4.337640690531771,5.011031356153126,5.293860836782187,-0.0771432636965983,-5.704627494039414
1.248,3.31096945265881,8.513713850569275,4.631765519844976,4.476008311377882,5.4049702463275935,5.8761804514724645,0.12681263588092406,-5.487964793949686
1.252,3.9276963908369,7.602537527966888,5.235344131528564,4.408723065349477,4.991492957972696,6.678884220015789,0.7454782536087805,-4.873702941287775
1.256,4.826289406601063,6.328534278790812,6.297321578907031,3.9985324896315433,3.7386037977930755,7.525116167354099,1.870339146027618,-4.065495176047989
1.26,5.442837580883861,4.733162379620808,7.310234714429043,3.0312138475856045,1.61101970465279,7.919441362797443,3.226760771073714,-3.490779562996977
1.264,5.162832283187527,2.879289053962111,7.528735631672134,1.3927362708473083,-1.234042763567686,7.317387247588158,4.329034625905479,-3.526801045502907
1.268,3.6659845291742386,0.9641700455067621,6.467837809649609,-0.7814009050707682,-4.324224148436315,5.467318939450706,4.7623198734518155,-4.204919581192371
1.272,1.1277468547359604,-0.6462727663915757,4.266395136936353,-3.083872563642217,-6.945309247756995,2.630948889267529,4.427216729066458,-5.084658335529639
1.276,-1.841874893621025,-1.5066736088424477,1.6858054870185697,-4.963770121476955,-8.39278856614601,-0.4365206037873577,3.606466710600216,-5.388059285267445
1.28,-4.507931590717817,-1.3071829861892184,-0.2951210565947804,-5.969845254462598,-8.30897476500877,-2.768287636738023,2.798548605023825,-4.3605652688893315
1.284,-6.366373546948125,-0.07948748488888668,-1.0482064311281647,-5.966754425840918,-6.9062103291967105,-3.607691974459158,2.4214167237059883,-1.6879298103795009
1.288,-7.346042334079357,1.728140752100444,-0.7012261374738955,-5.2055873553999845,-4.944012316120279,-2.753202823410902,2.5512945767677593,2.2524672332583577
1.292,-7.743439379307347,3.3845587127889303,-0.10422754296359926,-4.191141580248768,-3.4351196097290995,-0.6532348460186768,2.8604355101660985,6.464198404113631
1.296,-7.936713449221315,4.18615771938039,-0.35034976515817107,-3.3952967977893422,-3.1989153780418746,1.805529141860461,2.803239154854964,9.729624153405894
1.3,-8.088195801316942,3.7799585667635256,-2.127147558827346,-2.9867944446923502,-4.4879105597224225,3.713911236549393,1.950501760446059,11.15495828908206
1.304,-8.019658551364046,2.3473635614800514,-5.262287068275327,-2.7195366403675507,-6.865016065400141,4.558357977679407,0.2838262303612282,10.590028717560926
1.308,-7.355387584422715,0.5177506594509396,-8.75125139935244,-2.064713392277554,-9.408906071679667,4.419725260773703,-1.7265117301940336,8.708601125119458
1.312,-5.8244683645289115,-0.9391561269594604,-11.246962574080499,-0.5225490584725776,-11.133297912617763,3.8642670878962235,-3.3111200018729505,6.701946467648668
1.316,-3.5104276406536883,-1.4674544147273991,-11.732543898398035,2.0482178083548206,-11.409721231609637,3.612971360802476,-3.7713349498444586,5.726013595809491
1.32,-0.8912415408049128,-0.9631026644274243,-10.021947871214252,5.251079618378753,-10.206822216879118,4.148579596381751,-2.8402650863508825,6.373393118406966
1.324,1.3761661758417176,0.23004057078105689,-6.804545644346945,8.2422659297672,-8.035976694960482,5.454063371551456,-0.8424595415463045,8.42572353846299
1.328,2.7833776165207382,1.5307291038179756,-3.2492239726716434,10.042873164967205,-5.679606558903288,7.017755567803761,1.4480960890323331,11.00080951237942
1.332,3.202331770527053,2.4067762044978736,-0.4141633888384604,9.933986015443224,-3.8551541355463996,8.089941192150945,3.192117549124305,13.013571064040661
1.336,2.9089034653588897,2.6116217097023764,1.2278804275692892,7.7696420257589125,-2.955525838480753,8.055108342050517,3.9192187151238613,13.702899174746562
1.34,2.403349122905638,2.262362325509457,1.9042996461594157,4.065477992236993,-2.962135640857923,6.743002833600258,3.788823683436931,12.962142035385114
1.344,2.1701833189645185,1.766218658022808,2.3035046424138272,-0.15130448414311104,-3.5138714335780605,4.524198500514103,3.541106463311735,11.32315783796912
1.348,2.4992376174059245,1.6200173697116043,3.137123297970902,-3.6845907350698326,-4.091189429938822,2.1555491858180176,4.132331603210332,9.620086103175709
1.352,3.452454515530917,2.169415809254133,4.73478656631778,-5.577265819546483,-4.238306726711016,0.4415353141121159,6.220895771812138,8.523398503710268
1.356,4.952516773531897,3.4498293248680056,6.897418727064178,-5.416061959973376,-3.719002349168477,-0.1381773430530302,9.774391458340688,8.21266011766238
1.36,6.846323596542788,5.132583527369206,9.022344852625793,-3.4483085795400257,-2.5921542419364414,0.33470331278658705,13.983624188333124,8.352940979551931
1.364,8.903967204276341,6.619394767065387,10.417285121821806,-0.45431187284248153,-1.183680952683062,1.258967204412329,17.556000863460213,8.371256042084497
1.368,10.766286693184156,7.2427072064729145,10.621845183447476,2.564653458473913,0.015497812160901958,1.8103926968033193,19.253050132030694,7.848995730639217
1.372,11.92902774054528,6.506202812648553,9.583696653789957,4.7591248359331075,0.4947777754859999,1.3516735933535529,18.40961932425307,6.7901340739226725
1.3760000000000001,11.874839026220798,4.31122676144696,7.648952795369041,5.727816930511835,-0.10918973221123451,-0.22489632186443487,15.186153829408795,5.613090191327501
1.3800000000000001,10.324911982479534,1.057633075344711,5.388939102857876,5.607763374795468,-1.8919048982234017,-2.4156088012059627,10.443737270103156,4.866548442349085
1.3840000000000001,7.470240995895438,-2.4447161113566835,3.365997994062127,4.937587151707703,-4.642768950280697,-4.333537520393293,5.3335062617316,4.847017568208685
1.3880000000000001,4.012378741547764,-5.270041594198119,1.9021020215923272,4.341704760650828,-7.945788358218124,-5.167714803346826,0.7927719897052157,5.339552594450652
1.3920000000000001,0.9407869711158128,-6.75550539516189,0.9510492017152501,4.200363980015027,-11.36590713383157,-4.62059522313757,-2.7717568306907197,5.66165422490667
1.3960000000000001,-0.8770089639892831,-6.78140621971761,0.14287645384592906,4.481762459885431,-14.606739227730941,-3.099077462891728,-5.464273519050039,5.00625946279979
1.4000000000000001,-1.0794367147391313,-5.807981448251667,-1.00410693826052,4.821022329146217,-17.54944585778685,-1.5219618366427312,-7.599065925123796,2.9003729815103725
1.4040000000000001,0.0645282706591388,-4.610819476011784,-2.763521965020118,4.811604161262949,-20.12778166958742,-0.8080786517130036,-9.316379703377606,-0.46966426266590133
1.408,1.8473799114472058,-3.8631687590595902,-4.946938984166991,4.313497147308226,-22.13883873310806,-1.3424517563653353,-10.368566441848088,-4.262870189428213
1.412,3.5098254155072937,-3.7942494162107323,-6.869053346583314,3.5712224869585043,-23.137661325487898,-2.7342280332304654,-10.231477762681607,-7.351575706165022
1.416,4.612494793635051,-4.092428647664747,-7.568865515999278,3.0728261676977127,-22.507507620834986,-4.015789629556821,-8.466885044424998,-8.861599887264674
1.42,5.174837321954328,-4.121849706647481,-6.244921574563705,3.2235286788982194,-19.72626577021765,-4.190850509563461,-5.106145989397191,-8.58505564357074
1.424,5.526847910523429,-3.320330200729586,-2.6892588808286746,4.042297415671783,-14.69828289288671,-2.8301432562711852,-0.7972702361694246,-7.042765474259795
1.428,5.9879868695797995,-1.5599972728850844,2.5014409826781048,5.093292522282354,-7.971113024292208,-0.3649122417300532,3.4034961597826623,-5.16341544675015
1.432,6.599027262266645,0.7551788942564599,8.091647349392588,5.728692258900992,-0.6689581622395053,2.1276669099825085,6.5259374208253575,-3.7435255268228502
1.436,7.100728366803196,2.928154110268224,12.705059623454872,5.517727569978888,5.877206814036072,3.535908404926886,8.189209242846118,-2.987098699013586
1.44,7.1425174995920315,4.380522252667106,15.390638178761947,4.575219352986096,10.611095586856209,3.354981771139137,8.766269991834633,-2.41426611562747
1.444,6.579852248167299,5.000975571494564,15.98249438642597,3.565757094133005,13.116760876040644,1.9746581255312776,9.100393445187365,-1.2018794171126501
1.448,5.6200687905729865,5.174672612141876,15.027580453076553,3.320217710601355,13.63822895553858,0.4385580421985651,9.912993057951098,1.2146409234501334
1.452,4.709822531991449,5.469684926555601,13.336796234511894,4.27523965297587,12.755042071993557,-0.1743035802101076,11.237247255587135,4.630885502061574
1.456,4.242609758711296,6.198253456871498,11.456209312934334,6.088512121314125,10.935116828841274,0.6108196738587139,12.254677311268097,7.977629789680577
1.46,4.2708705981413,7.130883889856705,9.369113314674905,7.699306569633336,8.24548390021846,2.4166423950409808,11.694251303228157,9.761372341410606
1.464,4.437596340516393,7.58362402705734,6.635859556243304,7.868918027226755,4.430119148197264,4.30783967446223,8.618520934513072,8.847442100752232
1.468,4.190241720089034,6.8350184324999645,2.8571819523676822,5.910948206885223,-0.7098875159317686,5.3903692071708065,3.139166257706165,5.165566012630734
1.472,3.1393004588044278,4.62604805878982,-1.8470090802074992,2.1922550054077874,-6.8852501782184845,5.36083320083344,-3.3866528296457545,-0.06940511529501237
1.476,1.3264266212390794,1.421531495416275,-6.685835191613478,-1.9253451512940956,-13.153672501379333,4.633240508803283,-8.88628698462162,-4.81147468463314
1.48,-0.7908922787901247,-1.7710346262647363,-10.523504019940447,-4.735033826356812,-18.205322082352723,3.9452615518202947,-11.611525979140424,-7.142387296416928
1.484,-2.6315454967516416,-3.9293677380546796,-12.500056318534916,-5.0770898547671095,-20.970468807830912,3.743103416185477,-11.138573091750004,-6.262575022148667
1.488,-3.8751601137428224,-4.587452474500424,-12.559383014757259,-2.9821605432171054,-21.20626602833363,3.777748024851462,-8.736405417281276,-2.977810847662113
1.492,-4.684302997098712,-4.098457198199867,-11.536327161188638,0.3087071948539233,-19.686653977909373,3.2116498662326194,-6.827065377035979,0.6156563683252898
1.496,-5.56758589605306,-3.3721002210986626,-10.665340379550798,3.003764333225263,-17.79487194642752,1.2048962537301122,-7.71478154856959,2.1493211846318445
1.5,-6.972436168631248,-3.2528320811052254,-10.796245406691014,3.7333909647004475,-16.71706667123908,-2.3892581441177754,-12.246612013943377,0.22063589317622245
1.504,-8.853307542975017,-3.9029532681388446,-11.7845068522156,2.302143436116239,-16.686350946132734,-6.705195517759421,-19.138784604710963,-4.804217562472331
1.508,-10.50695246399846,-4.593739279942383,-12.457523452625537,-0.19726446660024521,-16.747622166452857,-10.176232719470136,-25.381393011291948,-10.864215930792852
1.512,-10.838533001005999,-4.075410216761156,-11.227963821815138,-1.9739326794424414,-15.231892851203156,-11.336363601119956,-27.584172085365935,-15.131095474574977
1.516,-8.929334173761163,-1.3130302253985064,-7.021400906074632,-1.4904322337552003,-10.707871468747726,-9.641270835221803,-23.614025744393075,-15.34603888887068
1.52,-4.614899928914383,3.8279030143021373,0.008777679464401444,1.7411020387789904,-2.8986413805941993,-5.794204384761542,-13.69227643978229,-10.89594683175892
1.524,1.273630592830159,10.363272370426785,8.407390369322457,6.933452402989133,6.965775227294216,-1.3617112112697214,-0.3936936092832184,-3.0894851792581903
1.528,7.159651015219424,16.569121794073,16.022696354042637,12.448595812908025,16.562691538784748,2.0907157002729946,12.44805625771005,5.485157385013736
1.532,11.36409023946544,20.755750773812906,20.958483806716686,16.60816791950674,23.456351003485906,3.8353206843166845,21.37639140840838,12.167514392080193
1.536,12.822305972344111,22.020159876416074,22.3728346029784,18.439045702112708,26.137315283378484,4.286688552787382,24.690195687813684,15.3754544542644
1.54,11.494949443989753,20.553222885568175,20.6964886024889,17.97027532345419,24.571611489855968,4.600345564926101,22.911911855841026,15.137141463084845
1.544,8.298573878837487,17.388510575579858,17.23368991260577,16.00208865667628,20.025510987020425,5.841986328934581,18.22457909863806,12.802778479377594
1.548,4.614169250186023,13.763366521348871,13.416774832578085,13.533938887931072,14.292627536382497,8.241531550309446,13.24813784368962,10.156524541496765
1.552,1.6367927658520784,10.483288281211571,10.154643260882949,11.208826399202735,8.786156735213808,10.992347660841915,9.820639722809574,8.461056462849228
1.556,-0.09420036872325,7.660785360560112,7.620232121858862,9.085262636062907,4.00022144606919,12.710377755305672,8.371574187811348,7.935158681135363
1.56,-0.7961794639941218,4.899480033685904,5.4791767000078835,6.782733858599386,-0.44401828966874746,12.256918832128576,8.088306266648942,7.873649879547884
1.564,-1.1668389485239459,1.761423263225879,3.3395263175771106,3.8647830110367067,-5.253724048984623,9.405657379189506,7.648768503418978,7.256770509193302
1.568,-1.922836989066127,-1.8107190012751744,1.1023943550517288,0.2105190858383139,-10.786126084200077,4.964328016001673,6.061779152536474,5.454674601416627
1.572,-3.4237072067426197,-5.389775676942008,-0.9920875165298639,-3.853431280944278,-16.65039010995224,0.3063445172374486,3.1595015655693715,2.5954957247122366
1.576,-5.5263654517566465,-8.280499300733936,-2.5675386980819894,-7.6817821470740455,-21.764768250615816,-3.358516739681363,-0.4207957519975025,-0.5614296332205413
1.58,-7.693864551933075,-9.881409807367163,-3.365777664577763,-10.595041140421017,-24.802200718761014,-5.528776308317902,-3.650078702146857,-3.1220996554584417
1.584,-9.248832395636782,-9.929697705259969,-3.342344292821508,-12.13607444470108,-24.746029984646157,-6.459895414795028,-5.62770184701003,-4.588522489677416
1.588,-9.642933574999915,-8.518713820680205,-2.576084571039246,-12.194382652316563,-21.297089605473957,-6.766221284218773,-5.940476000934723,-5.121923064289149
1.592,-8.660484708702825,-5.956208904047344,-1.1279064210366414,-10.996218452157336,-14.995953376507714,-6.903874984118374,-4.750251332141488,-5.417327550578193
1.596,-6.478200870255478,-2.5902159200986716,1.0013236851668808,-8.990994300661896,-7.048620419024701,-6.8800400048749,-2.6537480891574887,-6.291546819663381
1.6,-3.5984074432608395,1.2459343323225767,3.7425903048138025,-6.7131806214638345,1.0185781785476138,-6.353311369342009,-0.4405010280743227,-8.236926525686613
1.604,-0.6918036300785388,5.159434277187756,6.760544398284765,-4.66595403694555,7.736660488173584,-5.010647860788595,1.1396212256877334,-11.205996147553378
1.608,1.5993530625946732,8.601503669589874,9.368291587059502,-3.235962123661011,12.001055996932337,-2.918101949224365,1.5587368928609067,-14.707804052282881
1.612,2.857091354944714,10.897762039203371,10.685955737983022,-2.629233179737639,13.26949475116271,-0.5688634074904257,0.6250965618201008,-18.112618203093007
1.616,3.0340307832011604,11.468472703589214,10.020789162383153,-2.83455025351941,11.636676342039209,1.3992785035334236,-1.4750446888174338,-20.975489940919942
1.62,2.4682618613242084,10.126969927614482,7.261759334220187,-3.640539453856036,7.773232642823132,2.6046028563614527,-4.214745563760516,-23.164380078349495
1.624,1.7392698770090647,7.255525478627533,3.0236513959243894,-4.7201743914301915,2.7149906251197535,3.1485195342938823,-6.875577802289627,-24.75916438161221
1.6280000000000001,1.4183178174698696,3.6995753102064555,-1.5902415471591667,-5.765129172730667,-2.4705921663462505,3.486561052435718,-8.802914228383088,-25.835473820847255
1.6320000000000001,1.8038269301341643,0.39768400349930744,-5.498427076789085,-6.6069210852911056,-7.027096023078229,4.0311069734998455,-9.666235214735934,-26.29116729065572
1.6360000000000001,2.7809240747174044,-2.0421617998290458,-8.134560600175973,-7.250056796832723,-10.702146342035121,4.7668237549005426,-9.592877949657122,-25.839795416184643
1.6400000000000001,3.878529136241923,-3.576167386425368,-9.640784012692166,-7.802922387583749,-13.695628704710543,5.170557616089354,-9.078478014900611,-24.18114231348227
1.6440000000000001,4.502602937160191,-4.620061435070966,-10.655378501736777,-8.35713944478448,-16.386311161491903,4.518665428266104,-8.72240987848636,-21.256376288816682
1.6480000000000001,4.223356027207046,-5.683559474684444,-11.83142529937868,-8.901818981194083,-18.98136600131329,2.4021013674355345,-8.907731926856286,-17.41527108730952
1.6520000000000001,2.950218648351438,-6.992866925227645,-13.40263759611662,-9.348389455084543,-21.297652277646193,-0.883680533595907,-9.61666834404059,-13.381064313085517
1.6560000000000001,0.9206176030129427,-8.326058746544732,-15.039881571297883,-9.651349698666309,-22.802051329330425,-4.363601602923154,-10.487155967897706,-10.02417817611422
1.6600000000000001,-1.4581646624228597,-9.162957516492497,-16.067181656013418,-9.926627710643515,-22.890365555123026,-6.838147816193668,-11.066605819365577,-8.039108539989684
1.6640000000000001,-3.7961233603418805,-9.037878631410422,-15.88539613346984,-10.4583267502112,-21.243462484280826,-7.51457281297553,-11.12153402507829,-7.684605589220155
1.668,-5.820160630064493,-7.85014539256008,-14.320102601443068,-11.55055848262964,-18.04392869219464,-6.45112518552196,-10.799889097001142,-8.712184433017683
1.672,-7.333097645714588,-5.933249285842976,-11.695360617806728,-13.282458226416566,-13.935602958276831,-4.544277061773755,-10.553203968755042,-10.512805543476134
1.676,-8.118338909549493,-3.8581626350223814,-8.635608217575282,-15.326079526934336,-9.766433074338238,-3.0740701654503937,-10.873011060479257,-12.407777871856524
1.68,-7.89385365567432,-2.098207565272787,-5.738671039171095,-16.95803831873127,-6.25024356612812,-3.0591795533910044,-11.990889740351122,-13.923883226005273
1.684,-6.3883658910745,-0.7737094454996623,-3.3359167275066284,-17.294376304320394,-3.7233227947408523,-4.769704943377292,-13.714744084210906,-14.919678076876153
1.688,-3.5097980175632983,0.37453123415070877,-1.4552925040152331,-15.643233376806165,-2.096580984982211,-7.650608551215555,-15.483930735170361,-15.514307286688563
1.692,0.49109528093322297,1.7663459532841443,0.026573299464871525,-11.80849387195849,-1.0074075834645555,-10.65318196291264,-16.61655870382674,-15.877454309786117
1.696,5.018074166016959,3.6978740998411013,1.2162599410066832,-6.180319370327197,-0.03731731580774067,-12.76036330003626,-16.58562158739005,-16.01772481149601
1.7,9.313037576266652,6.163302171980831,2.1348752451976907,0.4168103848296596,1.1119136444294782,-13.420133297433495,-15.200421496027047,-15.692427142716042
1.704,12.731023444404855,8.86399002363396,2.7739534435422684,7.009121697939918,2.539170633044705,-12.704624267655163,-12.641601927725787,-14.500883745426108
1.708,14.949223114983397,11.361075838805846,3.186979295222045,12.73151740493995,4.139798670599703,-11.178196624528937,-9.354338584798825,-12.108247449163173
1.712,15.974692089141172,13.228069495478849,3.4836909939149336,16.935597220421187,5.615738750731907,-9.610084896903572,-5.903718557179673,-8.485155322377977
1.716,15.965922320332538,14.12115877900851,3.7181796887743985,19.171366114262128,6.510708090493608,-8.70416418001696,-2.844482766899091,-4.007783571647451
1.72,15.016345584945157,13.788384220564694,3.7644842183890432,19.150361408172103,6.313105701195127,-8.917024615198898,-0.5969681583792408,0.6461788635824632
1.724,13.064916738925604,12.095035562769226,3.3149946412904683,16.787689791692173,4.654124073991625,-10.35907503692215,0.6508155455412634,4.755677717659637
1.728,10.020120794917602,9.129651957358874,2.0730503261484046,12.339545770981204,1.563939466892407,-12.766747510217101,1.0135516180580453,7.840207603925592
1.732,6.002784914723634,5.327063051966434,0.028781752327631693,6.5132215525318315,-2.3640281988464267,-15.533913123448656,0.9028816442678362,9.806147993778723
1.736,1.5068485530118778,1.4798826519199793,-2.380677678331267,0.39628480569444946,-6.0548569235561445,-17.84608446621496,0.8931916684741736,10.87409843309797
1.74,-2.670895354496679,-1.4596698520426798,-4.380752244425821,-4.845208765487769,-8.320533463070205,-18.935124899875518,1.4590858748542814,11.346420173455044
1.744,-5.7334341224850505,-2.7546032033751544,-5.2274580997464,-8.392105079401517,-8.377093685798172,-18.397640179709924,2.6997326854416315,11.366789722756948
1.748,-7.245614630986893,-2.2558512857922324,-4.637910111624478,-10.084588993020589,-6.24709038794208,-16.42588830673776,4.1984591588716285,10.834211258319556
1.752,-7.321208339748409,-0.5394066073604336,-3.006700826906126,-10.419605815364775,-2.802786875412494,-13.795165503110184,5.137023535771732,9.527738741386202
1.756,-6.469594486939059,1.3510136798886379,-1.221762135303834,-10.169817366953794,0.6396006817376474,-11.543287659929774,4.669441047930377,7.3832086895963585
1.76,-5.182762578502661,2.466053576215927,-0.14790312741752132,-9.823722635490412,2.994817510275425,-10.441246500313355,2.3937360256277316,4.7438112822965195
1.764,-3.540780413080938,2.513706321688005,-0.08718752054664947,-9.198373837807594,3.9782089270447614,-10.542726991769086,-1.3443169158108503,2.3897271559853834
1.768,-1.1207019428538842,2.0712448086569566,-0.5722978472986142,-7.494070315666249,4.224465686101212,-11.102914544782834,-5.533536302827997,1.273437859117621
1.772,2.695568840372289,2.272905887840352,-0.6537318016435165,-3.811073188760929,4.856131976520373,-10.946418259052734,-8.956714890171497,2.07960171814193
1.776,8.183755729231052,4.124416139077766,0.48347236010704364,2.15424369156608,6.750335245828865,-9.124478136036487,-10.784308155718463,4.850429864665784
1.78,14.833754821936054,7.809309433866474,2.9296681202076797,9.644433413230217,9.919384256693775,-5.508890023393178,-10.989924249584874,8.900408043878997
1.784,21.327979891862924,12.415544057959778,5.87673014918073,16.926929666646174,13.396616007014018,-0.9649639065373776,-10.332771198372939,13.097524064402023
1.788,26.017606837915082,16.275493336294858,7.998537107352604,21.946746753939806,15.719468448407497,3.014000804423631,-9.890142534257393,16.37367053881644
1.792,27.65053551793244,17.744949422150967,8.172489982432126,23.23164528333291,15.735105309732717,5.048430377009936,-10.404942586621473,18.215345145647007
1.796,25.967350411134248,16.011256083985245,6.117758623385271,20.572622665924428,13.262703298089946,4.587276336369541,-11.816545079023854,18.860344784709014
1.8,21.846963023275748,11.507426142611621,2.5731732348604055,15.117291494208985,9.23268857200037,2.1811634813493583,-13.248436471827517,19.086003136457293
1.804,16.879572965731313,5.706884811944292,-1.0919886506380863,8.82007426796008,5.220515699194948,-0.8346877220174065,-13.476032037804544,19.711469052694156
1.808,12.632769714520691,0.4555269187039812,-3.5722669958604456,3.569570249354001,2.6704678461555886,-3.0411832501031313,-11.590914933283784,21.115380254437696
1.812,9.994505465296243,-2.8169046913435523,-4.232955983737156,0.4346231755334884,2.2359156464190164,-3.6322148948493123,-7.504827219541767,23.020015538517328
1.816,8.914503731468358,-3.6169097181391408,-3.292460812144782,-0.614797919683042,3.592522061757336,-2.7384137815352005,-2.016468216179419,24.646579060181466
1.82,8.645900937751321,-2.4131407932754882,-1.512191519596854,-0.4277717477580154,5.796744461808885,-1.2089692720892344,3.579565559855837,25.153817082597016
1.824,8.296282283620712,-0.24509626644248783,0.35560735715625924,-0.06978471601541969,7.917017663414299,-0.03617111275343632,8.093901689082486,24.08316613929128
1.828,7.352449976278876,1.8270492176134212,2.006278634771661,-0.24259754677586898,9.552361138798915,0.22140612815746863,10.928344122668932,21.56645945758646
1.832,5.9042297635078285,3.1359539830655194,3.6386706681478245,-1.0242513283428707,10.936638586567824,-0.3147273267750279,12.185301638501187,18.192683446512092
1.836,4.509170814761092,3.5468186100697494,5.655416757668718,-2.000266338693109,12.61575291403733,-1.0401614097463607,12.41782337468976,14.646680083824322
1.84,3.8134546642340865,3.3345700910085725,8.245989361063039,-2.617764113229896,14.952558957480505,-1.3358882423017349,12.220154931186698,11.367035944258532
1.844,4.179852225071954,2.9508387032110477,11.154888607788962,-2.5046348802452485,17.80383476627503,-0.989287474525554,11.92309740802557,8.429999438052619
1.848,5.524420299676422,2.8244166438926186,13.777124859544529,-1.5801877945805245,20.562452571881295,-0.2893914659107395,11.546105811368761,5.697200630558655
1.852,7.387104013283533,3.2289465880066928,15.48057167402294,0.03561191631524707,22.49807476670503,0.22328020574786933,10.97222083545239,3.1096780300867977
1.856,9.164205433448842,4.214449359126775,15.919409166256628,2.186704383513643,23.149104916854412,0.16757099586175173,10.15738764719572,0.8881933785050933
1.86,10.371079575886142,5.594850286744077,15.143338518072596,4.7764567581671145,22.515987604492693,-0.37719513910997193,9.207480366185337,-0.509762719131686
1.864,10.82495478166311,7.003093351447205,13.469675394682781,7.73877411891317,20.965879445191604,-0.8682209347571188,8.286829572485658,-0.6391800232959213
1.868,10.68496524062266,8.015206980389848,11.24393551085086,10.916967606492108,18.93502517021534,-0.6073008218045288,7.456372074462706,0.6305607583199162
1.872,10.341670748524848,8.310522681695147,8.675958208563316,13.96351383351066,16.642089785329517,0.8171214118465286,6.588695663780527,2.9691616032632737
1.8760000000000001,10.21312936745835,7.813034573442565,5.859853075919091,16.355677681476664,14.011621776347965,3.2339369232686295,5.4633498919774865,5.714356477128604
1.8800000000000001,10.529301633400792,6.727256727376698,2.920929041052659,17.525314029685433,10.842101435322547,5.903044875600244,4.003111524956694,8.206719748674004
1.8840000000000001,11.191104726370213,5.422480961999099,0.13016194046394958,17.043529024398595,7.088722052213143,7.8173909219913185,2.4568122423124805,10.120709045699186
1.8880000000000001,11.786247447371352,4.231809677565252,-2.1232743119599036,14.774931808320616,3.0796627933623313,8.138480271958542,1.3735832516222217,11.599929459229315
1.8920000000000001,11.767181836864438,3.2686048054283674,-3.511255993814302,10.927074795241424,-0.4956181729457967,6.547394681092555,1.35251208482714,13.102498647083848
1.8960000000000001,10.761023341769032,2.396913647312431,-3.970720707405235,6.002228336299595,-2.8267448688307013,3.3748193606788845,2.6861224318381574,15.048975281548337
1.9000000000000001,8.862602507532756,1.3962258747596934,-3.7486112108608722,0.6894142566052324,-3.310904373430276,-0.5384352773926366,5.109089106503234,17.490937720422153
1.9040000000000001,6.734866615222927,0.23421766887804552,-3.211843638830942,-4.248955212084184,-1.777302689321914,-4.155822729484498,7.8603477573924465,20.0112048497831
1.9080000000000001,5.409584976376209,-0.7447404180538797,-2.5376513686769613,-8.081383458649725,1.4925536794862637,-6.571182382438565,10.03737583797465,21.91027573278734
1.9120000000000001,5.831978490791698,-0.8943991806586382,-1.5227055406194268,-10.227473739524612,5.902330631035511,-7.274447750138279,11.02479180462251,22.5447867316052
1.9160000000000001,8.368767784564625,0.412001777835485,0.341135601726819,-10.35683372901076,10.759959236353552,-6.246201410658614,10.783043651898879,21.649747991614277
1.92,12.533620809354034,3.3766104265623653,3.5163656557379,-8.461166976606364,15.451384861261431,-3.8817569405691756,9.81621383358015,19.458287206893147
1.924,17.127186890156736,7.544647537383753,8.000918579350127,-4.876747552782945,19.511696464576744,-0.838473793655794,8.83502051807045,16.571289592695393
1.928,20.764144899315397,11.925258387607755,13.115077066686354,-0.21603466075430333,22.61904828331444,2.1752857301771655,8.332385249757863,13.686256470917215
1.932,22.52384314651954,15.428009543755252,17.669818073063198,4.778022023221638,24.574049586116416,4.608966741380755,8.331135689148141,11.350018374086176
1.936,22.367665034573292,17.374544679363225,20.457635188739914,9.396040976223048,25.30389055318028,6.210993674663769,8.431625831242854,9.845165867664946
1.94,21.10449725988292,17.803512139376835,20.81283838032141,13.1019223887306,24.896511414226552,7.065758948356233,8.127085342202918,9.236610470545202
1.944,19.91449453524001,17.38929169507128,18.93595369679406,15.6115477805306,23.62207646861316,7.514461853865214,7.17400171675763,9.501191427842969
1.948,19.687460862780426,17.015105187912923,15.793380089500715,16.89156700030162,21.88246513977674,7.988327251205192,5.7742673695893245,10.621271955036718
1.952,20.541750710929136,17.23727970191794,12.640668937609462,17.098402366767004,20.068993490864614,8.81224226474842,4.465063731107875,12.566891379047775
1.956,21.77328378749553,17.942236379276892,10.425259683278455,16.48177927868892,18.37820715491489,10.0486206048663,3.7859373411583874,15.199599607981327
1.96,22.240883743027098,18.385809215032623,9.374422234579015,15.268882344010308,16.680041367805643,11.447414987997035,3.9356577466205636,18.187849439123966
1.964,20.944038484415614,17.577683057512786,8.964414428463442,13.557868319283443,14.530510941902776,12.53220764472917,4.625886325947249,21.001597982185558
1.968,17.48238208207067,14.794281534546826,8.257348318677487,11.263518357250177,11.358862449688331,12.78050691836961,5.215141229897199,23.01218227312893
1.972,12.185047453387142,9.948279108384213,6.405034967081065,8.162023832454906,6.767909628479174,11.833141604666707,5.042250755684108,23.67967965515345
1.976,5.911253170602777,3.6621448229175257,3.0835888008764414,4.061503044740675,0.8420914616722257,9.659983700003977,3.7711062770085846,22.73430003570502
1.98,-0.29647517799867273,-2.9433967626237063,-1.3257260558561939,-0.9413456165339085,-5.6822570850467855,6.6219125369498215,1.5646898503237026,20.28329221542299
1.984,-5.50493733684425,-8.603092031646156,-5.846278861722567,-6.237996226748692,-11.489026150782593,3.406234678374858,-0.9726028276863872,16.820598730879283
1.988,-9.016037306964336,-12.244925304044045,-9.236344383441065,-10.681589944703774,-15.022991274775904,0.8417449771204701,-3.0347843051767995,13.122098444844596
1.992,-10.389152252216718,-13.235737464549402,-10.422829002110575,-12.873179562081532,-15.0268677387553,-0.3655161844617396,-3.9175813252759326,10.0424145521647
1.996,-9.460014089386277,-11.503771952391617,-8.887758504658905,-11.695148273513041,-11.069184165120078,0.10264156230914523,-3.248168133080071,8.265616452550603
2.0,-6.409000931782884,-7.530711946667907,-4.862164272008613,-6.854973812013668,-3.8133558913809793,2.0223753784912333,-1.0532756046068243,8.095310270662594
2.004,-1.8528508632034573,-2.2432895208680748,0.7081814159064379,0.8243209093880068,5.108576982365776,4.658439793755861,2.2971613886447813,9.335613478941923
2.008,3.193430231020102,3.213688187373009,6.44426627511848,9.584596135618085,13.621489178871343,6.992787167050665,6.216896705499494,11.328092308397572
2.012,7.570846571646143,7.805447121381803,11.000729023726308,17.36967344191089,19.94984904492685,8.086616771856825,10.058444221533136,13.170618436986842
2.016,10.382043347932267,10.936594763576522,13.549595920012962,22.63487838134506,23.249792604749928,7.451393306467253,13.259315766956206,14.04788531356644
2.02,11.34349198871223,12.620362305533035,14.051717197854032,24.916140174574593,23.813112941604686,5.248277133167903,15.433653882074395,13.531866743882347
2.024,10.867145857352625,13.378995945466158,13.183167532458356,24.8653752339078,22.748941197923614,2.2224990297363547,16.41083470403555,11.720320611415445
2.028,9.792827491478874,13.884503810172646,11.925978632673377,23.740008422915253,21.295005351752025,-0.6029830191009751,16.220799477751825,9.143237926497022
2.032,8.879422992606578,14.49629842061131,11.006109279780503,22.618270500618564,20.10436904992912,-2.3406783485479536,15.033811772856097,6.478630474230158
2.036,8.33385603288616,14.95114621083303,10.461448337804086,21.77563133755484,18.881407371363366,-2.580186094551209,13.085199624974848,4.229317618480309
2.04,7.682595755359671,14.438709388305142,9.605310724333322,20.58898611388304,16.586467011587047,-1.4962483273811813,10.630300507180891,2.5587422347425672
2.044,6.100529120069041,12.09483682410928,7.466606234715982,18.045039498288133,12.143177747802383,0.3218039363364369,7.975468112675117,1.39981434017227
2.048,2.998700149819342,7.652834356555104,3.473504623817007,13.543564859740854,5.264757721101432,2.202590983771188,5.549167212275734,0.7508273471476059
2.052,-1.4682841646167617,1.8674720646013157,-2.0127702863665036,7.506563302033555,-3.0772037624908535,3.7012120276513087,3.925097587923119,0.9334879991711205
2.056,-6.324134305300504,-3.612591551065634,-7.670766532509333,1.3924386608950954,-10.855618317849803,4.718359637832691,3.6957477932182883,2.5830709755782664
2.06,-10.200750125440663,-6.942077077525028,-11.784905304424683,-2.9447347880068264,-15.826456123417529,5.387219606365761,5.183749668150995,6.282576032738689
2.064,-12.05528448901623,-7.010884936535831,-13.11980319589793,-4.220913607073271,-16.594227979750485,5.816299492951657,8.117502640056955,12.00456876838416
2.068,-11.76576480247877,-4.103984847465199,-11.631431218643229,-2.485520072541476,-13.359252340844932,5.87242863980282,11.466713635669294,18.691853657380307
2.072,-10.23666585163528,0.10923995637131156,-8.58739118702897,0.7672746112793902,-7.933414378215502,5.1595945478457,13.61927883253611,24.302689860715873
2.076,-8.911707532487526,3.337706802441744,-5.950533079859497,3.265533208514171,-2.942344623844747,3.2369861104025404,12.955098992764306,26.463675607945333
2.08,-8.942644533473867,3.8222027999865986,-5.334706691933434,3.0913498409745443,-0.5906839824626786,-0.039124631126924214,8.608909011466949,23.51068541935274
2.084,-10.491726642202593,1.2618713192321138,-7.106781925526775,-0.31161978222462494,-1.6091643491740797,-4.257980701445831,1.0525726922987815,15.425063003066498
2.088,-12.557858533935814,-2.976262486707583,-10.131155014639262,-5.777298614088522,-4.9025814754204475,-8.446900630821347,-7.832051836147002,4.166203724912066
2.092,-13.462216344449644,-6.523532202643537,-12.347116822933458,-10.91732881379221,-8.104075172061584,-11.366576001118574,-15.334514369782937,-6.870422700133531
2.096,-11.762923062635537,-7.230353523966414,-11.892199445426058,-13.25269509793452,-8.777239943637142,-11.99763574640474,-18.960419489401374,-14.120080288428653
2.1,-7.110316216785577,-4.295081817792607,-8.151191585411652,-11.413757269002872,-5.6576705850536655,-9.980203616845301,-17.466944181008785,-15.28550542252924
2.104,-0.5661364864502048,1.3063727924454724,-2.1372803836693492,-5.808755833235409,0.6962749236297441,-5.791238352735945,-11.38942520318642,-10.284438504681475
2.108,5.793636921461712,7.305625408368314,3.999364503184779,1.5594006342362263,8.157867732962131,-0.5644984763243883,-2.7941064455426385,-1.2402423635821833
2.112,9.80177939245118,11.274913229290178,8.06426499849863,8.027657042322062,14.04888689141012,4.375895428485819,5.629561877583001,8.504903816885417
2.116,10.189294820322857,11.814582017711928,8.920556105075548,11.486511826005426,16.39756050018582,8.04355059701902,11.70674110137179,15.871787402413247
2.12,7.131526235518322,9.161722315892575,6.973907108716048,11.261366275030923,14.789651906816516,10.125789945902852,14.58104232154892,19.308542111795305
2.124,2.083450490215455,4.930407924916153,3.8025822977792814,8.254174983972007,10.417394814745194,10.982725362929159,14.814927253907626,19.255416596626674
2.128,-2.986013528091007,1.17392826612695,1.1759644157853018,4.327079689352104,5.3548852579433515,11.33366754233839,13.800856451753134,17.637116094816065
2.132,-6.552770455572272,-0.7110232318832459,0.03189570927793284,1.283900634827205,1.4681512166689572,11.800497587993505,12.857566179753121,16.700772420208068
2.136,-8.18431832933652,-0.6332029150134986,0.025182890010682968,-0.003548136072822672,-0.43844263466303346,12.550796927547708,12.531665033174704,17.82431715254097
2.14,-8.554671733352052,0.31453134777211744,-0.11586624304118232,0.11376366116064673,-0.8135585863487904,13.231149104587075,12.45578356547685,20.897547166229742
2.144,-8.854051110590262,0.6334577117909248,-1.6597127484787961,0.472352832488923,-0.8401575074155971,13.216764182327552,11.793287194645472,24.54886696259655
2.148,-9.961971094054206,-0.6234949589536427,-4.944750653503434,-0.06933061254540007,-1.5636343153234975,12.023669248605984,9.945686502882381,27.00845329520098
2.152,-11.865453942347585,-3.2696289866628376,-9.029828410704113,-1.8683941342142134,-3.1977575758089642,9.642821572714638,7.068037265203657,27.0853135966654
2.156,-13.661076175508242,-6.0970023179245345,-12.149910594737776,-4.2409726468670215,-5.0043289921820815,6.602229337529025,4.072996856080408,24.7117316544427
2.16,-14.128272038645036,-7.589297602074112,-12.708070440803112,-5.8471701651801595,-5.782968439183378,3.712603240561293,2.1201085310790404,20.816191109950523
2.164,-12.509086820596622,-6.797978898849124,-10.217147636165237,-5.479301512460097,-4.65360551666663,1.6431101371390469,1.9304902457167827,16.67908547349907
2.168,-9.039489491215818,-3.8780665069043607,-5.627216313505414,-2.7965673662533845,-1.6415320030621388,0.5706089312375298,3.3450873411536577,13.187411976626208
2.172,-4.928583683662055,-0.00832724044630595,-0.8536522950585095,1.4071067117743041,2.2734068543945796,0.1032086125146634,5.393106398480313,10.438902178062108
2.176,-1.7784813649909665,3.239602124398516,2.2295638604538226,5.55722183886337,5.667665170246551,-0.46800890134727524,6.8373179226957745,7.890696499511705
2.18,-0.761578607904994,4.717321419601944,2.7620899943459563,8.08349364917649,7.437257712120754,-1.7231542134741176,6.870950007307556,4.903995742880397
2.184,-2.0362935331831977,4.2328043485919125,1.275794309007665,8.194811418746212,7.356052547013519,-3.7325269960279,5.548070858475512,1.3045681533928928
2.188,-4.725450533698449,2.529111242885392,-0.7203191137673457,6.216151494607857,6.106811952362818,-5.968284080808189,3.6989078135866293,-2.41907982803923
2.192,-7.460200585385564,0.7574259551433897,-1.6890049432259957,3.3171412859724114,4.783682660572595,-7.569545470115372,2.389114407590341,-5.39849966764541
2.196,-9.163839228965912,-0.21502083520158521,-0.9859901686591002,0.8047894977869419,4.182899284779069,-7.822347689971593,2.253210619891888,-6.959170292369436
2.2,-9.602057080111535,-0.24003681043097913,0.7926827479755048,-0.5905044997966797,4.326629544234265,-6.576221276377055,3.113517506262042,-7.081002202935906
2.204,-9.408204827012014,0.15006362392318806,2.2117255431545573,-1.0392852192007922,4.489078080182708,-4.3574457164504565,4.107787825996866,-6.444791642730252
2.208,-9.601169865154588,0.19081611185060865,1.889940252345582,-1.3968448708064898,3.6898482832178843,-2.118397896107126,4.227855106679954,-6.032552216573549
2.212,-10.917371253631359,-0.5827799265631484,-0.6758759296366179,-2.616654400933612,1.3207908614226653,-0.7710342314564969,2.9299667163836602,-6.540850631797639
2.216,-13.367540991678766,-2.055150424501676,-4.825778592031838,-5.148423012092735,-2.4721994736046327,-0.7606221763699068,0.4562733493276028,-7.978384189074632
2.22,-16.253927693670107,-3.6488339336721083,-9.128563201504221,-8.664979584973935,-6.865487826887829,-1.9062174439345654,-2.31526230604004,-9.69853281756923
2.224,-18.62193759803654,-4.755525073100898,-12.19975607184142,-12.266287290829837,-10.834732755715436,-3.5867269733525973,-4.395665880242177,-10.85652061959513
2.228,-19.824868312409535,-5.166267111061757,-13.434813677888314,-14.998542519412013,-13.707257800662319,-5.131902536489861,-5.25060653277842,-10.989982090565036
2.232,-19.8415520752435,-5.216182123718681,-13.236810945181787,-16.357116877401495,-15.447076177753615,-6.180320173048585,-5.066556617268816,-10.349665414907577
2.236,-19.188076291190896,-5.555154092738576,-12.634262799097542,-16.479343536707802,-16.514240103781162,-6.800640491806462,-4.576082460100224,-9.754444177602863
2.24,-18.49865039959252,-6.676398931006361,-12.537056336795331,-15.927521394741689,-17.402671424309688,-7.3259964054616376,-4.5528723005497795,-10.042472396377207
2.244,-18.074755219705594,-8.518091273634354,-13.115786515670038,-15.238258072670533,-18.181813727494387,-8.037632437908087,-5.296808936599518,-11.464646910505735
2.248,-17.71092727051723,-10.412293717864259,-13.694132222068447,-14.551179677572804,-18.36272594425924,-8.9220313935773,-6.43894292647326,-13.427326669594095
2.2520000000000002,-16.886176631542412,-11.42565081087389,-13.200037420351123,-13.552097900711715,-17.183841159437236,-9.652431647768935,-7.170472421572413,-14.760316210133624
2.2560000000000002,-15.188329887954978,-10.899760454869522,-10.892348611304215,-11.765105327444985,-14.142813839126347,-9.801821738859303,-6.743123430134347,-14.371997381778101
2.2600000000000002,-12.654311196411754,-8.86032890718218,-6.908773087206498,-8.987593363055112,-9.435151569518666,-9.131406872210164,-4.937063695132451,-11.91240113490926
2.2640000000000002,-9.78764607298001,-6.032808220829679,-2.2869742460408133,-5.565019097810364,-4.0089485112841885,-7.755208118021756,-2.21366475590969,-8.046693693710381
2.2680000000000002,-7.252146601247887,-3.4555845689699254,1.5493043316788544,-2.3242406258787014,0.809758755052087,-6.078214437495035,0.519751347879037,-4.168326609341989
2.2720000000000002,-5.4487580058692515,-1.9205378306002103,3.5327632138516947,-0.18361496949955836,3.917222533895597,-4.553859748707168,2.3838064696130914,-1.6973870981150867
2.2760000000000002,-4.275957040698813,-1.5781621576269345,3.4858439037486733,0.3293121739154685,4.916471127103932,-3.4280130054630717,2.9457951697743283,-1.3652548372597266
2.2800000000000002,-3.2549855336025075,-1.9470286359278361,2.1311206576182258,-0.6579360802438714,4.2038852750131355,-2.645162850757629,2.3497082763574326,-2.8942092303777827
2.2840000000000003,-1.947988617610008,-2.315129304169375,0.5852504589342402,-2.476512300373429,2.6318569428489695,-1.9680948410808696,1.1179088864962523,-5.215488116327833
2.2880000000000003,-0.3757390356296355,-2.259760969399281,-0.3341390526232999,-4.3228170472430065,0.9810155498124686,-1.224528358203088,-0.2171792125581078,-7.068641808249822
2.2920000000000003,0.8680299035376606,-1.9444956381707925,-0.5666260601399244,-5.709667372577087,-0.4338987894195725,-0.47967358730102205,-1.3935469979160757,-7.629371912253191
2.2960000000000003,0.9174101700771757,-1.99536361503732,-0.7608919935019571,-6.682622158072206,-1.7921145423985365,-0.030556796849964485,-2.4594439774678563,-6.81107201193322
2.3000000000000003,-0.7935936749926213,-3.0129290354608997,-1.761897743938647,-7.659282451529691,-3.4349038904023246,-0.18104071255356757,-3.5715668457732477,-5.107980282803908
2.3040000000000003,-4.035559371530383,-5.030708716837125,-3.9627296264437746,-9.007027975320227,-5.417726113622422,-0.9508183865352748,-4.723845909419765,-3.1371516657828806
2.308,-7.696122155311286,-7.284956089116832,-6.927418894305106,-10.640939531930997,-7.264490012724366,-1.9290670475166962,-5.62823806292954,-1.2004244969372166
2.312,-10.20684626013184,-8.48677440378043,-9.53169587062115,-11.91402959701827,-8.111478780164703,-2.395267645965646,-5.829162813051482,0.8623086627006842
2.316,-10.297155836817296,-7.500251119897598,-10.561215758543824,-11.912094165854285,-7.190276075199591,-1.6849333973071907,-5.001803092205648,3.435680172283355
2.32,-7.672838963415472,-4.049266390254388,-9.40841197402483,-9.997818721888223,-4.351072700827132,0.40391309303583967,-3.2281824305850932,6.704010459284291
2.324,-3.2398836707950522,0.969177526061344,-6.456003915057636,-6.277974972519814,-0.2990233678452796,3.41271490220538,-1.046912641667518,10.338954245880018
2.328,1.2846586464779648,5.79710227781527,-2.905201215347347,-1.6835318204287546,3.647336337091872,6.379313180200825,0.7836520195666026,13.528936275538399
2.332,4.1838238172449564,8.633080875004168,-0.13245633204496698,2.414505692183752,6.183138224938602,8.287767336910065,1.690856068022299,15.359380732921522
2.336,4.548740033550018,8.538198893507058,1.052479068800153,4.859915089167998,6.687112187952039,8.58509349321264,1.613415373583507,15.316592903513992
2.34,2.6878150817377673,5.950102170399418,0.8201205480091289,5.2741394800171975,5.5593727120919425,7.4866411270210165,1.0427223211097498,13.58620030122131
2.344,-0.07076877381985014,2.5135092362654063,0.16934660356457698,4.20807194995507,4.027264601961349,5.898742879087536,0.7424158151964093,10.969602647619581
2.348,-2.0646084860112524,0.3033211073795883,0.31499213921495084,2.8013977189842763,3.5202659449420253,4.990053050031747,1.3119920252788688,8.46816492330754
2.352,-2.1031446793858777,0.8268634010012761,1.964641080210015,2.1376998686582738,4.934822694423417,5.625502842730384,2.8382549635836085,6.774979227868471
2.356,0.005040463217085289,4.307829627794149,4.900239849306047,2.6560001893114986,8.176949072171737,7.943653356422828,4.825584892192069,5.972758879583921
2.36,3.4381096946106595,9.607121581320882,8.10224865324642,3.9555469467809417,12.221480856186304,11.290374767757612,6.453677552633167,5.618430255358703
2.364,6.82090933276703,14.786772030848283,10.317152129841759,5.085925947899568,15.626822338610793,14.515578164528847,7.006652344071085,5.124931262177483
2.368,8.893078560718664,18.005113866436375,10.719030039696634,5.129654424234445,17.210136491146386,16.472207358021365,6.224425691947204,4.183024133107324
2.372,9.036650493804359,18.29390503763591,9.289371264338229,3.738997281506613,16.534522169697027,16.478403047350753,4.387179631150275,2.9703624467709915
2.376,7.423896598782619,15.85790641007901,6.724925855980928,1.3205887880495766,13.9867925538922,14.533589749735143,2.1171816614273666,2.0162524494180616
2.38,4.781561444128613,11.81933035393439,3.983724461022348,-1.2194896614157642,10.476492379188073,11.225344673869017,0.026089473064871527,1.8293584383611687
2.384,1.957924938850283,7.604475209393229,1.7686517053082866,-2.991496728871766,6.970755528634584,7.419364582608978,-1.5661633254053413,2.545947654575002
2.388,-0.45714981784249176,4.323369050675069,0.2756671120977785,-3.5863128488057328,4.138572083813244,3.9084486283010165,-2.668865511430681,3.8393506471644514
2.392,-2.2615194740239986,2.438763538186663,-0.6703031187685156,-3.2228842375662907,2.2634362415712985,1.1824139223803058,-3.4306081923077727,5.150013784010412
2.396,-3.507101710726033,1.81220250113455,-1.2413647636374208,-2.5189682241914397,1.3855442335721477,-0.616009565563445,-3.8660639998337274,6.070432027833931
2.4,-4.248297239586577,2.004627180700254,-1.2950640280408265,-2.0622295457718565,1.4981137738385542,-1.5941898638902785,-3.712780607953505,6.618193035624699
2.404,-4.359937039414831,2.6135168825030632,-0.370748464531232,-2.0531354493480194,2.631190213572154,-1.9611289840709105,-2.5383986587536356,7.218572227219738
2.408,-3.5616527382262575,3.4519599187960353,1.984459738892724,-2.228608228196549,4.767979178970677,-1.9132749603461434,-0.05021096747896081,8.39570620485597
2.412,-1.6427640022091055,4.50029743849916,5.768501684282228,-2.0993213708700296,7.672290434806882,-1.6109808483740835,3.5759532272045362,10.351936158818944
2.416,1.2815657671584404,5.742155197685975,10.2945125215075,-1.3123646550824333,10.803968225912456,-1.2065782250124357,7.583883500028037,12.729513046524971
2.42,4.642302666132537,7.022128420734248,14.367754763267044,0.08494162703345864,13.420638616878023,-0.8723575928715945,10.841231466730619,14.709038709371953
2.424,7.530829207877673,8.033084154648805,16.805824037572393,1.6441209244633228,14.841653193757963,-0.7853010378182717,12.29492236559372,15.395340142855048
2.428,9.054533435061444,8.462400084748651,17.026503579003133,2.784310350280407,14.74134707117446,-1.0562014934739636,11.462745282822539,14.282551323989537
2.432,8.757600123418115,8.190793009613571,15.350815700602993,3.1499587881196476,13.291455315866529,-1.6517482308224771,8.694748873921185,11.519639835473754
2.436,6.872576668394231,7.395984989506928,12.8088667536897,2.8267737068347287,11.052878029386875,-2.371183237856485,5.030219267215216,7.8248843454121015
2.44,4.272711801115975,6.5046380142119915,10.577419121716161,2.300847696048777,8.695944872998666,-2.8970851289047914,1.7318811851671398,4.134981492252109
2.444,2.1271662206835344,6.005111931859005,9.387375980750221,2.1906728363941284,6.716044228604687,-2.9129518971319612,-0.26209928295429563,1.2109975600355938
2.448,1.4145890243772783,6.217043395740006,9.244975409145013,2.907141320937285,5.304980362226502,-2.2391964617047506,-0.6970015761994546,-0.5880222012785907
2.452,2.517799671760372,7.125058101453192,9.60256289218512,4.433806549593783,4.415298938128899,-0.9211085437480051,-0.000996848273643991,-1.2735323838323893
2.456,5.071710932111614,8.355390741775864,9.837397386400198,6.3308544580285115,3.9344307746475806,0.7684644088596997,1.0425348681455944,-1.0300856992773788
2.46,8.105810718906127,9.297395412842775,9.696012267169635,7.925752184154817,3.811715167679381,2.41562855683037,1.747755816634026,-0.03938826035937382
2.464,10.40690678452404,9.306876866454786,9.386422142179754,8.575999696201961,4.025244305349929,3.606622896480303,1.828019436972454,1.5400534783614148
2.468,10.952533153624358,7.928560960307891,9.279460235557735,7.881912978238461,4.432054331311747,4.061985123817976,1.3992408297895054,3.4471259185077088
2.472,9.24844721977604,5.055675000972087,9.4510374753429,5.78445856220651,4.644678602688828,3.7131297437595094,0.7477354903644482,5.191320040104529
2.476,5.471676199901253,0.9841502381507325,9.418784992396013,2.5551704770282413,4.083783022940679,2.7000350914663613,0.03949526643282297,6.09293452222505
2.48,0.4035212847697949,-3.6443644687535652,8.312036757582177,-1.2730526585630741,2.2435902691296405,1.3036466505254793,-0.8177636946190887,5.53782226603289
2.484,-4.795398977607988,-7.994866866943653,5.427237151517829,-4.996900222690783,-0.9520316668115356,-0.1520762839343206,-2.0665423119653497,3.327849651667748
2.488,-8.89627251013701,-11.24466904414328,0.8368521026204689,-7.854903397375665,-4.92004586033238,-1.3911011957702613,-3.8271410958836896,-0.09738913829141893
2.492,-10.939877127204454,-12.802739614036682,-4.3729303672404285,-9.186389695214757,-8.514951048704688,-2.2482986313702895,-5.874732345550228,-3.7464936976305125
2.496,-10.51709193390559,-12.479607109062954,-8.468455235438341,-8.629694899979086,-10.476385834123448,-2.687052033320697,-7.656278919281931,-6.485477271729906
2.5,-7.905311460366875,-10.542794890258392,-9.884259411633025,-6.291610607097482,-10.019832820745023,-2.782172061348774,-8.566392886115409,-7.564567837478762
2.504,-4.005812753382315,-7.640126687254565,-8.05813417041611,-2.7936138768702676,-7.266901419535088,-2.6801830922597674,-8.321357175895855,-6.980249043363756
2.508,-0.04621561416888653,-4.588068289841658,-3.7807648959350217,0.8883357479646747,-3.250080016810216,-2.545339741274802,-7.184035256391553,-5.463314746001515
2.512,2.868515299509909,-2.102154143044686,1.1695869446972438,3.767110050939664,0.5395162582982493,-2.5135607838074066,-5.871513000334289,-4.0925279342066005
2.516,4.18649399379774,-0.5814820422066305,4.912725060980847,5.235711435333769,2.8410581195529403,-2.663016375871166,-5.179018743056076,-3.759505014981869
2.52,4.12782208157887,-0.024330059311978403,6.406730428825995,5.321219462389308,3.2075579563493193,-3.0031569910088365,-5.519970818910451,-4.767718455625982
2.524,3.565752007690321,-0.10877933964457043,5.907035875071756,4.659281124561403,2.172906498317957,-3.4805924179779595,-6.667651404563458,-6.758070446327338
2.528,3.572306928472017,-0.4119530461159684,4.680760281997436,4.156302450780004,0.9087781414557412,-4.006854811477297,-7.873226909749974,-8.973496346398633
2.532,4.847031574051243,-0.650380191203908,4.175745158500149,4.497083904782357,0.5699464685294515,-4.4905927529584915,-8.303163442617006,-10.668618678238772
2.536,7.337397851712922,-0.8090788680219703,5.139957597776515,5.756562755240793,1.6840886591281787,-4.854785087365599,-7.54391513360838,-11.42158441725087
2.54,10.242834168279046,-1.1098780434818991,7.2015643935303615,7.314367222029205,3.9024304014623112,-5.041944881653308,-5.864429896158072,-11.204797241104188
2.544,12.436313076708757,-1.8275850506172446,9.148165084091943,8.14447015268479,6.234118026524925,-5.011297141593786,-4.075483306553224,-10.23739051690086
2.548,13.075382400894114,-3.066486396981759,9.703304083304033,7.332369049475574,7.6062157696918575,-4.742170965757623,-3.0647834816036266,-8.782424451116412
2.552,12.047257702684647,-4.651973677397791,8.297270489861603,4.543718256747525,7.40940090877757,-4.26613088731483,-3.309919679594941,-7.058683439921197
2.556,9.98824893786923,-6.20611804239968,5.375813111019511,0.20924570417878385,5.741046173963696,-3.7078720486979364,-4.652109899330526,-5.291891637583376
2.56,7.870811311309353,-7.367829227538209,2.089651839698945,-4.664862967473255,3.2468184492522596,-3.2929352938731427,-6.443762472447133,-3.812402171548001
2.564,6.414903792596078,-8.02179152230849,-0.41999340455140555,-8.951265446730986,0.6924903476826785,-3.2964588672816717,-7.960417056955066,-3.0613598958630064
2.568,5.691195772280935,-8.372837038005855,-1.656211808027706,-11.858855791796032,-1.4303979768557156,-3.920444531403973,-8.798035413441085,-3.416612917693783
2.572,5.1594777969146435,-8.803623866590442,-1.943065662964841,-13.169719930488327,-3.043854153952907,-5.153988871368256,-9.024660367083015,-4.923625757819536
2.576,4.136316631790805,-9.571905924789007,-2.0535567688109495,-13.145564065961253,-4.306800958384542,-6.687840640097875,-9.00160484361436,-7.118768116011779
2.58,2.378319761847706,-10.53397904982603,-2.5499108792389507,-12.209427084700792,-5.275071951696987,-7.963378403559545,-9.016836663545973,-9.114119400153868
2.584,0.37136730539987184,-11.101015071420534,-3.296055443097657,-10.640594177704315,-5.672425247240085,-8.378001941361617,-9.010584538107423,-9.977991166507309
2.588,-0.8669071775336761,-10.485155767172955,-3.4712525650934367,-8.461943014259532,-4.94875659489594,-7.564668326859191,-8.589759369820968,-9.216592609312102
2.592,-0.39174982760914645,-8.137952442831875,-2.091852647457017,-5.577109980621572,-2.6220041125335456,-5.611433414058411,-7.314737948397351,-7.077329189246939
2.596,2.01657376761068,-4.135273427025595,1.2890688848888203,-2.0392494110137704,1.3101108786238456,-3.0849129492803513,-5.065038026236834,-4.4642625735486945
2.6,5.593307857565833,0.7442238687290228,6.1623184996699365,1.7713918450240271,6.180860995792614,-0.8141249043087555,-2.2088346186499166,-2.468657039902155
2.604,8.90752941791061,5.315204775349457,11.190545105911951,5.204733708243111,10.833684334329519,0.47482791462971363,0.5468932920532552,-1.7644239485330218
2.608,10.611652081483271,8.526266788194334,14.828026056387444,7.622795018703073,14.101222923397927,0.4986255350136162,2.530904573440921,-2.214689223816549
2.612,10.183878923784732,9.948764407067301,16.06847753758757,8.735567712294142,15.322662917527396,-0.44750505804495333,3.4737315589386526,-2.936255680441718
2.616,8.207261325280797,9.929136821479233,14.891568846516748,8.769398623700226,14.610403403500413,-1.6426952298565993,3.631145670420665,-2.795087942023656
2.62,6.011502242255347,9.306691923839026,12.163696291055885,8.329365024569597,12.707681423244821,-2.3065360135901756,3.5780304991221783,-1.057616737168246
2.624,4.884223646900637,8.861930224771413,9.087487923549816,8.02306694317599,10.5303303184362,-1.9876348347411295,3.821147399928577,2.1870097691426054
2.628,5.322177403870683,8.839782573315915,6.572325741011582,8.083572231662401,8.685970636058755,-0.7646916191247328,4.5118517884188805,6.10177091512287
2.632,6.769184404459111,8.833585826746912,4.88588643447838,8.228896200055487,7.248008125250863,0.8477527983968685,5.44062099751136,9.623590281786619
2.636,7.992301895300216,8.102509483208905,3.7478912020985717,7.858051623713891,5.894306793206852,2.2146745558411567,6.292945947690441,12.100477296322424
2.64,7.853978635332851,6.12465872638586,2.740110713774584,6.478760332902311,4.288416687878907,2.9322589867088027,6.96580515145024,13.64073071428129
2.644,5.99302912575331,3.0159656375390114,1.6955709094872873,4.09128135348783,2.4114539993172457,2.999989564349562,7.669080259366183,14.941662038608229
2.648,3.0061223172724567,-0.4592257844112737,0.7979024547410063,1.2789394710371198,0.613374848546755,2.727870774778239,8.700296434446045,16.693024857582714
2.652,0.024828617392358865,-3.3257221338903946,0.31616698602738325,-1.0866893007132603,-0.6789077582350274,2.442270427490712,10.004078110302544,18.90620784375551
2.656,-2.0319576028286974,-5.014691119993813,0.19102224674702484,-2.3614925648766985,-1.383709669346672,2.185565761779344,10.839679094842268,20.61623005028514
2.66,-3.0406111837694425,-5.7554054163547335,-0.18757605342830175,-2.5383355356821085,-1.9948341542508388,1.615824890674503,9.872631204121717,20.203383421709987
2.664,-3.7228373554416976,-6.465489475808681,-1.784290708942308,-2.279723207095685,-3.3980282601328327,0.18589760180657322,5.764540776760896,16.21724468366483
2.668,-5.1119425708150175,-8.163532049279638,-5.36148357867728,-2.517864303717033,-6.324107219822736,-2.4870220544753465,-1.9944396009072989,8.272968493812641
2.672,-7.761465745164287,-11.226162387977865,-10.859711701552214,-3.828721376377871,-10.732711313931532,-6.273471390668419,-12.458602742797666,-2.4676194037479036
2.676,-11.19648712089861,-14.945008661910379,-17.098605928425968,-5.945158675884159,-15.511688186636547,-10.412439455052663,-23.20625038391836,-13.525125653302894
2.68,-13.98212224603526,-17.703323562468768,-22.058774291978125,-7.735244884122949,-18.765109697655134,-13.72153578898633,-31.07359742320068,-21.985750369379275
2.684,-14.420051495412508,-17.736116022760598,-23.67148319885564,-7.713717872192774,-18.621543484250424,-15.058800274362056,-33.3618826178772,-25.627599406394893
2.688,-11.492455862924771,-14.079824148005855,-20.743895948359523,-4.837373112099158,-14.173625073221729,-13.813256011406338,-28.95577326186276,-23.754633265756183
2.692,-5.539410735964793,-7.220857669572979,-13.602857223104593,0.8156993084953683,-6.085556901641439,-10.188577457116025,-18.851862673908727,-17.39028907568627
2.696,1.7431558326441063,0.9467705587612727,-4.111901594343408,7.878742808376046,3.4942934549160327,-5.143415253252897,-5.8217635246260215,-8.780250215359501
2.7,7.984029414423276,7.851294317072188,4.952297617687918,14.14377089667596,11.702423676698572,-0.035897370507427695,6.625534102858637,-0.49103789539913123
2.704,11.155645196732166,11.304862263905079,10.898567045103164,17.426427538649477,16.070952043766283,3.8637752712661495,15.519056375382661,5.470511270302268
2.708,10.436258276584567,10.405213696861665,12.092476569079281,16.460769250536032,15.483229659477274,5.795819705522263,19.38371495783531,8.177778228928673
2.712,6.490170499378337,5.856128771914655,8.518625975597388,11.407709162218907,10.548860138281952,5.708083876161254,18.52171439295671,7.814544471829777
2.716,1.0783803061251547,-0.4017865382504624,1.7289551740925617,3.7719501260494326,3.2705890113797977,4.178238286389842,14.595980099843473,5.336401317397758
2.72,-3.7721019875780257,-6.044155343728107,-5.776105561975328,-4.201577827579513,-3.806695531753576,2.133140049805661,9.776048750998143,1.992538853275164
2.724,-6.605060594111592,-9.283361960416869,-11.470789432544734,-10.353218446360188,-8.561517971199919,0.4877411576394479,5.857708938660835,-1.0963100252624827
2.728,-6.999799576546138,-9.470821705760955,-13.693068400319135,-13.307909993509384,-9.973807405958041,-0.163624287093171,3.709114539298753,-3.1992476387285933
2.732,-5.50832093556096,-7.171145134648896,-12.175433797000778,-12.797424550241885,-8.287908068972456,0.2841971957136593,3.1918233007058916,-4.070679487016605
2.736,-3.1932125310811443,-3.7563541712584083,-8.039567633461274,-9.559626376325241,-4.68497213760611,1.450348138456775,3.4867075180363827,-3.9401322077128498
2.74,-1.0613621460631748,-0.7559084292627176,-3.271950861036885,-4.9372531638971395,-0.6752252103494811,2.6301286848151904,3.6139841765948404,-3.417435730636953
2.744,0.3390128987502976,0.7640139306590754,0.12290650255317814,-0.35878768143084017,2.522465707295396,3.07390602682608,2.923827549379439,-3.2892475367530096
2.748,0.99845606624217,0.5508872694758793,0.9426581145205546,3.0921341663674866,4.366964880190835,2.2899503622616066,1.3665774208720904,-4.234797381507633
2.7520000000000002,1.2570686347646642,-0.8561218922286571,-0.7643837739140054,4.911105981797391,5.039183055548392,0.26232589309847754,-0.5457773760977034,-6.536438921547415
2.7560000000000002,1.511307252751294,-2.458753748962181,-3.8162212361014554,5.192807401048185,5.185180770686429,-2.5054161380567166,-2.0355513606432396,-9.915347727030166
2.7600000000000002,1.9811254013018242,-3.2944111961660383,-6.53315652157562,4.4590334892739065,5.488384839646642,-5.163405856913869,-2.4753923351481717,-13.610313394579407
2.7640000000000002,2.6286629859016557,-2.8905224208892832,-7.5844111178496405,3.3668730937331475,6.261934680690729,-6.8571272057761234,-1.7409237590468365,-16.703554271228768
2.7680000000000002,3.213728296019326,-1.4887444867465547,-6.634998518459724,2.399300667716034,7.237272731860912,-7.0964989906374285,-0.3388302037919857,-18.55883913395928
2.7720000000000002,3.427687587447508,0.05791500960594931,-4.468651278352581,1.6593775029505196,7.649874845249315,-5.966538411657439,0.7721993574778026,-19.130115887146076
2.7760000000000002,3.028804632438778,0.6885995954364716,-2.5073066398724677,0.8564578726750369,6.607478049759038,-4.074920835496414,0.6223897151894562,-18.95349579001868
2.7800000000000002,1.9186968479061761,-0.35252419220614684,-2.0138475044668667,-0.513965757928645,3.557110406377433,-2.2607670165793934,-1.28442194339641,-18.815989085839647
2.7840000000000003,0.1619947649057849,-3.1320140173374966,-3.4109262150186623,-2.867168054409831,-1.3687263882472962,-1.1986652355226397,-4.6887455927353585,-19.288303164534682
2.7880000000000003,-2.052137591585506,-6.963908427706656,-6.0837994965909274,-6.253307386337838,-7.304103543505789,-1.111488898425705,-8.643096266329849,-20.38765721987511
2.7920000000000003,-4.4821135866047825,-10.722955801688386,-8.784180768624083,-10.256477723986336,-12.957494901296286,-1.742409358445002,-11.937321266527306,-21.583809784890946
2.7960000000000003,-6.900549325363954,-13.370217836384427,-10.373975094711113,-14.128491687068163,-17.13296084152512,-2.5914212052398398,-13.669669980483832,-22.1573670836151
2.8000000000000003,-9.15436526700114,-14.433481275018266,-10.479732461722051,-17.107126910745592,-19.21697154080789,-3.271016456516918,-13.674357748881903,-21.69104594061082
2.8040000000000003,-11.176457481210718,-14.175883394288348,-9.654635007997285,-18.74348205018464,-19.371155409577568,-3.7637672433697844,-12.571847764221275,-20.38377827100794
2.8080000000000003,-12.944649778769644,-13.37608685972782,-8.982938699657325,-19.071678079973935,-18.35113729605746,-4.426847325930794,-11.42652999480788,-19.00215484878936
2.8120000000000003,-14.404528035231351,-12.852554005118463,-9.381840852263622,-18.533209788513886,-17.061290312496794,-5.730842833379484,-11.20275951370104,-18.48111476653139
2.816,-15.404852678729867,-12.994891302951146,-11.019140720565247,-17.69761292117755,-16.089077900246366,-7.899586732877651,-12.306635780942088,-19.40206696652558
2.82,-15.708121083507422,-13.571101674892816,-13.20486936579141,-16.950229014086062,-15.480884694587303,-10.675796879063455,-14.455608171036147,-21.671678452916694
2.824,-15.098507124405842,-13.920656452209414,-14.825261189065031,-16.32965480184498,-14.865383086248698,-13.368525010088888,-16.9277483915655,-24.588836514320064
2.828,-13.548209535614205,-13.406646818379159,-15.042355732039823,-15.60203148263372,-13.818375213611034,-15.179390636771132,-19.001002871433457,-27.24779106034748
2.832,-11.339323821574226,-11.837746147541793,-13.811634669165414,-14.498127455976373,-12.214254044874906,-15.614878635415153,-20.303737842571536,-29.000558101929528
2.836,-9.034478316134482,-9.596648315369293,-11.893514862547818,-12.947408106618013,-10.334750466829064,-14.74693640336045,-20.88250558341042,-29.697880600697772
2.84,-7.273346059788764,-7.412943769516232,-10.37487414405632,-11.159240276022501,-8.680707390892621,-13.1694840281275,-20.983333578186375,-29.57596108957523
2.844,-6.476404547570553,-5.924891967095164,-9.985033537778975,-9.503929570064315,-7.621344066164397,-11.67229129821817,-20.73423994846962,-28.899956453587606
2.848,-6.610409578221265,-5.3095421043704505,-10.644249200352249,-8.287707226434463,-7.135348268969722,-10.82002429368572,-19.988507939065244,-27.649443832446764
2.852,-7.179145379373722,-5.213521161045037,-11.526908089267522,-7.577637760907237,-6.827469172373867,-10.685842199068247,-18.436831978845476,-25.478832690783747
2.856,-7.4752178285548325,-5.021535573693313,-11.593408393616414,-7.203360025692291,-6.225398807888951,-10.893532208613578,-15.930159495410635,-22.028375181051388
2.86,-6.982990211369042,-4.292826428639273,-10.271382329558605,-6.9350851761514605,-5.162861733777049,-10.932005257175888,-12.780809492907338,-17.380617350431976
2.864,-5.714571499043814,-3.086749504805084,-7.864017537485211,-6.708342396280159,-3.980906165112515,-10.536915443818543,-9.80028445338803,-12.331419463712791
2.868,-4.279436884230336,-1.9780532752242834,-5.444614225571058,-6.734649941621001,-3.3991301813654218,-9.898889928264225,-8.006067501738244,-8.234750846368115
2.872,-3.5900230513033193,-1.726769786776572,-4.278593189844173,-7.386012921732799,-4.091291121157155,-9.553952536497263,-8.11521815665128,-6.420065425080338
2.876,-4.357864665480747,-2.8137490316269123,-5.117962053658857,-8.920043839141044,-6.2268342587892676,-10.024000176790878,-10.1216699801314,-7.499831863068721
2.88,-6.666088759849458,-5.13453386714923,-7.784466145530018,-11.223069601561974,-9.275183246289771,-11.427964801829148,-13.232515744233524,-10.974973712086694
2.884,-9.85398478114655,-8.019551461030119,-11.261789472354394,-13.738617007262519,-12.204569496063073,-13.298270655790475,-16.209671109725377,-15.392276959368928
2.888,-12.825051587269854,-10.58313394649474,-14.240842744447036,-15.673493635608793,-13.99250064518958,-14.748787557572768,-17.95972738975388,-19.027096859980475
2.892,-14.616774087283716,-12.193346819750559,-15.795675966365934,-16.382841983156368,-14.156552128613384,-14.924662847443415,-18.05941697356684,-20.734623448367756
2.896,-14.902297954097321,-12.780275870589662,-15.813750673036793,-15.712616688023218,-12.992651515954549,-13.472420736282174,-16.92373290593241,-20.49544835638926
2.9,-14.128160065927204,-12.801956372253699,-14.950619103922918,-14.085473383876888,-11.373379895716312,-10.772981151544627,-15.527569811232752,-19.337121613712952
2.904,-13.217293332611689,-12.908933902848048,-14.16876955355292,-12.278758316551603,-10.234614178757965,-7.792006994342955,-14.852047146372115,-18.686340433230043
2.908,-13.003487998194828,-13.523747768020257,-14.160199864820015,-11.012767968486969,-10.059231457320948,-5.616449493802293,-15.367151046660638,-19.514481538446944
2.912,-13.729907170340425,-14.59601727217023,-14.99617415945022,-10.58740896578729,-10.668117209267848,-4.9117702984676725,-16.843502094003725,-21.775581919972183
2.916,-14.915989500969658,-15.673010160062859,-16.174666448208427,-10.779526365020956,-11.429545032600913,-5.602249383127628,-18.555515973417187,-24.46125382217906
2.92,-15.671742643481593,-16.23617750497681,-17.022810730297465,-11.05174120160791,-11.745741707573416,-6.947557325235948,-19.750959656391615,-26.217572726018943
2.924,-15.244299908021276,-16.06732328052931,-17.17672159430822,-10.923383743856789,-11.496210511288496,-7.965128960212496,-20.100443023128264,-26.16105447587438
2.928,-13.48484553880337,-15.406460026882769,-16.819776250485347,-10.269378068028232,-11.131384501010416,-7.957685965724977,-19.830036295621312,-24.387390153056913
2.932,-10.955786252712642,-14.789217826623144,-16.52921693290841,-9.361779993609957,-11.341423749534215,-6.8575151278762405,-19.471466230707847,-21.864530695057056
2.936,-8.583331536761762,-14.646330226738996,-16.82146584860675,-8.625060061881072,-12.501196833442464,-5.219509818306278,-19.397138203935356,-19.805636950628923
2.94,-7.11696092851389,-14.942781748206357,-17.69796887942266,-8.299415276920854,-14.26014314102656,-3.882170404757062,-19.462031983103657,-18.915671544997394
2.944,-6.736087245170097,-15.101434955936043,-18.493078124380645,-8.249021369946263,-15.564439009020418,-3.495194085534422,-18.999940851762517,-18.97736914475422
2.948,-7.011115933479687,-14.276638273300705,-18.14648924402752,-8.042177985779972,-15.143220483600203,-4.184597735652005,-17.202329496329753,-19.030723127805686
2.952,-7.2091524773233004,-11.839504209344682,-15.77334083812491,-7.253850057333693,-12.20559992930606,-5.516829708549039,-13.677317894225098,-18.029217527731134
2.956,-6.734410075864275,-7.792297227746303,-11.207385608853997,-5.779103994072898,-6.947060470274835,-6.759434273626539,-8.854568205150713,-15.54820860543623
2.96,-5.421167874025286,-2.870725940682803,-5.214281626690536,-3.942391160166949,-0.5724997739305877,-7.277690457132621,-3.9686605980717786,-12.109697400194591
2.964,-3.5022395634333634,1.7572733807020313,0.7883672121695895,-2.298097155609298,5.2153793613008474,-6.831153861411394,-0.549014624195479,-8.905857733082257
2.968,-1.3387288108946223,5.027739818310124,5.361683327961828,-1.2528342609316496,8.987844033969054,-5.627190752998786,0.3288600969277695,-7.088608922976277
2.972,0.843719347415913,6.440297734546391,7.675996091765569,-0.7718245958434409,10.195710874286192,-4.128063026668201,-1.3753202559196325,-7.063624464324448
2.976,3.0142570021419033,6.197269461836356,7.806347934977339,-0.3845621503522807,9.29065501977857,-2.7691568148225087,-4.587458384103229,-8.232701516467955
2.98,5.147907661327167,4.962163691937519,6.541021861549041,0.4777204256877212,7.322085339504383,-1.7706312466643794,-7.632280208838097,-9.344264348204888
2.984,6.964577872983568,3.41594561786917,4.851819117905961,2.0241670795260234,5.2899817540752,-1.132181840737303,-9.062271947921545,-9.223768118034968
2.988,7.850209766944317,1.8985724446130234,3.3686106766754733,3.839496067607115,3.6477917801831836,-0.7850799370714867,-8.363998077309702,-7.451127356284815
2.992,7.080322412811256,0.33412195250838295,2.147968223452324,5.002247508200298,2.211326940853496,-0.7663502421230532,-6.180721534008853,-4.590232788253502
2.996,4.275336866912994,-1.5296429810500172,0.8494613425373245,4.574468993249184,0.4959953860678752,-1.2505498048434447,-3.914214970425519,-1.822355923434543
