Timestamp,O1,Oz,O2,PO3,PO4,TP7,TP8,Fz
0.0,-2.3376856006507296e-12,-1.7195134205394424e-12,-1.3642420526593924e-12,-9.237055564881302e-13,-1.4779288903810084e-12,1.5916157281026244e-12,-1.6484591469634324e-12,-6.366462912410498e-12
0.004,-11.987118215019521,-26.941738880691027,-19.389159228966804,-9.530366234099077,-25.343489812196857,-13.976714127201902,-14.451413345864665,-19.350760433780934
0.008,-20.549875188469315,-46.61416419901007,-33.82908563668311,-16.475085563694094,-44.33283953704791,-24.113694049515374,-25.35141209002306,-33.67982160914187
0.012,-23.961376273922312,-54.9856150511084,-40.59077235225735,-19.520093944276354,-53.40881684850144,-28.251557133849857,-30.685532275739504,-40.19242537543343
0.016,-22.94931960361398,-52.84983741762514,-40.26197268877319,-19.193477295632988,-53.183809368236055,-26.73574843177819,-30.74061163243647,-39.40915516818913
0.02,-20.107294861109878,-45.01692392137565,-36.20313998228272,-17.443720191528115,-47.758937002172004,-21.993819205846265,-27.744815313238192,-34.59982288825283
0.024,-18.33870076785245,-37.61294641074013,-32.69529618662136,-16.497974467532337,-42.41638037032271,-17.15463376554368,-24.6221222521,-29.9496782948856
0.028,-19.26337528511428,-35.026812377494814,-32.8254015252139,-17.686266427594447,-41.01015660949337,-14.511102673270585,-23.571855688610313,-28.50909238847693
0.032,-22.481240357907915,-38.11459530681155,-37.21246095134373,-20.888540376192772,-44.428000182172056,-14.633853288084126,-25.211374287532465,-31.01434941994698
0.036000000000000004,-26.070850100805565,-44.4653438577415,-44.14156890451757,-24.86282137680481,-50.796606805396685,-16.51925740883688,-28.649131633766558,-36.085862585195
0.04,-27.9394644566662,-50.31847707667508,-50.85581303818338,-28.16237416096274,-57.070867175431744,-18.539076119704873,-32.3008011547491,-41.474547737601526
0.044,-27.12598273780791,-52.8118136373253,-55.11223074343908,-29.99723373477842,-60.86983163901483,-19.511215685857593,-34.853483403900015,-45.459692464289006
0.048,-24.29190450539783,-51.30674093210769,-56.14936506660272,-30.54079472384109,-61.520207618505424,-19.259350883347892,-35.82604400583641,-47.57886241201264
0.052000000000000005,-21.216538011081433,-47.24551429663042,-54.66482245573128,-30.5888265570658,-59.88430082077814,-18.439171162549812,-35.50572441684709,-48.40826105149287
0.056,-19.6551215306936,-42.89091797337589,-51.999884440307056,-30.861808704850006,-57.311381484465045,-17.86978876432005,-34.45245925593792,-48.737400664075324
0.06,-20.302503654935514,-39.906537320501016,-49.208005232237916,-31.47445644124067,-54.57380062691293,-17.886756180526973,-32.9967228347614,-48.8118263493877
0.064,-22.470193823917192,-38.59611181452314,-46.5730433966463,-31.906847488390596,-51.46895757072223,-18.152902182935847,-31.081283436891262,-48.18581226164095
0.068,-24.586119543013943,-38.120749809697145,-43.79112999853349,-31.445600651566863,-47.26900452418347,-17.99349461784051,-28.504905619354894,-46.229120694720606
0.07200000000000001,-25.151277727920494,-37.37522668947392,-40.575201763353334,-29.760148977087006,-41.61873931930971,-16.971860650747956,-25.34369365674838,-42.87726144599216
0.076,-23.570908395464873,-35.841269030333436,-37.17550715787844,-27.208959497878205,-35.19895405669004,-15.298415130731172,-22.202114646579325,-39.05682024755766
0.08,-20.398449425018434,-33.87467553369523,-34.43561453503137,-24.668894580840167,-29.66959349351299,-13.777121357419205,-20.062751004407268,-36.41903313069998
0.084,-16.888323371002976,-32.27417596046836,-33.28969954529815,-22.98025822136337,-26.841755296271817,-13.31276258551361,-19.785002246118033,-36.47645649199835
0.088,-14.2057019788542,-31.555459094564544,-34.08044089467623,-22.395241534256876,-27.61842050247643,-14.314550092722158,-21.575521417715883,-39.67030418793871
0.092,-12.814285313777145,-31.513826559008518,-36.205366010794805,-22.413233073509623,-31.399368412987194,-16.400356661426116,-24.783376674490448,-44.96533810822646
0.096,-12.357207087835967,-31.375502885008753,-38.36520581963531,-22.105128773263857,-36.33616368755814,-18.59521798003069,-28.17366083243453,-50.258277985599975
0.1,-12.048286821586665,-30.42227560833909,-39.30366467176674,-20.7353326363365,-40.306026149375164,-19.89852762270234,-30.54480856130626,-53.385431960952126
0.10400000000000001,-11.253136048177094,-28.575509596812946,-38.53853761798874,-18.26369864466833,-41.97748687192863,-19.841984018028214,-31.31483687958403,-53.143861006971164
0.108,-9.872367662748644,-26.532679056409624,-36.638417567819495,-15.411290870536085,-41.38000714538854,-18.692161319779622,-30.745313356861935,-49.7745771632649
0.112,-8.349147242264603,-25.380667234389435,-34.87440500260155,-13.26699714506379,-39.70829538478641,-17.217091054522562,-29.70554654261258,-44.699359716417035
0.116,-7.349096132307928,-25.95184451786673,-34.45932179901405,-12.67712338410842,-38.53447230474468,-16.189150517837874,-29.141834228964015,-39.721203045269355
0.12,-7.3512965262647825,-28.34655255863042,-35.84237943306343,-13.783291563407396,-38.920754084105255,-15.940236600701837,-29.57333885892016,-36.15558629747567
0.124,-8.35845571052095,-31.84106484973426,-38.432793249452146,-15.938399956128805,-40.87042996089717,-16.223829574980314,-30.88001355143963,-34.32877619194361
0.128,-9.881234155596314,-35.23292787096393,-40.92382505670175,-18.03742345617936,-43.3932154947245,-16.436678465914554,-32.462967083105795,-33.64243837907665
0.132,-11.198045177636512,-37.42257290589197,-42.025753849975004,-19.06897408698405,-45.09883258917097,-16.038217152160087,-33.64040258785062,-33.08913214192822
0.136,-11.715413348062174,-37.8889705913688,-41.1717232124275,-18.573709291369,-44.94567575094381,-14.902812573387799,-34.030031239873686,-31.887714117166908
0.14,-11.261328823703089,-36.85036996387846,-38.81851551890832,-16.80286250969565,-42.75413582575047,-13.398591214359001,-33.703937864323365,-29.88281268174115
0.14400000000000002,-10.146133318117496,-35.03246599891227,-36.14284719535004,-14.508665342836885,-39.20238160271901,-12.153435446844405,-33.03853467457272,-27.53061539171952
0.148,-8.997399499423981,-33.2613971843613,-34.36610468426184,-12.537992401041272,-35.404235184644804,-11.675717036136703,-32.4051711710737,-25.5644506472698
0.152,-8.49183626757241,-32.13669564436987,-34.111183507481044,-11.471538189644313,-32.36076398580333,-12.087411558400959,-31.917985264303113,-24.584069406505208
0.156,-9.089706375163022,-31.90679067066262,-35.13377711917599,-11.458071212405834,-30.57614592408474,-13.109191908832294,-31.388803177716735,-24.79887935284443
0.16,-10.883931748676975,-32.53076638178602,-36.55379560747536,-12.286747663027157,-29.999348063984748,-14.277074931520175,-30.503550533220974,-26.020907529889804
0.164,-13.580665884038556,-33.75513030830915,-37.38750260066727,-13.583933264559356,-30.208084373943393,-15.225164644669952,-29.082168125325527,-27.835087258173232
0.168,-16.59094626889422,-35.143407331228914,-37.061678073110116,-14.996672961722435,-30.690179404831078,-15.848061072182276,-27.250476182836536,-29.816580479850636
0.17200000000000001,-19.23176801093501,-36.12027697701063,-35.65642145953627,-16.293375196937898,-31.08453784551366,-16.27831476703237,-25.43280854815109,-31.70171679309228
0.176,-20.963774907366798,-36.10380512620399,-33.790884130576174,-17.369715456036193,-31.297983414298216,-16.728736764088126,-24.18132053164946,-33.456961738535036
0.18,-21.598048615474198,-34.75283028659624,-32.26300871531998,-18.2191740482597,-31.49610673414159,-17.31328969691593,-23.93840518429897,-35.23697504517331
0.184,-21.355573884984558,-32.174004521178915,-31.633743621976095,-18.880294646766732,-31.963031394966055,-17.955136612485205,-24.84394160065474,-37.25474098578
0.188,-20.755674867197097,-28.979545946737986,-31.99668426710791,-19.410210662243934,-32.94722262942015,-18.4353801661467,-26.685390480694657,-39.631444780950716
0.192,-20.408748754029887,-26.137574601268632,-33.040224929961305,-19.897415526425103,-34.58381627781256,-18.54221779550683,-29.000081105269725,-42.29597190694562
0.196,-20.775648638791736,-24.616934499403982,-34.315454954219994,-20.46432603738538,-36.88513179485632,-18.213109487546248,-31.25820131550869,-44.965656410043096
0.2,-21.980518301120803,-24.97446390804604,-35.53632097067325,-21.234101048554447,-39.76936242623738,-17.574134362404926,-33.033113121175646,-47.21295462209497
0.20400000000000001,-23.744030163191994,-27.041375049529364,-36.71356771617465,-22.253013024034708,-43.04521280038269,-16.842663654197242,-34.08442839715342,-48.58375193861285
0.20800000000000002,-25.468587903885748,-29.912773837731947,-38.08346633107041,-23.420258996608197,-46.37729521646779,-16.164210265591795,-34.34960812526222,-48.737344917750924
0.212,-26.466950703087015,-32.30586230127562,-39.902874464714984,-24.48324669706187,-49.29847926103523,-15.511861923153518,-33.90715445576308,-47.57358617074196
0.216,-26.271861295156867,-33.15104264104992,-42.24456056272123,-25.132855559756088,-51.31628456333842,-14.724889457802128,-32.950369460940806,-45.302559323342905
0.22,-24.885224213517127,-32.13169136534755,-44.9019436147142,-25.161930774834047,-52.08997105216455,-13.662375566309915,-31.758927098902838,-42.409975123626865
0.224,-22.79833585083403,-29.819314139686806,-47.38742755463255,-24.568796209743514,-51.53486193514444,-12.348061146486593,-30.622411630720634,-39.48620141437752
0.228,-20.800335699383588,-27.366239952388383,-49.02923199595063,-23.57289420959258,-49.819206156825125,-11.026302867650433,-29.724988109415897,-37.004279695180834
0.232,-19.63506605941464,-25.917505459358487,-49.1421681370836,-22.515182441856233,-47.25115344865441,-10.08346240973163,-29.03161135905424,-35.15464538170899
0.23600000000000002,-19.64131870543035,-26.000995379651833,-47.21041198265678,-21.674810449337745,-44.081380583434445,-9.851672903830309,-28.235852846798508,-33.80996668585797
0.24,-20.561931835239278,-27.239415871034467,-43.06977229847753,-21.108983401121066,-40.36662639533569,-10.414648366270356,-26.841307040958426,-32.65512938513704
0.244,-21.66857356163179,-28.570382627516356,-37.05889237354194,-20.624836303675266,-36.01855820691513,-11.551708597754708,-24.408710627887928,-31.440005955192397
0.248,-22.133589080921418,-28.836930498271233,-30.055962779464213,-19.897289667968536,-31.02136157281066,-12.833483034974762,-20.86999399705594,-30.197125614005998
0.252,-21.441749270337542,-27.404139536123747,-23.311112886747992,-18.660587202434932,-25.670447282018173,-13.809479761309287,-16.71852967338417,-29.281430027599075
0.256,-19.64604489528467,-24.488849754433915,-18.08735819448591,-16.874999768718787,-20.669524897398908,-14.20246009242027,-12.939425001626672,-29.192695711813716
0.26,-17.32571083939717,-21.06341418036081,-15.243350884530287,-14.78522659760931,-17.005713744648126,-14.011205230390761,-10.668326248991486,-30.26529864088588
0.264,-15.263121410080645,-18.383507839080238,-14.923502392032471,-12.838240258984262,-15.602045487000199,-13.484281779268368,-10.700472505881978,-32.39602342466601
0.268,-14.008161020319061,-17.370540846495615,-16.509910319692487,-11.49672541823737,-16.88364725188372,-12.98460329103192,-13.075164469652492,-34.9479929379542
0.272,-13.573725020826338,-18.15274096705373,-18.87719487832772,-11.044856596772712,-20.46980067169177,-12.806518208828164,-16.952833828802845,-36.89726371184411
0.276,-13.455561537476775,-20.008866480313575,-20.857660316488932,-11.48722592306708,-25.19237471676558,-13.045514337830657,-20.88603319711526,-37.18724243891042
0.28,-12.987438717159874,-21.783503376208216,-21.74478713764174,-12.599973523282063,-29.52783508233,-13.577943558650393,-23.409124393571563,-35.153563530880405
0.28400000000000003,-11.80797683526606,-22.521757390153915,-21.55916008076389,-14.075652277550315,-32.23634580110864,-14.134385699610778,-23.666380260312003,-30.815697408503738
0.28800000000000003,-10.13819896147647,-21.962220638220646,-20.94725567102686,-15.657464574127301,-32.88049075901988,-14.401691610846951,-21.769413269873912,-24.882651697866823
0.292,-8.680889118498504,-20.60441988968837,-20.755705943368106,-17.17793426132408,-31.940438673603698,-14.104094026458215,-18.700904911799384,-18.463580279638204
0.296,-8.182313571757756,-19.33157442940563,-21.51208271692046,-18.49781094260221,-30.473821159608118,-13.058140236592939,-15.817949377976689,-12.636463438033134
0.3,-8.94621717731972,-18.873362043246292,-23.138549982126744,-19.441236832382213,-29.550889920029167,-11.221886304573387,-14.220745513297611,-8.10417069216859
0.304,-10.622146428616944,-19.41967935305989,-25.03547062453169,-19.806814393808008,-29.75942491704169,-8.753795031038587,-14.29840336840796,-5.094408401106216
0.308,-12.393933881240127,-20.57099228021992,-26.445332114482586,-19.461984417053657,-31.001135012793927,-6.042386707330213,-15.640686927260479,-3.486011975854413
0.312,-13.46121764293879,-21.617573946606836,-26.860691645536754,-18.466478540852698,-32.62830957097616,-3.6530619157359023,-17.322660444386553,-3.0324322769708996
0.316,-13.499045861974068,-21.95100820553335,-26.21160147273193,-17.114984602564434,-33.78510469636451,-2.163313825339605,-18.370837484071952,-3.526351332459136
0.32,-12.818254249043687,-21.397610933820147,-24.76941928479193,-15.844796290151475,-33.77510491100776,-1.9502054710679904,-18.17153996956353,-4.81953075600635
0.324,-12.116574687368669,-20.283886774717704,-22.873583462058853,-15.03314034946168,-32.278786456209204,-3.018962630395018,-16.649009081156038,-6.730792436236904
0.328,-11.967594812216966,-19.20003007890756,-20.683144857460796,-14.786837195712415,-29.354967298764883,-4.956205481561703,-14.179785845695163,-8.94506777497455
0.332,-12.393839248060424,-18.610202666233878,-18.126718340900787,-14.859338103900058,-25.29668127278532,-7.052663858940408,-11.344828305932396,-11.009416545010968
0.336,-12.801239481537436,-18.540129370987238,-15.073623270656359,-14.758260410455499,-20.482903523130943,-8.564887012667864,-8.687995245221405,-12.469455045032985
0.34,-12.375960140895366,-18.578238853533968,-11.626438571984457,-14.024051555607162,-15.363291401935063,-9.007338282323648,-6.612096749692256,-13.094847902320039
0.34400000000000003,-10.696451930690317,-18.179695814373098,-8.30589963007704,-12.520301028820867,-10.539176949783409,-8.330996827120371,-5.403727950849293,-13.055405294885816
0.34800000000000003,-8.154710930453447,-17.05890365772032,-5.947523677416144,-10.561020814174874,-6.79320651706278,-6.900377961108093,-5.283623326151513,-12.896735717534469
0.352,-5.856749469782307,-15.400615816394293,-5.316029061224952,-8.768721023850993,-4.937005801180732,-5.277728343469496,-6.384612490956933,-13.288363185801344
0.356,-5.012837670730839,-13.761049054519878,-6.662728944799123,-7.728312774399122,-5.4953475075064535,-3.9312643221485715,-8.63908257024238,-14.663952241681233
0.36,-6.215833215473595,-12.775205304868056,-9.528519994127896,-7.679031237010096,-8.4269877533225,-3.0474716925143044,-11.673328934297066,-16.97750298697589
0.364,-9.013995777735515,-12.822701506569953,-12.914238593817071,-8.40692272820122,-13.047741901993934,-2.5404503704739554,-14.824421160369624,-19.72483706553429
0.368,-12.06473863733732,-13.833655862273684,-15.736908043079417,-9.404519160372157,-18.232121642807606,-2.2109131342098745,-17.317601626637135,-22.205176810273507
0.372,-13.824333532957796,-15.330869442435118,-17.312870484381342,-10.209643304628575,-22.811080675950677,-1.9313172712259792,-18.551028697691684,-23.87799514184504
0.376,-13.386333265294102,-16.668688523106823,-17.599819653999422,-10.704791856136659,-25.977641586348557,-1.742128774397891,-18.35240691544217,-24.611393892466946
0.38,-10.998233190420965,-17.361413559870478,-17.099756192854038,-11.194071233071156,-27.528801207433652,-1.804761357663739,-17.052735512273387,-24.684698109345376
0.384,-7.955613584071708,-17.31644134261748,-16.497835207354054,-12.19309188456806,-27.829411760642294,-2.2559084704652497,-15.317492496426254,-24.55700516174788
0.388,-5.896569916284868,-16.830655598695444,-16.255026432916537,-14.031190850979376,-27.520047721290606,-3.0602223062947678,-13.806334472600344,-24.533722089880342
0.392,-5.907403720321426,-16.368236207005687,-16.381136172161774,-16.51875707429747,-27.13034557076021,-3.959736881374974,-12.834945804679624,-24.53069596906498
0.396,-7.9594159832979035,-16.2580788743065,-16.500806819234946,-18.909850392361847,-26.812314565639745,-4.577370781780763,-12.240354120847709,-24.098833581029382
0.4,-10.987138566684315,-16.520740342930317,-16.173513505677775,-20.228603307105253,-26.351552119466625,-4.634817748769726,-11.53648821058221,-22.718799726421473
0.404,-13.533973797883242,-16.903293102429632,-15.236926127479508,-19.79549569915831,-25.40426921011185,-4.146034926866853,-10.2732567711264,-20.197066302381867
0.40800000000000003,-14.57505789664314,-17.068066007761466,-13.942170793629165,-17.656830687482483,-23.77641302317602,-3.4653835654151584,-8.374891512557328,-16.91661740383126
0.41200000000000003,-14.010741092621942,-16.777637271755808,-12.797665474303516,-14.644842384536265,-21.556316528352884,-3.138372295111844,-6.2389001530861234,-13.765099487053323
0.41600000000000004,-12.548431268913081,-15.962992427112198,-12.221199102161831,-11.992477562230397,-19.031034667444377,-3.6187892323961885,-4.524058244318748,-11.748730156009804
0.42,-11.121670196853406,-14.693512080046073,-12.24236201321229,-10.710180078908037,-16.494640614612806,-5.019068937190372,-3.758371193788556,-11.506348030996495
0.424,-10.226989040290063,-13.08315089385947,-12.438103247781097,-11.052499522752033,-14.091272145013445,-7.02237356311711,-4.002467892051458,-12.987809248331043
0.428,-9.602093507247409,-11.220822449929223,-12.156725978965008,-12.382018447995186,-11.806580839413748,-9.0013430012939,-4.7856077327239435,-15.470548668569014
0.432,-8.445116084976078,-9.167331503122622,-10.892499192688488,-13.51287378260798,-9.592676232179233,-10.285789754658191,-5.365252667254246,-17.905986950024825
0.436,-6.021709030679023,-7.004336838965605,-8.5951576069213,-13.349058231248923,-7.524490958883247,-10.440111055012775,-5.1645628573936015,-19.41018378368958
0.44,-2.2655031089336983,-4.9185256665047845,-5.764708994516802,-11.488191261710142,-5.8956061753289735,-9.420924651454245,-4.141264183331521,-19.651512033617482
0.444,2.009501991797549,-3.241680591560086,-3.2737115241691495,-8.460559272907151,-5.171177795081367,-7.55636177423659,-2.8623098080158265,-18.942262317491025
0.448,5.43910130203532,-2.3883342118274316,-2.0097162333857943,-5.474778724178968,-5.80858793490233,-5.371862657192219,-2.22016188441261,-17.98710620184596
0.452,6.817434630248629,-2.679004982447185,-2.4849645075044453,-3.7947581002246578,-8.013283317674972,-3.346568149520749,-2.9228116710164684,-17.419170677733625
0.456,5.786990879130524,-4.133090169826352,-4.608523326798463,-4.0839195169924665,-11.570982816616734,-1.7246811114263352,-5.060342159385338,-17.395270979370423
0.46,3.065920226277864,-6.399534546007574,-7.742725094401587,-6.093139416632188,-15.884288946903345,-0.4873256019958969,-8.004670349326016,-17.487692699343732
0.464,0.0838317715221577,-8.870018799373614,-10.991735893428046,-8.845425952178513,-20.185075156920576,0.5168543387678035,-10.700391207255851,-16.931739309372983
0.468,-1.7546951689362453,-10.914256583719915,-13.57293770742692,-11.191519546966443,-23.807863038511833,1.3915329156437855,-12.188069756515155,-15.079702584066936
0.47200000000000003,-1.7551012204663952,-12.108223850997627,-15.088716268604932,-12.403425895332434,-26.37391442982701,2.0760623013227053,-12.053717536699311,-11.796764006781189
0.47600000000000003,-0.18907466103702575,-12.339257145517607,-15.580410719917204,-12.481699388336772,-27.802997865262903,2.3623141382809685,-10.560960964084966,-7.589456236630171
0.48,1.964006314513937,-11.79564845394713,-15.401583053900964,-12.045701809123445,-28.220295766892395,2.0371808864592786,-8.422663660350976,-3.3962336479722834
0.484,3.5848625168123456,-10.861390816424105,-14.985513970160858,-11.90467535544804,-27.83142678426635,1.044415895074218,-6.371583547105528,-0.16926543094376445
0.488,3.9812597054762158,-9.945166123751683,-14.612970341586017,-12.559394614850895,-26.817268084375314,-0.4276984919070541,-4.781033468317465,1.5388331840600857
0.492,3.161760369016026,-9.313361439768318,-14.288132141329612,-13.916208849673746,-25.283586113019386,-1.9854565397752313,-3.552733150270371,1.7816364084796055
0.496,1.7110465936831751,-8.978885278947567,-13.747184929746767,-15.35236098932754,-23.253349047656904,-3.1946023560622807,-2.2936417263797244,1.1207424989472452
0.5,0.41650813597774805,-8.702405990681568,-12.60774464584646,-16.062496055621747,-20.707741598051772,-3.7765001267544047,-0.6575054952129058,0.2914418864873771
0.504,-0.12122062415209123,-8.107758684984146,-10.59670799924585,-15.476970722062926,-17.66269586584873,-3.736965963462742,1.3587540549771724,-0.18503157340187815
0.508,0.3001532157358069,-6.863717637708684,-7.753635834220929,-13.52704776876936,-14.26052075202764,-3.350145043543493,3.3460122506864742,-0.23397136004028374
0.512,1.5248645553356042,-4.837507545262141,-4.485501096282235,-10.627946054219052,-10.814317175416134,-2.9956309015727483,4.685812027155659,-0.1819090738909308
0.516,3.233832491745516,-2.1627803729841752,-1.44124835326922,-7.419383940340637,-7.767902186745317,-2.936165685669698,4.887203069702263,-0.471555356377229
0.52,5.099787176864483,0.758163978050475,0.7188852481737058,-4.467795708135281,-5.601398696856946,-3.179223061219073,3.842901367301162,-1.3361940302686848
0.524,6.854393146511892,3.353017461584791,1.5738072122162485,-2.072579389557424,-4.68052261496513,-3.49888283426524,1.8836474617363275,-2.622655737263983
0.528,8.295496676063419,5.068952177164515,1.1117356098882443,-0.24109764829039992,-5.084863509522814,-3.593334091311161,-0.37925088033674825,-3.8465611514421862
0.532,9.290280008094305,5.58761595355452,-0.2656755612600419,1.1975530337279814,-6.503584435811009,-3.28259903603541,-2.3133679019586264,-4.4418551269841515
0.536,9.842219802458315,4.984559665810539,-1.9038266054456208,2.456208066841845,-8.279120868769708,-2.6212546400448216,-3.4849661642952174,-4.054979228868753
0.54,10.140225536754908,3.7028099004253017,-3.1851378639217374,3.686769313958623,-9.665097473392574,-1.863119673984449,-3.7665904318760237,-2.7316343850970037
0.544,10.495440319126446,2.3355663207325934,-3.815957597613506,4.9392274656293145,-10.197003357844892,-1.3123281420048156,-3.31432981040013,-0.9024001852105217
0.548,11.150465638545434,1.3243924173437769,-3.9502648823447313,6.174751199567428,-9.967497457202862,-1.1460901099556873,-2.461045892551074,0.8384282836687955
0.552,12.039421064340502,0.732815330601361,-4.08318886226811,7.285605431708522,-9.625679761806095,-1.30378486790105,-1.5857195091620193,2.038059162768252
0.556,12.67422943142775,0.24161591367557378,-4.754949087289086,8.118505123108378,-10.036449505925583,-1.521702779167919,-0.9916492160802921,2.613575403198867
0.56,12.262403008356465,-0.6639011986395351,-6.238632177714666,8.483650137528969,-11.78191907466805,-1.4992967645686317,-0.8346554169686762,2.8635865994683734
0.5640000000000001,10.068448485049105,-2.405857101682262,-8.37599229400892,8.182620691115524,-14.769653382278948,-1.096985812068627,-1.1015744060218475,3.2548653262076934
0.5680000000000001,5.854919125452258,-5.076914673807151,-10.66939442349813,7.058713256666075,-18.19218205384378,-0.4450647556534517,-1.6421387922708313,4.099393290740131
0.5720000000000001,0.16179409140575962,-8.357046308167396,-12.549643103514606,5.064965616526068,-20.876078924008617,0.1087247442292365,-2.232712329898747,5.320693190201617
0.5760000000000001,-5.777630589266932,-11.619637768794721,-13.650272269989431,2.32076414071698,-21.84033386339478,0.19475566364127161,-2.6388929836694572,6.458502539176064
0.58,-10.495526406119692,-14.176001231753018,-13.934916093068106,-0.8761385424486154,-20.769949977525677,-0.3481194529560949,-2.6568991662236865,6.919245481663997
0.584,-12.90038818259925,-15.517881120333529,-13.593273575426394,-4.083045303431312,-18.124385650335764,-1.3458606613074622,-2.117785490102847,6.333362814714095
0.588,-12.718654209023768,-15.440338903990476,-12.777879696893553,-6.780283783758251,-14.812468203754804,-2.341586484201485,-0.8642453416802631,4.826464403206906
0.592,-10.522694447577397,-14.012644472261664,-11.372354362761838,-8.463872443440607,-11.62724313217472,-2.813155890138188,1.2344139755451486,3.0198723624960406
0.596,-7.36492621416126,-11.474520430197629,-8.995478133680994,-8.765887841954433,-8.814706763009163,-2.448014125874673,4.176693906064722,1.718922486376227
0.6,-4.262413959351154,-8.197914705455606,-5.320356005749634,-7.612627261330052,-6.09284279552374,-1.3491367861796295,7.628144443951424,1.4106557388207364
0.604,-1.8423041133909719,-4.741981994396989,-0.5404103273117187,-5.369650584979512,-3.116364306003595,-0.06579401365876736,10.735082810130674,1.8348753208554855
0.608,-0.3050752860527117,-1.914051031102404,4.318223320239159,-2.8776068721224726,-0.08195236184438448,0.5852812399541418,12.128470961815198,1.9118416056527456
0.612,0.37137700263790085,-0.6705683453711098,7.541947518738221,-1.2730635187803045,1.98613178152985,-0.14576979091148612,10.262874831107187,0.1421871089800124
0.616,0.19249826213921128,-1.794035101970418,7.3789869600569755,-1.5880118142721846,1.5551690532731073,-2.5986825822413846,4.059930138172176,-4.660112924931458
0.62,-0.9132264637730951,-5.472752755864648,2.910241684958332,-4.264319078305495,-2.6121678780848625,-6.5120659075888545,-6.40148518531546,-12.645365832366085
0.624,-2.911926019951137,-10.996090823338635,-5.293514231419163,-8.80545475010791,-10.592773632575712,-11.065262369258873,-19.507842867650844,-22.595642455098684
0.628,-5.397554486222587,-16.799022450538324,-15.131506513129597,-13.788697824613603,-20.90004202575557,-15.142038070310859,-32.34614948191026,-32.1871017606839
0.632,-7.4787059319524225,-20.927265847777228,-23.65797903671012,-17.314463882353134,-30.851986728976367,-17.702437509314695,-41.57541361972738,-38.778857695206284
0.636,-8.008774289577097,-21.778890815993954,-28.226558285109483,-17.762885190654764,-37.59792772689941,-18.11877470356974,-44.6254752194165,-40.39721649260768
0.64,-6.112070819492306,-18.803012181239918,-27.574730474615112,-14.526741273223058,-39.31625657144315,-16.346095925847052,-40.69385742286499,-36.463194155354536
0.644,-1.7152163448505544,-12.786511808929626,-22.309250705207187,-8.341210452453769,-35.95173908289353,-12.879652649594343,-31.059120666966937,-27.951555552177968
0.648,4.2340738851952855,-5.566565678722739,-14.572065951366719,-1.0237821685276112,-29.124901385078353,-8.547267938809991,-18.54169413297543,-16.938311042394407
0.652,10.050089749401465,0.7345438647626419,-7.067869246744168,5.281725919295006,-21.273728717429442,-4.229566037307604,-6.358562884423798,-5.777634628243662
0.656,14.005187820682908,4.60134026357125,-1.9214595569775172,9.010575537445256,-14.488720354669987,-0.6252431981145221,3.0752687424235416,3.700647324747133
0.66,15.068288602473631,5.680216496363873,0.07514631482822676,9.7731864469137,-9.68277078028669,1.8662412287769232,8.847350018597698,10.629664702871963
0.664,13.331819177772234,4.759880618226432,-0.4703258596950153,8.371599179919615,-6.478640667406491,3.1386997765941946,11.48692111407345,15.04936115579242
0.668,9.9163949083789,3.231561689995358,-2.1055086097775013,6.267231299061578,-3.779610362079641,3.3097677643309567,12.281871232681606,17.501910451648218
0.672,6.423831372810824,2.3506332366532074,-3.3293964810369485,4.811554850858985,-0.6039335150056235,2.6542344510798452,12.438049017269787,18.579590194393898
0.676,4.232306807031638,2.6837846874989935,-3.2065717559730222,4.64998660987702,3.319812263329223,1.5494913228781306,12.536284211788079,18.660915600863376
0.68,3.981007532698708,3.967722514528316,-1.5850103587948157,5.581357238741528,7.467472708771538,0.42312832855862015,12.502466521860278,17.91590973672945
0.684,5.45052850501874,5.391177248663748,1.0754540614948365,6.878611276216873,10.907048502626061,-0.33274203039050143,11.979435357119218,16.466684420639346
0.6880000000000001,7.804527748476216,6.076301180375992,4.043378799427003,7.8061208319276165,12.839679168338526,-0.4919663996511834,10.765755847475349,14.519478265406402
0.6920000000000001,10.029150953521656,5.501276290003068,6.603144363725229,8.021300308869202,12.960261311484473,-0.09940562973243416,9.015437406195641,12.359526998423116
0.6960000000000001,11.34304014179574,3.696470024479554,8.20501692809075,7.655200554708699,11.48437093310553,0.5216295121071912,7.114611183561746,10.216716179115275
0.7000000000000001,11.428122143449915,1.162752027414125,8.50439315963676,7.087139680242655,8.901800644823563,0.8900168368488486,5.3778051094756,8.124071566333093
0.704,10.450303986107926,-1.3786688892230679,7.390154843267538,6.615088796372354,5.692177253247288,0.5995478059227901,3.8310864091002035,5.898564367835317
0.708,8.915945322038379,-3.2602106795360464,5.0566859590025555,6.252980200388143,2.1989983660256613,-0.4514182255704462,2.246755010862262,3.286491589874549
0.712,7.486551274353182,-4.037493807020764,2.069683866064599,5.803680295711756,-1.2893747102099642,-1.9666289434578141,0.4036417768071212,0.20143873791228795
0.716,6.807599292349045,-3.532411723880381,-0.697678466206209,5.126558984099512,-4.391657472340146,-3.354453034331734,-1.6316588675240085,-3.1120824154759217
0.72,7.311489983894127,-1.8431021660038687,-2.345089699477452,4.355163488619868,-6.63254956408045,-4.010871309411298,-3.446885455861201,-6.119847574267825
0.724,9.043790991341202,0.6544776964219583,-2.36690564742913,3.896562041197109,-7.655857141299763,-3.648266070275013,-4.526654400561818,-8.243938986064295
0.728,11.577915484695867,3.3467070420170204,-0.970278104853088,4.1872442280973985,-7.511071400389612,-2.4713410097026607,-4.630200911882202,-9.158592674589727
0.732,14.100348993592553,5.512980683224198,0.9338487956708215,5.360743299910394,-6.7767896639258405,-1.0845803712717648,-4.0317605827607865,-8.948685204708895
0.736,15.674108533767596,6.5539623846727535,2.12738554253902,7.053383931147676,-6.362524571612213,-0.17564264189142387,-3.4371894271080192,-8.02571351993523
0.74,15.589488526836364,6.2216722283617685,1.6903599339067608,8.491154715082466,-7.055930830013511,-0.1473713938914729,-3.5990109745633028,-6.855389075236264
0.744,13.674501838303629,4.751518786028574,-0.5001275395464762,8.85675862784301,-9.048360274122158,-0.8983576797344055,-4.844305257268862,-5.6700454885517555
0.748,10.39825773339282,2.7913989791770906,-3.6838112803656067,7.734869431114788,-11.743540459564556,-1.8826454779262356,-6.821996732377647,-4.354716234697591
0.752,6.686160210641154,1.1335662876664139,-6.611078982859235,5.378610612799522,-13.998231426357385,-2.421432667897365,-8.639449154037802,-2.5897895941279714
0.756,3.5303416937636793,0.3781348398482849,-8.196832803881325,2.643585336123868,-14.674775936792551,-2.088790925111268,-9.3188668723445,-0.159534952979989
0.76,1.5787889003170954,0.6784860613601262,-8.074612705422545,0.6030517250649066,-13.216566109539166,-0.955053921895253,-8.315891653969397,2.767721156546642
0.764,0.9023453717021028,1.711350497606701,-6.719601910068047,0.04554509081882152,-9.906376584464347,0.4424655900897482,-5.8018008854447825,5.575086058574858
0.768,1.042140446583431,2.8815126602501238,-5.087035212995431,1.1085094752878826,-5.673194720384254,1.3880890835133097,-2.5602237400512387,7.422954891546734
0.772,1.3205393646896018,3.656640330767127,-3.9879187821957993,3.2368758108912896,-1.5683435549826186,1.3746541271151669,0.4253924810051348,7.661055637276263
0.776,1.2489269983778613,3.8596259880410413,-3.574858766710848,5.483233681241952,1.7741668513292908,0.3722925166510169,2.4413675965882105,6.193470977997718
0.78,0.7999005233783976,3.733186186126974,-3.280592171557857,6.965194282439054,4.343216368118087,-1.1597283275274215,3.297317101135212,3.572132980997017
0.784,0.42341620680501535,3.761475469755566,-2.236045472989141,7.262597253776509,6.5319785187665715,-2.511366387526901,3.25406548971473,0.7431197007882773
0.788,0.7717031244207622,4.341171845832401,0.07873389840213818,6.545750561569761,8.65564764831371,-3.0689468421859596,2.7191873703953435,-1.4230838855089623
0.792,2.2701825511849174,5.494479763236756,3.3533785763678203,5.387798522436161,10.537409130529781,-2.5918427424992645,1.9291138431356343,-2.5640590206640574
0.796,4.775767388225909,6.807394037731077,6.450900986171771,4.399495942051001,11.459942189749164,-1.283453488698142,0.8202787158360816,-2.989621113392552
0.8,7.521662401600208,7.6260532518904895,7.938558575351816,3.9033857405642713,10.54668087515298,0.358126201361574,-0.8357063441899837,-3.4650809241865446
0.804,9.382932360722158,7.400345117846257,6.8615934007461625,3.803253486260912,7.352518954405355,1.7921055237881833,-3.1473601413145564,-4.743458885173052
0.808,9.355702539193784,5.979334894597891,3.3048362077380187,3.6943507239226565,2.282950699475803,2.649871274664105,-5.8858772958717624,-7.106270249806466
0.812,7.065665704067962,3.7172706187261375,-1.5698253879708097,3.1480909445956637,-3.427018578316538,2.819665643083317,-8.48851090135193,-10.162394295381214
0.8160000000000001,3.0469370629741026,1.3361557582483474,-6.042067725947783,1.9977687651181606,-8.19484186045336,2.401722975606466,-10.28024457021183,-13.01750655025364
0.8200000000000001,-1.4077432163646346,-0.4240573440960784,-8.662452743876122,0.4390548119116673,-10.811093533343165,1.5890586263167892,-10.806967115505431,-14.718189629344446
0.8240000000000001,-4.782915378125335,-1.168397479633422,-8.932149307812317,-1.103677009797404,-10.999221068376198,0.5556820107152505,-10.080101367733793,-14.729996675242454
0.8280000000000001,-6.029958884740648,-1.0449023265350998,-7.48940221896224,-2.2597477555984202,-9.516784751920813,-0.5871182699814934,-8.59045775602387,-13.189233139550941
0.8320000000000001,-5.069416828968297,-0.6593157437868111,-5.713174340485134,-2.953314872095266,-7.7348233045710035,-1.761980132128163,-7.080703325768538,-10.789054419940705
0.836,-2.8188361465355065,-0.7228794544922827,-4.948281117695251,-3.4334074137748445,-6.903785756745135,-2.8612007877929537,-6.1897356696025625,-8.381152601212204
0.84,-0.7208691456799841,-1.6467461343281418,-5.804599714022806,-4.080756676688551,-7.5273683561035725,-3.716467475814938,-6.166657553539202,-6.537369942675514
0.844,0.022741436005047078,-3.2773204207232247,-7.873793142391205,-5.08461434696662,-9.144681179607415,-4.134476776241833,-6.790304112181376,-5.324100207720776
0.848,-0.895472946882558,-4.9355047294818615,-9.99847374649,-6.20645085936763,-10.62502804204239,-3.9882937222904857,-7.526348340582143,-4.412771981094376
0.852,-2.7255041428817144,-5.7620703603315615,-10.92897632875752,-6.8090451815743185,-10.799776815095571,-3.305919754675017,-7.826751118219268,-3.437300135254583
0.856,-4.08370645999009,-5.175723758646946,-9.98283620741979,-6.163982751229121,-9.064390923047892,-2.300793328988331,-7.411333419617615,-2.356414482637054
0.86,-3.7586648727476075,-3.2290765984618446,-7.400321950766479,-3.9011483051697993,-5.6775332383633295,-1.3170710588145025,-6.4044320921816755,-1.577046404037226
0.864,-1.4480174401000467,-0.647917995264927,-4.20447364414424,-0.327844496580618,-1.6123310725921605,-0.7092254230636033,-5.255499648807057,-1.7437809031833709
0.868,2.0106497598909936,1.4886101937369802,-1.679169498490559,3.59496487862792,1.9245141493936906,-0.6984439222457515,-4.506066207344075,-3.3093958752664996
0.872,5.08736572372661,2.27926247913481,-0.7536800774469832,6.659786924902376,4.0461193410915675,-1.2600314872091487,-4.520811994108613,-6.146517764706497
0.876,6.438465235080502,1.4809768208598997,-1.5813891317726174,8.007073931237292,4.556071817393461,-2.1145258181536817,-5.307360310771294,-9.458882529927374
0.88,5.700178786288409,-0.35029234502169904,-3.5353127997339877,7.575628065388704,3.953201177195764,-2.8350215636961913,-6.508656076472844,-12.077313105319863
0.884,3.7395761216001633,-2.1254244487944574,-5.552420661737508,6.153674619109328,3.1295746313672193,-3.02857249243531,-7.555005260708435,-12.99569044960396
0.888,2.171015378435339,-2.7867583876124167,-6.6406174707726375,4.956471128186885,2.9188367630676955,-2.527823780241252,-7.913181937636862,-11.866593107581059
0.892,2.3928525390188504,-1.877892624456937,-6.3082204141006795,4.9383642928845,3.709050369717542,-1.5000015922748418,-7.316679033432171,-9.171796870303567
0.896,4.725579952166655,0.2091004830983878,-4.715098722313738,6.229114587300224,5.298896242688502,-0.3994492552798614,-5.876107627786057,-5.95551432019125
0.9,8.152088517536205,2.422189482614609,-2.54317499772009,8.012650944023877,7.012788985291296,0.24172556178957638,-4.037475713485216,-3.278682426940752
0.904,10.827267835878335,3.5872076661177905,-0.6797514029335039,8.94116495820992,8.008954345716067,0.07922097972443432,-2.4070392535830685,-1.7059421608350989
0.908,11.063743203514111,3.0029368341080724,0.1311222474764202,7.8657373022788715,7.643409950978932,-0.8571823071002429,-1.5223696260773334,-1.0979860534325527
0.912,8.248555343419167,0.7919638622104324,-0.45229993096913823,4.506207278318472,5.75467925600605,-2.1468624316503124,-1.6518623192400126,-0.7978874507192258
0.916,3.176884838863673,-2.1510474937083934,-2.2554172491669133,-0.30073662571546045,2.782499483643319,-3.163775495366839,-2.6852080722031584,-0.08484183377398069
0.92,-2.3625244325586916,-4.583683982921766,-4.6390222751109205,-4.924630766786871,-0.33353854188637655,-3.384216446120508,-4.152575060134168,1.3874534303594537
0.924,-6.485160539422742,-5.473783989575009,-6.681130613777568,-7.6665824116690136,-2.447866147913464,-2.6556695233363294,-5.3565452271298435,3.4312838568418904
0.928,-8.100436104219417,-4.425855594634813,-7.458145294568206,-7.528746291767915,-2.610787375667909,-1.291998215461187,-5.579149744067064,5.510383162586152
0.932,-7.307095975209109,-1.7772983197350438,-6.360009868953883,-4.637670798278023,-0.4325129101919698,0.06533162659057012,-4.31126206079329,7.12228301479589
0.936,-5.1427638250400305,1.641326353367468,-3.3483081127422007,-0.13828774159909862,3.738335771361946,0.7525977395799544,-1.4422657083745705,8.116461678693806
0.9400000000000001,-2.9286601480805694,4.9002255591789545,0.94270484532084,4.348164503585903,8.89822379032546,0.3924872092316427,2.6469778752636053,8.73746400229627
0.9440000000000001,-1.6117628337356749,7.321534675975951,5.353764451667473,7.424853340132878,13.734774018160547,-0.9461977071726615,7.136067915117945,9.372149050444241
0.9480000000000001,-1.460219312333203,8.634171908258583,8.569142967186643,8.437661176459912,17.091493768047375,-2.8069852843559646,10.9580061176747,10.182301218155544
0.9520000000000001,-2.1760344403473653,8.938791706368196,9.627391650363919,7.620032688648344,18.380312344973476,-4.578518336449339,13.11289561858942,10.881181272110778
0.9560000000000001,-3.2376155187391067,8.568097937755867,8.3453403171473,5.8624886680189405,17.764087838760048,-5.76206392416669,13.003160673637677,10.827874966738873
0.96,-4.202587162944554,7.929568815494016,5.431180076545838,4.257207229652854,16.01505543747294,-6.136706767561975,10.66936753292884,9.40714709716304
0.964,-4.7942148673167235,7.396910782094107,2.2076351950459796,3.64543694527912,14.125415751782834,-5.766835339217021,6.821245250688116,6.462845863502459
0.968,-4.8294249546419366,7.22238110257224,0.024151427286235982,4.319714825023761,12.84432050961821,-4.89537295576689,2.615211448507095,2.5061031993869456
0.972,-4.162108643336939,7.44833044697855,-0.3691511449181628,5.9433257707822955,12.363569684635682,-3.814163421042789,-0.7552740418454267,-1.462706326449748
0.976,-2.7642765741221353,7.847147428261282,0.8294639054523469,7.683363476003062,12.307417056961656,-2.7952215037487322,-2.4907146456929876,-4.429391790192078
0.98,-0.890055495255484,7.943699204844648,2.5852144552418275,8.50406449795054,12.005646144261483,-2.075945873100559,-2.4639436399927312,-5.871386970725322
0.984,0.8414193189536299,7.17730731576885,3.5696290669458075,7.540942654326001,10.901840274771175,-1.8468711764265242,-1.2149711370717888,-6.002361918522951
0.988,1.5988576222544406,5.174118622273367,2.8506512843120912,4.450765921746317,8.87345314607043,-2.2020283302466357,0.34315969733099294,-5.599347220229959
0.992,0.7687757999133034,2.0320794529273343,0.372460324672252,-0.3619397572996874,6.309178743211914,-3.043311281933099,1.369645966514888,-5.506805660302113
0.996,-1.573832163971895,-1.5483202971667485,-3.0245464640283846,-5.761479497912713,3.9213508857498844,-4.012339091156088,1.4769538991751707,-6.110940067424018
1.0,-4.500378015361615,-4.442467720200721,-6.0671922086072385,-10.212932067845403,2.3866149772037115,-4.5584322070920695,0.8636113527263491,-7.098239222733007
1.004,-6.553725159972414,-5.553935958795726,-7.723406906404156,-12.343473788836484,2.0189757443116267,-4.162755095779282,0.1432099989879576,-7.646602919218733
1.008,-6.4851856222254085,-4.361631404279278,-7.71929085715351,-11.536245957491076,2.633343808186895,-2.6376384999763247,-0.033591776837173626,-6.939456345467363
1.012,-4.002231147987479,-1.263257806562045,-6.614480327954208,-8.264461932594008,3.664877859020576,-0.3223491847572959,0.6472469502485119,-4.697169230859405
1.016,-0.0636419249374951,2.5230964764663497,-5.392653566912109,-3.9560525300016547,4.481915799831364,1.9737756790725745,1.9924334737402756,-1.4186805747991476
1.02,3.4905686459204426,5.4740628427504285,-4.834266541508592,-0.41391982712612574,4.710812408268476,3.306317881632921,3.4127361446712636,1.8128770439852966
1.024,4.855871056261278,6.475700942323664,-5.04692088645062,0.9899974713523474,4.416058601268943,3.0712296093040603,4.249748265646488,3.860411540762875
1.028,3.24691728015693,5.3647345715606045,-5.437894622423949,-0.04237125851426682,4.043493512435708,1.357231179674291,4.132313233537813,4.100203815849873
1.032,-0.6331315804294824,2.978215468084214,-5.156783477078218,-2.6065019597935217,4.155137831774233,-1.042614119666176,3.162114081753159,2.71838620672922
1.036,-4.907476628007723,0.6977162135575652,-3.714784926175618,-5.057542492841947,5.11321686497666,-3.0047908493206794,1.834746941281613,0.5882463287148763
1.04,-7.471198219703236,-0.28307694578879605,-1.3962791051176406,-5.842738353099339,6.8661698770853805,-3.6492553346701784,0.7606193225722131,-1.1839911329203678
1.044,-7.0588508704997,0.4363914065040895,0.8173907737719972,-4.26959766838621,8.949215988316064,-2.7957444239696896,0.3545291564034887,-1.783804926462322
1.048,-3.8476146671426728,2.3118833225127027,1.7946224417011862,-0.8127065085291603,10.696334111700441,-1.0452807564987365,0.6688147391133352,-1.009506289900905
1.052,0.7157940873392079,4.231533882456324,0.9658279777151857,3.193034635398918,11.560464224429353,0.5703602400774663,1.452352677818671,0.758533073453806
1.056,4.740159081731658,5.205057255197127,-1.2178334148025374,6.294801321954532,11.394113617100443,1.1828485481448752,2.3737543431954418,2.8731051748775385
1.06,6.853305374801918,4.929223934279561,-3.427018686672734,7.659779178787767,10.514108807335031,0.5721529443030375,3.241544848699293,4.802216366625863
1.064,6.7865217693019195,3.9151107691482334,-4.150493776397585,7.412905481816981,9.52182307815152,-0.740215355271082,4.081260243817701,6.351705909750185
1.068,5.3001289105131315,3.1071479226458947,-2.5803300373972644,6.406839823624831,8.961814352868274,-1.8399305554207217,5.025420940946534,7.622147083112944
1.072,3.561211727868325,3.234114925950111,0.8119730127309361,5.599240226410073,8.991568118802647,-2.0023561478965366,6.1006667404483235,8.774887773490454
1.076,2.4149924111986962,4.317412099981869,4.388273815485899,5.449952005136328,9.268002211073703,-1.143756648221804,7.084470276154917,9.796841023836118
1.08,1.9715885709470946,5.624958248113034,6.117801694107678,5.686893239919559,9.10563814354957,0.1310792228559814,7.547503917631708,10.432266262044317
1.084,1.7258622753981712,6.116643384969832,4.640999075430441,5.580102836456582,7.85565960499137,0.9072337813025895,7.076059748102884,10.327562162361126
1.088,1.0426430151020005,5.097085831943706,0.043940848031172486,4.515335796098295,5.298325450028064,0.5367492148433453,5.542976133861329,9.28830409140745
1.092,-0.33314517885960093,2.6743891459143274,-6.089398372557117,2.4939456010907275,1.8287089017266815,-0.9266770965268298,3.257343703137752,7.481103112279519
1.096,-2.0596472091988622,-0.23860043711802925,-11.384996381461644,0.23829341633662438,-1.6658662242470257,-2.7118582554886768,0.8770342690118396,5.426565225272648
1.1,-3.419906357245246,-2.4117871020282333,-13.803389515613729,-1.1963085276962562,-4.198149192419344,-3.754031492912143,-0.9019764150230689,3.768195897973933
1.104,-3.797172443626574,-2.9755634715249335,-12.582287768762823,-1.0478071197775498,-5.127177885685409,-3.304586724675648,-1.6935656726573363,2.9559924640975854
1.108,-3.0716043787228857,-1.8782297143627322,-8.507853836802315,0.68330151001184,-4.416048627113531,-1.3715204670636743,-1.5953124533130179,3.0260253772814174
1.112,-1.680128033990111,0.14557814768636823,-3.394327988240572,3.2178743767189637,-2.5597250585995353,1.2669529239398656,-1.0813268907093057,3.610351153928235
1.116,-0.32904179312099746,2.0648951836890266,0.9122831090128578,5.452286043876692,-0.2323949141332795,3.480849042458754,-0.6726486244253819,4.172887464479545
1.12,0.44082510239692985,3.1776107647253404,3.4408785152691648,6.5987929733174155,2.1128686149483915,4.387396264689327,-0.5839983252622791,4.33476422535737
1.124,0.5625764369049264,3.4930162599356054,4.441007700098521,6.620763297812886,4.448163976758187,3.7956713805897713,-0.5732239431444406,4.090920364255448
1.1280000000000001,0.4371647935334346,3.6409590849314353,5.023591385839749,6.200300592816889,7.051507642293979,2.2576665878846782,-0.1014362300624927,3.792539298079055
1.1320000000000001,0.616493349450403,4.358344924475275,6.337513526306488,6.241520694561702,10.126919806155328,0.7099223499283438,1.2790770024567855,3.89576058582503
1.1360000000000001,1.3885131383629066,5.905861969998408,8.807239953693987,7.2227888964612745,13.431553731037981,-0.06746950201889645,3.543812266967172,4.622576047241429
1.1400000000000001,2.5335572869412317,7.792228617328352,11.883032772626533,8.813456457711716,16.183844367829675,0.14861997264628712,6.072658363615069,5.7503053867954685
1.1440000000000001,3.4185505513237393,8.998440899679606,14.411273915913915,10.012637902124997,17.355584552489795,0.9678647373503768,7.883716414051463,6.652692615395228
1.1480000000000001,3.3711642079798736,8.560827533351025,15.347098763386555,9.73090817964389,16.1961558163646,1.686451900975563,8.113908359000412,6.583172180772571
1.1520000000000001,2.1002921477685033,6.16066545984568,14.374584808559405,7.468300078944921,12.693951720172468,1.74297760886291,6.49106958981773,5.058996145006367
1.156,-0.05841296636362414,2.3879921126510797,12.073665493849361,3.7057818232170776,7.712837298265871,1.0505236121340937,3.5397389307189826,2.1495475672310382
1.16,-2.211709240724736,-1.4957548026454084,9.546982293876788,-0.23927346221631218,2.6863501486474664,0.041177417796799176,0.39667192728262446,-1.4812685292710555
1.164,-3.2874995959631663,-4.1685509060362325,7.775713187173016,-2.8394814458537097,-0.9792694963900246,-0.5980931567216525,-1.6830780216248113,-4.812012649869647
1.168,-2.534027831063226,-4.891855694446497,7.095768659087394,-3.1211094403744166,-2.4935210419381164,-0.3358424724496669,-1.881241316469144,-6.8671844697974045
1.172,0.1016035718161814,-3.8399481573114738,7.090516375861299,-1.1485045212254859,-1.962976804387134,0.890902362739844,-0.15671064168757287,-7.0976533823677475
1.176,3.895134457026046,-1.939792492474199,6.950693409652631,2.0272478666197724,-0.22534782292992617,2.6357157710402124,2.7866924527829795,-5.5648633627604145
1.18,7.610169223736883,-0.3520377709237219,6.031427666642141,4.906438212072638,1.6278678000508409,4.171871260162529,5.853688759688034,-2.869243923550127
1.184,9.979736371481494,0.10581384670882793,4.26186504384349,6.264355620421263,2.771744780622483,4.856706903995033,8.0353713915566,0.11333225467639041
1.188,10.210765900610712,-0.7022537333663313,2.174395681409549,5.68886394168454,2.9494904430206708,4.446228202004288,8.786706740986606,2.5596016229891965
1.192,8.30441694015542,-2.267783251560009,0.5724403037890328,3.6862047289994546,2.446581256512589,3.201234148120566,8.153558158179937,3.9592699103152595
1.196,5.059329157357485,-3.75717651055243,0.0837613980533094,1.3509869609257272,1.8269235458078183,1.7469802219537,6.6359592773153535,4.216773827443017
1.2,1.750591658598677,-4.420039666133527,0.8547887075513086,-0.197246477635026,1.6015322440728417,0.7708765283382064,4.894423298452298,3.5906664607600143
1.204,-0.3818627030899693,-3.8700251196396307,2.5527331068948946,-0.30937767837801555,2.014606148497703,0.7078533459788141,3.4544487266893795,2.5241142314003238
1.208,-0.6441362527252599,-2.1688424320971587,4.596482996338184,0.961978984289118,2.9952265502418243,1.5515658688951006,2.5260436496080736,1.4407778449011592
1.212,0.8116874739605042,0.25104698781677737,6.428885409375176,2.950255798852704,4.235250546301262,2.874010330804664,1.9919999098800165,0.594800355782175
1.216,3.057717656230679,2.7628607053732033,7.6810794398831685,4.701459257902995,5.3318558524692445,4.036302022212735,1.5450584153045064,0.017783407370714155
1.22,4.808998655618748,4.733424349549481,8.189968500818825,5.363956884061853,5.932479762345843,4.4915872312809,0.9070824151917819,-0.4209209459936418
1.224,5.023698616899074,5.697222583751324,7.932834643386419,4.494596067103614,5.857130897344177,4.04357992767834,0.030902081974169215,-0.8878282689069801
1.228,3.416104018085723,5.500021078370431,6.99820553251313,2.201642337370015,5.188180814726992,2.94177379077409,-0.8098190281088791,-1.46414737540562
1.232,0.6403914543027716,4.378842176268833,5.633033159727114,-0.9034846515972921,4.302905807713575,1.7762718210602326,-1.0933302374662108,-2.0792244769105936
1.236,-1.9663532502058656,2.9293399783399643,4.290478222357743,-3.9117603601557813,3.8030408509891442,1.205075811368517,-0.2826324850555815,-2.5325699411893856
1.24,-2.9993505221967656,1.8874414180089758,3.533894963925659,-5.938749697571753,4.2835397023424004,1.6418180729700451,1.8676666109016011,-2.60214770929353
1.244,-1.6636991136426946,1.801082985350381,3.7945583054540784,-6.443993042151041,6.032055009395284,3.0619304258318465,5.089907252644101,-2.1697351357160333
1.248,1.8270826869920294,2.7345366290995994,5.103834438426809,-5.426601656564601,8.809172229204895,5.022191888277764,8.620914684314556,-1.2817286183830277
1.252,6.3102921957701685,4.166542976727277,6.961552342729415,-3.4265568124396184,11.841698036702383,6.885998492928193,11.480683543883917,-0.11250017108451615
1.256,10.168747762404063,5.208934391459639,8.506318337942812,-1.3052805035257617,14.113827653087016,8.135562467128072,12.914575760554687,1.1495533362793793
1.26,12.050548714088116,5.070051640656455,8.943391470772681,0.12302749015786951,14.839287585364,8.608230211783361,12.781229339985604,2.420467581854144
1.264,11.439858664948442,3.511141809048479,7.9838492803132555,0.4335818287983604,13.856667425515363,8.513750215864198,11.628895715668666,3.749875270685239
1.268,8.789683616780376,1.0051466166718228,6.012440576469237,-0.28656165175224446,11.697378752681534,8.214632613219557,10.362578594926303,5.205295693469856
1.272,5.201788519230613,-1.529942277413521,3.826183191979415,-1.596878965495044,9.240250174358513,7.902934303591513,9.648346038231097,6.661907948406041
1.276,1.8434391429533,-3.282112495344538,2.092945431343596,-3.0421554806267825,7.1566103681020765,7.376359866606554,9.380371879412355,7.641068367996244
1.28,-0.5889564897559705,-4.069639320756686,0.8552134020582418,-4.472870191353319,5.467231555401445,6.07705669634123,8.55906311572829,7.345369739424784
1.284,-2.0822327366363114,-4.493512946892342,-0.5727734579657491,-6.132091474181756,3.515781250463344,3.403605513234195,5.733684935688452,4.940865505362923
1.288,-3.132426753656001,-5.585875049747868,-3.1843410819084674,-8.438748068435103,0.4232682515702897,-0.8644971358804856,-0.1578824861198873,0.0030798465671146857
1.292,-4.32148384850092,-8.137793503651537,-7.556648878127025,-11.585531055296993,-4.22753693246937,-6.277675150874839,-8.983340652705074,-7.084046887991778
1.296,-5.9083147822970625,-12.085278142606743,-13.24386315743017,-15.204429607577193,-9.87874846419179,-11.751534454085975,-19.10657676115614,-15.006082088609466
1.3,-7.661828287773304,-16.353122552183102,-18.711080178060243,-18.336153142066323,-15.011678628196044,-15.93201840656656,-27.817422987366196,-21.79547056376034
1.304,-8.980647147120338,-19.276270124217735,-21.90654320985459,-19.75438808949276,-17.731853572014447,-17.71841480116713,-32.34468172570571,-25.44171618443766
1.308,-9.230329076522397,-19.411200306178745,-21.214436753703374,-18.51817069364133,-16.651372397116567,-16.686854685958917,-30.98360275865725,-24.60293152323541
1.312,-8.075841737547446,-16.291343225337634,-16.28331130985694,-14.448485104698172,-11.591437278380685,-13.199425041625622,-23.789896551304626,-19.1081095917566
1.316,-5.614009649808537,-10.682822445870638,-8.2512932456583,-8.247631408419188,-3.6986521139411623,-8.16901651488174,-12.505097595874762,-10.026523104676237
1.32,-2.2936055937548696,-4.221746797575476,0.759446273440041,-1.2150736528991837,5.07812705991599,-2.6363113737918997,0.21279652091738255,0.71979032697286
1.324,1.2871449513585929,1.3509424774006074,8.586731915972585,5.277918587745408,12.851423865041042,2.595621993302378,11.83536339869261,11.013159567044783
1.328,4.572058581116834,4.917949499767069,13.899239510864529,10.275292523701502,18.518893949893997,7.086683838954546,20.761040703628336,19.174249705001277
1.332,7.125289854054685,6.2909022058193,16.553218065410753,13.437066774555163,21.98260890232592,10.644985290791427,26.53494529974417,24.331347707462516
1.336,8.614410207987266,6.004610639142065,17.310624386310614,14.905406322499472,23.825523448372756,13.117619932617437,29.510069164375423,26.43477700821128
1.34,8.793739604026971,4.801322729213778,17.153815245473506,14.990210500454642,24.70563722807259,14.280495663589864,30.264365769099633,26.00171045179033
1.344,7.554564316222114,3.1731515357843847,16.65403796101428,13.915038794729133,24.880465329160998,13.934161454749148,29.174159926850784,23.769703615013498
1.348,5.046544651015893,1.2281528531059966,15.73581270245393,11.789688608184964,24.128215418676966,12.132420539956168,26.36890498598195,20.430826655547826
1.352,1.7872620907795427,-1.0921464672819978,13.93293743026634,8.7876471555403,22.06497369982611,9.360665936477782,22.007478023090414,16.526772489313245
1.356,-1.3605442637938743,-3.648535786888222,10.9281313532104,5.362771951776396,18.618327869340554,6.488207032782986,16.607684019909165,12.485727366732878
1.36,-3.418886201067168,-5.9214383283430205,6.971716261155425,2.278534899599656,14.293498220888768,4.470657071034839,11.136741368137507,8.697863668943329
1.364,-3.6614779647875895,-7.16648839048211,2.922023652586593,0.36977669084879783,10.056342315627079,3.9353968169932454,6.7441763946274556,5.542809986163031
1.368,-1.9564875075211055,-6.833191826398984,-0.12008001460931528,0.14686953200778663,6.897262818135444,4.884923989782292,4.2911236455148245,3.3536614444777477
1.372,1.1023631209782394,-4.96876477018089,-1.3602120687687527,1.4810953754704814,5.349887783834775,6.704244710680542,3.962508873303795,2.344992434881238
1.3760000000000001,4.398756070319681,-2.294642166949741,-0.7036795157171731,3.6106444905850195,5.279601118529689,8.488926077747527,5.203115417899955,2.565256470163824
1.3800000000000001,6.756189024248567,0.1146203856251895,1.2164516596371657,5.4935049542793255,6.047876724588264,9.515505467031778,7.028221560890024,3.8982089707571843
1.3840000000000001,7.459551397638673,1.3902181272197125,3.379124907899158,6.339489515100217,6.936712497170024,9.589485387857449,8.518515882034622,6.092658092720707
1.3880000000000001,6.560255598050905,1.3194170204633533,4.860858928562674,6.011595447190512,7.543675243469493,9.079669041642655,9.206754303617481,8.786276266922261
1.3920000000000001,4.8149287888547425,0.40910642346288606,5.217952773930399,5.061665411952527,7.910431121561679,8.642930806524571,9.150824995525172,11.507823789469079
1.3960000000000001,3.2771778820619524,-0.45591849861742384,4.608723515532548,4.372765580937032,8.344671661493837,8.805846928695594,8.696140420256171,13.683262794176388
1.4000000000000001,2.7300486328184417,-0.5744108549099793,3.611676997508618,4.597274616437978,9.066355119436553,9.648810083262804,8.11000130602256,14.691058198558455
1.4040000000000001,3.275894684502556,0.14960320919856562,2.886255513300341,5.735336138767556,9.945556499755819,10.776224696743508,7.347814125557031,14.004260767872676
1.408,4.3231343469754595,1.1940878280234843,2.8780011458357553,7.118320948519854,10.520711403902117,11.564569344520876,6.105439452823608,11.394146135492099
1.412,4.936857303689214,1.7767292071091645,3.662384778041683,7.788902037122307,10.265371317424192,11.518126443538522,4.10276603195512,7.097318517972624
1.416,4.37316531391699,1.3719057040023688,4.972267610946657,7.065471932154275,8.9421925160033,10.524338624411314,1.3966276354743399,1.8407394714429102
1.42,2.5107004210476687,0.05804992889410876,6.347925495534752,4.95939319029815,6.796877804457897,8.869516274151456,-1.4932677491843864,-3.321756159050983
1.424,-0.06362397823410848,-1.5130391946110426,7.325687291214292,2.204505023721861,4.459906736029974,7.036621292740557,-3.753924290719606,-7.327196704276936
1.428,-2.363449058578105,-2.501236093518763,7.596034458178365,-0.12298507538558079,2.6074649261056475,5.430058240837614,-4.673908866079737,-9.45633620865833
1.432,-3.540129352979374,-2.385765630233721,7.084368759766765,-1.1774150577947653,1.5796140702017902,4.2024738963008454,-4.035845628004291,-9.560566305833637
1.436,-3.344578118747389,-1.266115716571094,5.960511700897267,-0.7817312990708754,1.2021519358390382,3.275249494096394,-2.28390592229806,-8.066187702534055
1.44,-2.248141414129627,0.21460497222271657,4.565871579852925,0.5130778773293994,0.9108235672920988,2.519091674194808,-0.3657476876394854,-5.75225681466591
1.444,-1.1782579592706066,1.257626434293295,3.276987051905699,1.7586639623662794,0.09590781223570966,1.937541325647695,0.674575345156095,-3.429703406446243
1.448,-1.010520485699872,1.3641091238947052,2.3489560557824456,2.1283116299110865,-1.5439172356616853,1.7133172049888303,0.14468275918855955,-1.6816172365141746
1.452,-2.124152688305875,0.5638674171598635,1.789097180675797,1.3137648674336257,-3.8606001786835655,2.0751604125820196,-2.0275927584720272,-0.7735686967800053
1.456,-4.252156339023676,-0.6832324564515133,1.346816904484995,-0.3947159172428083,-6.3791872009356,3.0732420747564744,-5.313523312617121,-0.7299905970304996
1.46,-6.678422120413953,-1.8260034457538996,0.6476078756066075,-2.342677020345598,-8.589652903570537,4.42617804584229,-8.848448588033916,-1.4789574975175448
1.464,-8.682430654977532,-2.5846091697803986,-0.5771654003830307,-3.915349420709609,-10.212455615624645,5.551498468845829,-11.796111119746316,-2.9547529366005403
1.468,-9.935139486342978,-3.09626619012605,-2.278412503849716,-4.849181508569043,-11.270945479628502,5.802284968315732,-13.632236998113116,-5.075311791710549
1.472,-10.625371873743738,-3.7709079113618285,-4.020756329716132,-5.287000462296769,-11.945505013163698,4.795632357903182,-14.240880143969797,-7.612285257734381
1.476,-11.253307720792364,-4.9482084626658605,-5.10923120975392,-5.579189047953987,-12.317382964269985,2.6490018936699826,-13.82324176972499,-10.07510407263696
1.48,-12.230808568880757,-6.591407525085062,-4.883070083468,-5.9936056048475574,-12.212466974577149,-0.015066438206274402,-12.710977080030254,-11.740199546467242
1.484,-13.554895098262598,-8.219469308784987,-3.036268487153805,-6.527349942840326,-11.264391275523948,-2.3273641808049064,-11.203212250210917,-11.880613896423359
1.488,-14.763751895802002,-9.129142844248909,0.2011583886057684,-6.92902293921841,-9.177728050376695,-3.5751333891731987,-9.492035575991359,-10.107729113483988
1.492,-15.201221737561196,-8.789069415939366,4.104257290646603,-6.9050085130790535,-6.04414802781611,-3.5388650888086937,-7.686555413423964,-6.654448868892214
1.496,-14.425321215211465,-7.1549252472420815,7.721091244521411,-6.349144249320565,-2.4793101833196873,-2.592849906603022,-5.877709168015557,-2.4199695757192314
1.5,-12.515341246249994,-4.735912990036155,10.227891422404593,-5.442954065186671,0.5297159778397038,-1.5030294990810984,-4.185175202927441,1.3066247567537932
1.504,-10.09356021154343,-2.373387781004277,11.205148592996686,-4.564197340614813,2.021840697018691,-1.0341308447856412,-2.7501766560183274,3.348778194226073
1.508,-8.039043179036996,-0.8599569577707503,10.699473629550528,-4.069902384708723,1.4916393842625095,-1.5785529010259078,-1.6985143903964395,3.1333897012384235
1.512,-7.061859883472804,-0.611521553802028,9.082733998415726,-4.098887953290811,-0.8740270981843281,-2.9930822053370862,-1.0972009110201435,0.9329250897275583
1.516,-7.3618144324075825,-1.5232828423195162,6.836944641358198,-4.501705122453386,-4.261305754738166,-4.719685426042632,-0.9355251170915257,-2.2713994174131695
1.52,-8.564766971935999,-3.0710086848583495,4.388360953315426,-4.943469465432174,-7.570754948822044,-6.111694974540429,-1.1404619617226528,-5.241123253176164
1.524,-9.942011993363769,-4.56864234603985,2.0634380154768737,-5.099194960675412,-9.851359340593973,-6.771175161845911,-1.605492609811311,-7.025523466972092
1.528,-10.766852441852267,-5.4420340572092405,0.14225324307867915,-4.813486255050833,-10.625719350240288,-6.721451170020876,-2.2188238150900106,-7.3422845211162135
1.532,-10.624999792450037,-5.411025001092417,-1.0888272568719337,-4.145365562823831,-9.97914008226117,-6.328684068845078,-2.8728643003337915,-6.615114172778011
1.536,-9.520315885197242,-4.517322682293272,-1.3670207498505302,-3.2844225088193078,-8.406174625407036,-6.0210875048369585,-3.4560028040933704,-5.6597229016240584
1.54,-7.754837047233902,-3.034479495620793,-0.5775565897187089,-2.411083147649861,-6.5417077118684865,-5.991166157289012,-3.8436266948645814,-5.2016130113263515
1.544,-5.705775832146465,-1.3272621384545165,1.1157594421475503,-1.59989291313447,-4.9108247685079744,-6.071670659989696,-3.9043851873241224,-5.479041230865986
1.548,-3.6455511745444604,0.27748530184672626,3.2460175305234014,-0.8167758610026006,-3.7931756408842343,-5.854804880509197,-3.5188422651737556,-6.1259723041836835
1.552,-1.6922595656449466,1.5799300230346691,5.2002943133929405,0.014327327409686674,-3.2088063024628517,-4.974414476388489,-2.6013061985847132,-6.3820237448309065
1.556,0.15578496448858825,2.5825434997975987,6.529842559900828,0.9621558213229033,-2.953731278354214,-3.3672684032566336,-1.1085614613248722,-5.499221723103187
1.56,1.9459079563080528,3.5046199530030364,7.212693099517157,2.0761577232100117,-2.6744700924976126,-1.3445287410932005,0.9517852312349142,-3.1396645467366633
1.564,3.738507632274274,4.715944188002593,7.697202833216512,3.419699098402507,-1.9694130851393234,0.5795935809603336,3.5017774737668392,0.4176839123452991
1.568,5.632069080828279,6.577333248936478,8.66026123915273,5.092343973335469,-0.5301851156062334,1.991775936976203,6.358274897374812,4.339031247103875
1.572,7.76105465915843,9.214661618264337,10.573911690046003,7.175539019586241,1.684274052123068,2.8152503175373793,9.194315438925877,7.519382100451072
1.576,10.228778540847644,12.354801984674342,13.335101752079856,9.619038301885864,4.33821820185947,3.3256252582291044,11.54848357402706,8.95957863686645
1.58,12.94917032833246,15.321642188425312,16.196346601358908,12.117771798446014,6.761582744733076,3.9219994585560034,12.92596870636255,8.10496855532873
1.584,15.493711811062116,17.253087210167497,18.0957208815383,14.089752563275095,8.191043084729747,4.795897213824005,12.974533311516687,5.032573223476012
1.588,17.108325087468344,17.47535552868542,18.221363520410243,14.832814624610204,8.13626168735875,5.723242962449479,11.673077125507575,0.4473461726449335
1.592,16.940427836087906,15.83871326296994,16.48698530973585,13.800812414105355,6.6794578795513395,6.1291887160286835,9.421734039260327,-4.507284385928819
1.596,14.43963905969342,12.852774615301616,13.644277373484297,10.892219805420243,4.532267784008621,5.421324092136479,6.958611046996029,-8.568291966307347
1.6,9.742763818053325,9.511728852212254,10.922110307997126,6.589741698315555,2.7535028703419995,3.402786451806008,5.104009081510702,-10.718312868440151
1.604,3.8050929111910676,6.86720710277673,9.36878631000547,1.8476180549116614,2.234296611918992,0.511793583388017,4.422972470720387,-10.496939686064023
1.608,-1.8547475436024932,5.549069510868202,9.270976166978048,-2.2526835592345877,3.208053183135945,-2.287691757624151,4.95666439166392,-8.156927005749388
1.612,-5.728984523275743,5.473094768668775,9.981561704380576,-4.931580187430994,5.0575850212595155,-3.939767818917101,6.177891354775619,-4.591124748787557
1.616,-6.940008455683188,5.913299129925749,10.27268724296801,-6.007656733152116,6.574267536221588,-3.825003312885225,7.219701735729251,-1.016857320415495
1.62,-5.600532485948698,5.898113038260454,9.032164574161632,-5.92800144363939,6.561480732338353,-2.08928649246197,7.28353143197863,1.4952426808849721
1.624,-2.7323493488070376,4.717768627393378,5.910434951808467,-5.532648223438331,4.472059410668923,0.4109559920529371,6.024653579345398,2.450130382654499
1.6280000000000001,0.21856160202233088,2.2699555960189435,1.547254868871085,-5.672049323582142,0.7305674179473423,2.5224474157092076,3.718811842362377,2.117270539881897
1.6320000000000001,2.034724441335487,-0.9334058757826149,-2.762912047027073,-6.857578704579246,-3.4571728150150083,3.3558770252981,1.1274923893243527,1.375516270753817
1.6360000000000001,2.23080647498964,-4.047961518790277,-5.750611602930473,-9.085596673438767,-6.684937447902099,2.6997364112425375,-0.8512031130744792,1.276407854956394
1.6400000000000001,1.1667923155524043,-6.308529160881864,-6.811523584957902,-11.887148143115125,-8.010220549617067,1.0750253700534693,-1.5646326122056955,2.5255796107476893
1.6440000000000001,-0.2574892528454473,-7.334023969239116,-6.244443105837432,-14.546524469166755,-7.346738326574648,-0.5883004680467359,-0.8349670892057759,5.133112452134314
1.6480000000000001,-1.1450320306300625,-7.1994626410612454,-4.984786406085963,-16.381784153177843,-5.403954504205156,-1.4746809001857208,1.0473116075675684,8.39863633081672
1.6520000000000001,-1.0756061785798003,-6.286819733779305,-4.012607266443734,-16.966995432792388,-3.238410726278058,-1.3148303358380993,3.532827678737597,11.254075058641469
1.6560000000000001,-0.28330494369210335,-5.028398194511034,-3.7877401642694473,-16.236187669511715,-1.678671598342941,-0.5100729660136967,6.074546991918176,12.781462624350727
1.6600000000000001,0.5251901687081109,-3.7215870792830454,-4.047138991186516,-14.462612605746791,-0.9609571698458375,0.09950089972123255,8.291349825623591,12.636262221506897
1.6640000000000001,0.5726091027254743,-2.4973480080929438,-4.042907659508552,-12.160533890369829,-0.747947685667242,-0.3122249136360624,9.97709805892616,11.159158730700145
1.668,-0.5700208747614792,-1.389981572215989,-3.0474994490425953,-9.93710865683826,-0.45754219819260733,-2.1138601171858804,11.015044681379809,9.135253616711994
1.672,-2.769308533217422,-0.4341797238673468,-0.8329320527425965,-8.328872502747542,0.30774066326748084,-5.012053848714104,11.304126286244433,7.341246209825091
1.676,-5.415896972512689,0.30265224689099024,2.1700569567628065,-7.65662124039417,1.500968958800473,-8.177389709610237,10.775732829165927,6.1366983141357085
1.68,-7.700615389802471,0.7857288887642916,5.105334911274566,-7.912766604630971,2.686663713262906,-10.614365372273607,9.495427476507302,5.33716187117948
1.684,-8.957086670624577,1.0878065204301897,7.135935558577367,-8.745534148489607,3.3327670049884923,-11.595880143767346,7.755793240164145,4.4132703288040425
1.688,-8.923350306324108,1.3973091197567402,7.839177474647291,-9.56869570166337,3.149345982239245,-10.948956913114735,6.054880048779549,2.8986168321413794
1.692,-7.809324911808611,1.9164578185968009,7.327721028752363,-9.77908407484085,2.2508045950170166,-9.079825619988458,4.918222673255292,0.7499650903054862
1.696,-6.172711207217727,2.7133019748254896,6.0742798108243745,-9.009959493351221,1.0633269959799208,-6.749140071376408,4.648912214518816,-1.5648770164833743
1.7,-4.688166764659683,3.625143748786197,4.581546984213892,-7.31919961250885,0.04881628281293615,-4.7158994869500415,5.147758994927046,-3.304736796137783
1.704,-3.898868610691296,4.300471444700737,3.116626806714538,-5.198918248684236,-0.5749137255667378,-3.4275626463869857,5.938769050190018,-3.8764740275220393
1.708,-4.033371235070751,4.377419405862936,1.6498181829973495,-3.3699346804290915,-0.9533720085302146,-2.8905797835060887,6.401875016780906,-3.195012701977345
1.712,-4.9684019660764625,3.671247716613766,-0.011873455820166967,-2.4622945612187515,-1.5151306497181958,-2.7647862724762744,6.0845199636493446,-1.773758226322507
1.716,-6.315045915066564,2.2715867716439213,-2.003757405043542,-2.715404169400821,-2.738770278763457,-2.6084759224154292,4.925206433975278,-0.48081814496566144
1.72,-7.594385895063579,0.4856705875028723,-4.251484455196589,-3.8493160561592923,-4.899081198744174,-2.1256050162916567,3.260344090138369,-0.08451688909431798
1.724,-8.425359363548889,-1.3216170690612465,-6.4558167485378615,-5.183035095124465,-7.9092133991130655,-1.295855037008088,1.6085776792131197,-0.8482174319858868
1.728,-8.639372767228915,-2.8776003492177398,-8.202870761746212,-5.949854569722664,-11.316252431690542,-0.3314398249140762,0.37147863868705655,-2.4056058301380148
1.732,-8.314310170345285,-4.077447658958949,-9.14058860490988,-5.678822404230684,-14.453128679643006,0.48731939910113486,-0.36943084238712265,-3.9985065525937147
1.736,-7.698483177872425,-4.931725294158259,-9.097703784475561,-4.429085660326663,-16.646549766663387,0.9842287058046466,-0.8294416638126643,-4.93587555752953
1.74,-7.057542376084218,-5.443170181359845,-8.107282180487132,-2.7559405403360717,-17.395899232742998,1.1551297837515986,-1.2942378200277036,-5.002037035289002
1.744,-6.541369242992326,-5.516564163400296,-6.344163611104181,-1.4247227197862475,-16.46744075125477,1.1152853263219011,-1.8355229194257447,-4.57365893578536
1.748,-6.1281624107786685,-4.982043661642327,-4.044088244374801,-1.0128550108575407,-13.905930993801437,0.9720203298687735,-2.173903307506865,-4.3824049212291065
1.752,-5.6788203213485975,-3.7401629690089724,-1.4499234045825156,-1.614357459687108,-9.997509893432696,0.7236575861177612,-1.7988082608873548,-5.0530776237465655
1.756,-5.048426184832014,-1.9090270937368974,1.211850425009712,-2.78722931472133,-5.206211836792056,0.2725701225167029,-0.28658270746571646,-6.692521376163128
1.76,-4.176001280339057,0.13186876039125295,3.7333740573249625,-3.7681854345804613,-0.10539393249027107,-0.45449883813966496,2.3645420077151735,-8.773257930412674
1.764,-3.1068716951597457,1.8485442565336365,5.922320311252147,-3.8495678812554255,4.687057855827702,-1.372189482702149,5.584887166750505,-10.395672544317591
1.768,-1.9459169873032482,2.7745420646242316,7.609502379949713,-2.7199482088624976,8.583303633205713,-2.19279089897655,8.387036962826901,-10.779849201690904
1.772,-0.7926188649714969,2.7020687221435464,8.645269779586048,-0.6036243576547733,11.093620475111056,-2.5412498657188562,9.758595293644962,-9.722186780938872
1.776,0.31325391978943584,1.7636569474500892,8.914709092723664,1.8860976031709111,11.91269224899093,-2.167840085141634,9.116471502101984,-7.74833312145069
1.78,1.3964110365504743,0.36031200652230266,8.373922000606054,4.08282616965626,11.003701897776581,-1.1173363698007588,6.600637315132678,-5.855808658343182
1.784,2.4955851264687996,-1.0193356552035486,7.105499518950744,5.598309416557315,8.63843166057463,0.2601487680851995,3.0385248014708788,-5.000295004854555
1.788,3.598288540316232,-1.9921325980759392,5.353826206070522,6.4708478937192995,5.352539756957589,1.4894151517323155,-0.40267632319733426,-5.60384051147028
1.792,4.590436852458506,-2.4221265395147413,3.4912365685263937,7.044994269915667,1.7860928397214622,2.2386130473874726,-2.710155875218807,-7.350783911154653
1.796,5.27404124381795,-2.4433043048309004,1.9080572581441144,7.678381339399486,-1.5341599664218677,2.508690233194963,-3.4266079184591933,-9.370584837740983
1.8,5.4339310139780785,-2.3753584532238157,0.8447158414582061,8.451297190379902,-4.38058409395024,2.605935056294814,-2.778059841951446,-10.68600685892693
1.804,4.916892515340277,-2.5807088644718785,0.2493458126885688,9.056517708225504,-6.871907971711627,2.902146238824479,-1.4912086694818094,-10.674523959965757
1.808,3.7005173335080146,-3.2980800999253708,-0.21810335443130424,8.956369991326989,-9.314156213295183,3.53531642807403,-0.4059103859944826,-9.294106653379972
1.812,1.9120635441055864,-4.527426353731505,-1.0058138752459973,7.712679594675798,-11.915692823931037,4.2514029601554855,-0.07574667629794085,-6.984437790150211
1.816,-0.19636867472193664,-5.994862543552104,-2.3732296255394334,5.30450584859433,-14.516432689765223,4.518560540853402,-0.5458681355320665,-4.351680651942962
1.82,-2.3075678484033153,-7.226876009780564,-4.137517877779843,2.237158571356725,-16.51526028185657,3.857382686584961,-1.3983441978118627,-1.8499820275725574
1.824,-4.120800853456686,-7.7315000909476215,-5.64050332494908,-0.6381293613595129,-17.084226503294875,2.1976088344745532,-2.016729336714883,0.3566117317660318
1.828,-5.442470866226008,-7.226621497398982,-6.005316650863382,-2.5114264708370735,-15.589580931362754,0.02418021535415349,-1.9140341729634311,2.3115924045464666
1.832,-6.2632788135021755,-5.8316745763890925,-4.609009027806032,-3.006112781471173,-12.02401620994106,-1.8114683790749782,-0.9645409554386215,4.061030152764443
1.836,-6.747943018661311,-4.076706504990218,-1.488232189107884,-2.336928994909603,-7.165253840131026,-2.520353116726602,0.558468135794917,5.502468962043481
1.84,-7.138446716197634,-2.6863157273752805,2.565919051567591,-1.1519381539476736,-2.326921992567387,-1.8000422098922826,2.1367012499407947,6.4088857931200325
1.844,-7.581104955352923,-2.2000344259562574,6.321481422719502,-0.14414383887794546,1.211428057525414,0.0025552458251230092,3.263875957557576,6.606556392451019
1.848,-7.947174414354004,-2.607154781166106,8.692350536895447,0.3548797011175733,2.811393543352576,2.095129211742016,3.6697065475393877,6.16855790827309
1.852,-7.798026353825984,-3.2551131068688073,9.260429922893012,0.5396378140104572,2.7545128207644667,3.6767447554819035,3.394907185643512,5.456633893856827
1.856,-6.563327350815468,-3.1340040635771147,8.439809286312306,0.9662458903893123,2.0249132768363314,4.3458856724267765,2.7027809362996127,4.95377289171784
1.86,-3.890987855282031,-1.4436522663291784,7.168917685871621,2.1456239978898624,1.693265385862624,4.2412213840406245,1.9027716519536186,4.984300495045568
1.864,0.008248205151992316,1.8594336348536664,6.327166696723102,4.146209258745113,2.2599642440944763,3.8402190695632568,1.1973909046981301,5.510717323567353
1.868,4.249229489066575,5.873618842797857,6.226340103729331,6.461919920700604,3.3494060109793744,3.561513191403983,0.6380053020963006,6.158641412344807
1.872,7.510086252998568,9.072319725826475,6.483085173992784,8.230891044522979,3.9407688012523585,3.4351217927946975,0.1935307085640927,6.471977928247904
1.8760000000000001,8.581271972884405,10.030733248596093,6.347336818978193,8.695186727259056,3.0067514155524186,3.053510910649102,-0.14992328289761314,6.238383632561387
1.8800000000000001,6.9666355303296,8.178721166007987,5.2544217152022785,7.633249428732978,0.17085838813338539,1.8420652205625911,-0.3351861336080706,5.670580183477112
1.8840000000000001,3.2088950901382876,4.158772642520569,3.248250102753654,5.517033440291129,-4.006192804286964,-0.5200224299392162,-0.26327619059570573,5.319309347184965
1.8880000000000001,-1.2870591694549827,-0.43166931497901007,1.0014726819369213,3.2951099184660895,-8.283683178744791,-3.7954328958060173,0.1205485467356997,5.7564955276099825
1.8920000000000001,-4.885241598594158,-3.8144474738505467,-0.5831184577848352,1.916498859596415,-11.390918028661915,-7.194797749545536,0.7584402993445583,7.221156098934646
1.8960000000000001,-6.488372615435919,-4.903237780785929,-0.9225406158471783,1.8659179890051356,-12.666246420391298,-9.711645087624834,1.4886901757852424,9.451591762341241
1.9000000000000001,-6.036738640117567,-3.803965669222302,-0.09961442874134985,2.960930039886388,-12.309841365910975,-10.597621839558075,2.1326137210579628,11.815414826552296
1.9040000000000001,-4.452131906256756,-1.670956713873734,1.2150543455940115,4.507753101515391,-11.12161350304031,-9.716834681210218,2.593793976293459,13.646813108265995
1.9080000000000001,-3.0447817066983003,-0.01049985643114576,2.2074803854370497,5.708638158914074,-9.913521438442316,-7.600862663877427,2.8941214178494983,14.576034391123791
1.9120000000000001,-2.7324701951417567,0.1391577997570631,2.4205352133822227,6.062175802586804,-9.001672016149724,-5.192139617467854,3.110241443676089,14.649896040698312
1.9160000000000001,-3.5187423016636785,-1.2933339291534534,1.998382897696417,5.547916821483814,-8.077379880412542,-3.4229487583121267,3.2635186919775956,14.19092019575109
1.92,-4.540694491081217,-3.485805557639531,1.5337822817068647,4.521294881662223,-6.506761959285327,-2.837858888025786,3.269453956370423,13.527224129401421
1.924,-4.640451375631043,-5.263652910329904,1.6493821464925746,3.4319699595320845,-3.8243017560329187,-3.426005294915683,3.025674244805588,12.802492340035862
1.928,-3.09710578481444,-5.736646787801334,2.619475530470643,2.573013183182483,-0.06316852945188511,-4.69753803443791,2.609320826616766,12.00761270431521
1.932,-0.09037222827150587,-4.680367202735128,4.2647609414761085,1.9925740267983243,4.273123187225444,-5.952918241012624,2.4290147652097986,11.188465699469806
1.936,3.3630720340552642,-2.4994680922977714,6.1453340627480335,1.571204774142464,8.524391090377822,-6.608860130155511,3.158617645402061,10.62396049588518
1.94,5.947092555896713,0.11112624709965324,7.8526743978693645,1.1484606834342754,12.198970337711565,-6.447013960503712,5.378120887995646,10.764719826549705
1.944,6.741964791904646,2.5363593646521063,9.150908050233696,0.5889283157281643,15.051838174854222,-5.708305522585393,9.057189590507164,11.898282710968545
1.948,5.64088770922775,4.3999197087213515,9.887218063158084,-0.2681538378890711,16.882229261044436,-5.015331188297504,13.184380992900167,13.726746287731185
1.952,3.2470231535699137,5.441638893928161,9.744015013916293,-1.7132696377264827,17.22007634357076,-5.160116176414581,15.844241353003913,15.165405095068241
1.956,0.399765948105709,5.3262630679022855,8.117517725553919,-4.15353588534253,15.253741195715808,-6.805123674714592,14.858126521638344,14.608105934450336
1.96,-2.3570148663115384,3.613555283651639,4.331985537898285,-7.913841159508015,10.187958808815093,-10.186440680661299,8.791168872911019,10.64797216419817
1.964,-5.021772577922082,-0.00773285062551432,-1.8573867611297392,-12.924197132467318,1.896197089278,-14.927241966438643,-2.1324123634712233,2.922812079798448
1.968,-7.926212807258433,-5.328016575421502,-9.767435635742101,-18.469567390882645,-8.521567969262062,-20.04515250619201,-15.706856329345015,-7.373820897746039
1.972,-11.234335359222424,-11.362420709889662,-17.687249167442378,-23.218271318470805,-18.72773590009627,-24.18232621634223,-28.284451754109323,-17.669733860775075
1.976,-14.522662847029542,-16.47893397682129,-23.3577852253034,-25.608588713091212,-25.839342312579454,-26.023099199461164,-36.033949986337305,-24.891216924529473
1.98,-16.74710521236689,-18.945563780642715,-24.88990731770713,-24.463424650312177,-27.57974951128972,-24.751606115738433,-36.402066610570806,-26.663093137187865
1.984,-16.679783429231307,-17.66964570489451,-21.671646249415964,-19.544150387075693,-23.32324369800755,-20.35502772632593,-29.120054704829002,-22.267582394050628
1.988,-13.606847003393135,-12.742884416962735,-14.75489763797447,-11.759194594946871,-14.454757431463738,-13.648320160607343,-16.294858040301445,-12.904643280778297
1.992,-7.877833277481772,-5.501689055339129,-6.482441186216166,-2.9027901679877726,-3.8301937243354915,-5.99762826030891,-1.558105114576977,-1.155397677669625
1.996,-0.9674408398566461,1.9682718824414902,0.5089568831293798,4.974763278076033,5.436643485253843,1.1387160795700177,11.335457277761183,10.062645582668553
2.0,5.040881211354376,7.659871270694636,4.4181553193099194,10.28637426196077,11.265660334353177,6.665204026240842,19.824080624455817,18.541865013008675
2.004,8.329756325988313,10.408750421047047,4.975670083432117,12.401585880525987,13.341073504201074,10.123164042376109,23.227979672240977,23.37191353818127
2.008,8.166033179718548,10.266322709252448,3.39546527438159,11.74128049437534,12.983457313934167,11.698771558919736,22.6088974001021,24.89951911777763
2.012,5.247326107053192,8.32369869326669,1.6300441774720107,9.474319615487955,12.28317804726224,12.003371678496016,19.965954152097773,24.206690324039272
2.016,1.3852569255792258,6.122485032766699,1.354135038093795,6.993968384851556,12.987904130088847,11.755996997829234,17.217602926068565,22.45648050719491
2.02,-1.3367024225750752,4.947524892002499,3.1847088941335384,5.405533005610101,15.703090920641145,11.516044425864463,15.436039290732657,20.442645186027384
2.024,-1.515438978019505,5.326914750723109,6.484626336834386,5.225208590765331,19.744314958787434,11.5698664459946,14.61701218399689,18.493464847225525
2.028,0.9573184954287501,6.932464962242801,9.791086173503253,6.345209944033131,23.615089020343923,11.958347348606459,13.974775330267027,16.64621589462725
2.032,4.92097668441962,8.861660607317976,11.58585327002822,8.217142566127183,25.783948949767648,12.58429963809918,12.532769621536417,14.891472019860675
2.036,8.57257699187019,10.129986999210708,11.015486240561291,10.140563229877657,25.361873424289026,13.309924099152816,9.703204295340868,13.30663081635767
2.04,10.384068134502552,10.138618256179795,8.241127362685651,11.536946917060137,22.397224754036678,13.989978805885249,5.602652031749104,12.023140716789992
2.044,9.860038157308193,8.91757574202492,4.303858959081376,12.128301411561374,17.737703995974993,14.457786391493126,1.0179129897192858,11.10969442051784
2.048,7.738255299280437,7.051971049598654,0.6150440240642672,11.971170766087619,12.608371815580805,14.509966555459204,-2.9242092914780806,10.491718348971741
2.052,5.5367855680592974,5.333805258328219,-1.6832649367311583,11.340368574353374,8.112844439639856,13.92991587875591,-5.233543417577128,9.967149950954287
2.056,4.6744497729428405,4.309915361327866,-2.204058859549586,10.518306606303167,4.86314968080406,12.554336718197147,-5.477748688411959,9.300538618543907
2.06,5.637878183672721,3.9560405136189556,-1.455590169536293,9.591595651637173,2.8471719324850824,10.362040930723458,-3.9808181643658953,8.331117700560341
2.064,7.6694870714814165,3.6608744588433275,-0.579523627566322,8.376441210136708,1.5468027638110655,7.537317226725689,-1.7112655141616815,7.029806091838248
2.068,9.155786282089025,2.5560969286890307,-0.7976017448686461,6.52781920583895,0.24712425824120698,4.460702189559546,0.10914159091806686,5.493737341317326
2.072,8.534217366255398,0.03913400044551074,-2.807121023823866,3.8068054132155864,-1.5849639910402433,1.6253743380793249,0.5302962136982994,3.9217011810642273
2.076,5.245694756603896,-3.771090961966095,-6.386728423501081,0.3844498763599269,-3.995924494691419,-0.4971349583840754,-0.6914349624981639,2.589315493540119
2.08,0.19229507355453146,-7.910256878429982,-10.409556999061708,-3.016601990544764,-6.448166124568992,-1.5845198762703907,-2.9552384512912595,1.8237871871091118
2.084,-4.590346688842265,-10.900458908754324,-13.295257760563192,-5.281020708077821,-8.003378842044757,-1.5401947899687043,-5.062429445452666,1.9414000575730146
2.088,-6.926752697050185,-11.41031463710232,-13.712115239791896,-5.340772517094095,-7.733384961148162,-0.49992302666341626,-5.769201411689247,3.1187118745855793
2.092,-5.655816908548189,-8.940175485729384,-11.220309510291074,-2.7251491834162422,-5.199729101336789,1.2247715933239287,-4.396482339532514,5.2352376788241335
2.096,-1.315338238151437,-4.164384167777764,-6.533655068283377,2.0718719451795886,-0.7609690849513981,3.236769956413341,-1.2004120176900908,7.782749245562428
2.1,4.037647231837391,1.2830239959333707,-1.2594839104944415,7.636202998307992,4.467716625682916,5.146723688722949,2.693293142782846,9.939029547711748
2.104,7.815665870789037,5.509387036939142,2.7935614746615505,12.12967018052657,9.020864296050334,6.632697508756957,5.7739136399933715,10.829947877480597
2.108,8.192432020594788,7.21486908404648,4.41316248518409,14.037782495787251,11.680100899504147,7.467987399059522,6.817306212041067,9.892713900212156
2.112,5.052264633846727,6.27360616014528,3.4947330731945345,12.841394019460429,11.971048537316577,7.544409825239654,5.4144291132338465,7.163725589028801
2.116,0.07602328808860115,3.7548552501784793,1.0305861119709636,9.280382747321,10.328437031635174,6.891928559741147,2.113188506536925,3.315687000286177
2.12,-4.104235048615445,1.374832800674401,-1.4008373581911915,5.0569117720626515,7.8499153822216705,5.687184302777128,-1.883498029434512,-0.6007837428114207
2.124,-5.224451817958995,0.6686720204428944,-2.3851324155918334,2.112735186153449,5.7690192566086225,4.242280684406233,-5.287652570867154,-3.6069934588437267
2.128,-2.526763029872197,2.292463556694011,-1.291284512010333,1.7963531910576656,4.9102605186520805,2.941231967427116,-7.267761317017882,-5.218095937926676
2.132,2.850783814602999,5.7684502242737405,1.5096969877314295,4.291621624573581,5.367953980659341,2.122301776782547,-7.711673740701951,-5.61299401017071
2.136,8.427583799211474,9.765529984578741,4.87874941453293,8.560619602192684,6.529249382662539,1.9452767770898023,-7.121524946981063,-5.470787174338309
2.14,11.578143725362455,12.727577037169006,7.427136851254504,12.80632990951611,7.381656047161664,2.29651383235903,-6.254217127227732,-5.5663381810174055
2.144,10.766124420074798,13.52021158333679,8.05344036063107,15.23071289052363,6.9352594981542754,2.8001601221072905,-5.736200074592666,-6.3493383789669275
2.148,6.213787561733282,11.819139119093943,6.294345395930217,14.752026751802141,4.590690156047051,2.9597833887694,-5.843910156099188,-7.731181332900522
2.152,-0.2903200622952804,8.10021478218199,2.381425675830571,11.380895155165556,0.318455926628769,2.3747149285742664,-6.526211675282834,-9.187275694439696
2.156,-6.294393193886382,3.3265238571868663,-2.930722600712249,6.126825340256584,-5.360266216228384,0.9289932269897239,-7.593891591278576,-10.103564250067517
2.16,-9.809587973708368,-1.4582711291659134,-8.624425535618396,0.5251873541476884,-11.524849769151857,-1.139842351463932,-8.905559471692442,-10.153122106525569
2.164,-10.128326311198986,-5.452725689001679,-13.676933533589008,-3.9940157204832447,-17.090311111629816,-3.337758179647472,-10.42862284883245,-9.493108562795832
2.168,-7.982341041492669,-8.224661264657138,-17.25892147478476,-6.617835065934495,-21.07181539590249,-5.138610682448699,-12.158107132932187,-8.680262693800604
2.172,-5.031330517367079,-9.6768000501562,-18.88485476408775,-7.353065644671738,-22.8417037786902,-6.225099055927002,-13.981518920817646,-8.374942765683064
2.176,-2.989102298404241,-9.93096933875808,-18.509001720460187,-6.864777826840712,-22.301996883642317,-6.617521631666634,-15.613209784893026,-9.00389480532313
2.18,-2.8271032056387844,-9.213735096049621,-16.52650043548108,-6.055192962236237,-19.902146336207554,-6.623353683063528,-16.66489071254295,-10.56609631865919
2.184,-4.395114651421402,-7.773786536633777,-13.639312616347194,-5.584643080365087,-16.45998502804897,-6.638793708368813,-16.820141416249044,-12.664184527467881
2.188,-6.594700189634539,-5.821400731887661,-10.596564543419468,-5.560045653571425,-12.826293147134416,-6.915511252505707,-16.003008053318162,-14.707948284504932
2.192,-7.969604576403708,-3.500909262222926,-7.90993633271235,-5.53508063655117,-9.54699919028556,-7.422914735618974,-14.435753648208593,-16.16546816241593
2.196,-7.383566154779865,-0.8800705291148518,-5.669926594243828,-4.7860140796977015,-6.680643863786703,-7.882471660813349,-12.540801710684448,-16.717155401008522
2.2,-4.496446165626304,2.0292084375095305,-3.5717206078703954,-2.739394989164464,-3.8823914456598194,-7.9283673386265665,-10.727186696294776,-16.252459131414575
2.204,0.12291659035742208,5.199267122236694,-1.1626197660605877,0.6536950096196867,-0.7302462500585287,-7.3090703343112855,-9.182803405381424,-14.7777163336925
2.208,5.272266846996414,8.503570244331758,1.8187445235181698,4.798124344631828,2.8982259588151003,-6.012966175315435,-7.797801864615628,-12.340143807166847
2.212,9.609020518460094,11.650094444608989,5.178546179815829,8.6450564174105,6.607165437850415,-4.265883138675181,-6.26529890147933,-9.044340100797397
2.216,12.118473857323245,14.183531517455746,8.242662856948018,11.10344464562961,9.568890349209482,-2.4239378430469416,-4.306219743260927,-5.157733498500946
2.22,12.402964981532904,15.596185701767226,10.118627202465582,11.488479287149211,10.896679960002537,-0.8327429545483208,-1.8801632821922758,-1.1894610556161944
2.224,10.720173590062842,15.512085486350657,10.11432776519279,9.79658228012298,10.098334616232602,0.2619154309061791,0.7395167224044998,2.1589638426466977
2.228,7.814133554655083,13.876530844515994,8.094096362172072,6.6883797088646855,7.353137010993546,0.7373614771371191,3.0633187959371098,4.201371075635073
2.232,4.617074469709796,11.030245285306167,4.559484794929302,3.1811434541964223,3.429863276143477,0.5706730286972334,4.588271247560782,4.550066331243526
2.236,1.9372268496403267,7.623220702448381,0.4301715936333439,0.2105752515662691,-0.6966248261715902,-0.18137864201953346,5.0063500527891955,3.3148889467225886
2.24,0.2417416774100516,4.391916465826622,-3.363620441300841,-1.715709732466772,-4.307151885131775,-1.3611907449375833,4.299447936345389,1.100361378051545
2.244,-0.3996770434097686,1.8987104096642877,-6.258085282197154,-2.609757643839017,-7.209943822655443,-2.6755462459319332,2.692329329709855,-1.2203660997334538
2.248,-0.20739643974013733,0.36439936740991463,-8.203040419287044,-2.8117213786975803,-9.655287309041906,-3.7048011382312556,0.516054221860796,-2.861032120629159
2.2520000000000002,0.5044969344159123,-0.33313301271591955,-9.52142032252323,-2.6513209330295098,-11.968312737268274,-4.00287849992523,-1.9206120491181013,-3.416864434124953
2.2560000000000002,1.5144139426303695,-0.4829555228669937,-10.562747299665148,-2.1708490910724634,-14.128835540989606,-3.2693383291788782,-4.365496784412814,-2.953725721367454
2.2600000000000002,2.77519547705349,-0.3009539438277171,-11.397831023929168,-1.0946355412921909,-15.601649692276798,-1.5109805160325616,-6.571146858430699,-1.8756712833907798
2.2640000000000002,4.3595406624301525,0.23661303553277246,-11.73156895953801,0.9406897315685887,-15.539908051232718,0.9007502955810285,-8.221841439652216,-0.6701019217186017
2.2680000000000002,6.278906588535307,1.384496609935585,-11.070810892730606,4.020594890526793,-13.24929323813306,3.3338914406506426,-8.931154923440412,0.3096142671829911
2.2720000000000002,8.297027986438135,3.4234255987849114,-9.067340478148767,7.680959169737117,-8.656813805447651,5.136922721224442,-8.357522426807027,0.9127214304549938
2.2760000000000002,9.876011991494465,6.38031455297398,-5.807101608571421,10.935370107441631,-2.4858552404848506,5.896851205209325,-6.385113416657136,1.1106168627968174
2.2800000000000002,10.340716743638566,9.851557756172994,-1.8726117182174549,12.63560614190968,3.97929430735946,5.586423244709522,-3.2738857252754867,0.8664584956426622
2.2840000000000003,9.230949233672808,13.068309173139934,1.8788440285096624,12.019125383549056,9.427763946101436,4.531854272039379,0.3449703175156076,0.0949481866626174
2.2880000000000003,6.670838184474786,15.220019107409108,4.715148057111085,9.154594970377914,13.070077099775776,3.226799438638119,3.6703659220744957,-1.2380757706901724
2.2920000000000003,3.500231714838635,15.852697710201637,6.351456455166378,5.000316535629512,14.875211628316105,2.0959913398446997,6.039012285236962,-2.9598959065058352
2.2960000000000003,1.0149052229828088,15.121450745168243,7.015650851203873,1.0059042994317378,15.38677891496426,1.3325644333997564,7.1735400007611165,-4.619090027319275
2.3000000000000003,0.38499385056483604,13.733753408416593,7.218583305544121,-1.5589312592938724,15.250416967387768,0.8949412529871079,7.23822147003651,-5.586179493770363
2.3040000000000003,2.0082625486162895,12.57585247785243,7.372787511931907,-2.207093128541726,14.752357638990182,0.6434129596050142,6.678413161729718,-5.316199340313066
2.308,5.169884246920132,12.219796725885724,7.494341214774463,-1.4365910562598874,13.648889277399775,0.5060487349474396,5.934319984804917,-3.6452070385965127
2.312,8.259590149820799,12.575867013719707,7.158041844556517,-0.40978682285266754,11.365860901100081,0.5678516705345835,5.195595727476212,-0.9372001702873314
2.316,9.516259318809796,12.917874034438114,5.763554051934475,-0.2667696406101099,7.453186988412439,1.0262532261994375,4.339236186029359,2.018028459577631
2.32,7.946964707626995,12.287135465092968,2.950624693297426,-1.4536327180663804,1.99961424400986,2.03825590867465,3.0715084904357037,4.3158527002037115
2.324,3.957593831217068,10.070978903393298,-1.0872365592381543,-3.433869782989291,-4.254085217812179,3.5685894608316135,1.175611769575573,5.304623692558342
2.328,-0.6845673378412083,6.445199963266639,-5.559298010373724,-4.94328302956415,-10.15057411487292,5.34844930707624,-1.286375749708908,4.832622505456391
2.332,-3.6231046252556722,2.4016499680959393,-9.356435191083971,-4.668117030884858,-14.582528255864661,6.9786027266008555,-3.946723861373494,3.257212627783839
2.336,-3.0508013001149585,-0.6603045993795869,-11.498956243297075,-1.969364411628585,-16.917448728494218,8.122292013828009,-6.278120988374107,1.2424767916600974
2.34,1.3670167611158184,-1.5782056275394254,-11.521483068973298,2.738000821725679,-17.160620885627946,8.671157317181022,-7.8224067556329935,-0.5167667336852189
2.344,8.25460816732775,0.013705640194501711,-9.61526627819551,8.140221077396099,-15.818938189382116,8.779120419848411,-8.371290743948471,-1.5140838764306412
2.348,15.099537792160922,3.4976278553016984,-6.48139932229196,12.60523931053671,-13.585038598280072,8.73306036200809,-8.013676547549327,-1.540240016239009
2.352,19.365046393170665,7.543318131989281,-3.007283731562651,14.86767282879329,-11.050754461074042,8.73857217392016,-7.054084419861954,-0.6878865938551044
2.356,19.584206548048236,10.69237915769758,0.06507050531632741,14.477821382010761,-8.581363019716024,8.75347008692015,-5.8681850546960055,0.7037712927264281
2.36,15.887552691541321,11.953404825520511,2.335903468228427,11.821006804444837,-6.353699189984177,8.477919946430479,-4.776247425154024,2.1297479913570903
2.364,9.784932125328323,11.146905275649722,3.772820488558205,7.797832680961759,-4.450150383224164,7.529786361255807,-3.9676879046013616,3.0343006644272776
2.368,3.3672554844651534,8.884779829986433,4.620729457200506,3.401186718407012,-2.8852397815520963,5.714197603994843,-3.471259119192906,2.9846486152381217
2.372,-1.6089831451032577,6.240590804611363,5.269874135809953,-0.5738860287028071,-1.546035647194362,3.2313755072633388,-3.1359167526231815,1.8788090589661444
2.376,-4.293200838434031,4.297732436705986,6.126864269239576,-3.5897288602846267,-0.13077937443921428,0.6851129462250682,-2.6378916428264176,0.08244610845129685
2.38,-4.803080591778257,3.7513170489014485,7.483081253613568,-5.30130977290105,1.7806937679270955,-1.151273036256514,-1.5616807676608424,-1.6324926793908396
2.384,-3.864854903387746,4.693988421689931,9.383654850270997,-5.5173502042310325,4.489424468388243,-1.7010075480672837,0.42292870797406756,-2.39371150495319
2.388,-2.30377586506499,6.648396646424531,11.554181261183187,-4.260178042582146,7.905622569184968,-0.8893791917959883,3.333104007998949,-1.6685359288070076
2.392,-0.7064451454146982,8.77422096855875,13.43331741424548,-1.892301582021017,11.41670204373311,0.7868434780954829,6.702401912176399,0.3817295681439825
2.396,0.6401862917925794,10.180685794297911,14.359120166089543,0.8570977890136682,14.047290035956213,2.480831006221282,9.621442363231667,2.8692847857437282
2.4,1.6369470251569955,10.250786766634075,13.859449138610941,3.0887573238290402,14.883267215090004,3.4125860648286723,11.039947117072277,4.5531080124519425
2.404,2.2355717124639733,8.857533899480726,11.910507327219968,4.102113245802355,13.537162123749116,3.256067851004077,10.222640666407242,4.458743654132062
2.408,2.39346841626393,6.386733886565702,8.986265449005952,3.73725777887804,10.362125314769248,2.2783842230326252,7.138894361922862,2.4124344785090557
2.412,2.1445406980770554,3.5448368014007547,5.833029491614582,2.473654489732855,6.258158051531288,1.1555870347682475,2.559393042418,-0.8258292372764302
2.416,1.663052921954343,1.0193989512455262,3.082017498331286,1.1763586385362075,2.1708587416273595,0.5658171011913495,-2.235847664170926,-3.9432543932816344
2.42,1.219842805066989,-0.8579821559433358,0.9123984849845375,0.5906673010787262,-1.42415911472483,0.7841365313857436,-6.017743482879664,-5.782434941187423
2.424,1.0542712346201286,-2.254266430839178,-1.0003773423828592,0.8965689495182261,-4.703245576372516,1.5199544598898131,-8.135884395865096,-5.971545893765475
2.428,1.2495179997743429,-3.681204978073696,-3.1743024021368216,1.607981003349546,-8.190177992674133,2.1009795155769275,-8.720602856260546,-5.101882396861921
2.432,1.704863405333576,-5.615881476769799,-5.826088182025195,1.8923739714977046,-12.148846960499906,1.8990378551637015,-8.451506416086682,-4.336866883322578
2.436,2.271137975024705,-8.084171216131137,-8.497571177848465,1.1439984164095751,-16.064649895988968,0.7421940435184982,-8.044332049459184,-4.679811526177637
2.44,2.949256862610577,-10.473640254509673,-10.09169863415245,-0.5459614410693252,-18.603658073840585,-0.9394334474845678,-7.770443424210687,-6.330389773041368
2.444,3.969885335263561,-11.740607772990236,-9.387212170391567,-2.339302963590846,-18.173206642874355,-2.338565769441982,-7.319230908313431,-8.527718230194909
2.448,5.694215032386244,-10.914530713191624,-5.760628222659755,-3.058434319718667,-13.805086332031433,-2.739395772319985,-6.073980895912787,-9.982887860830033
2.452,8.336866032407833,-7.668657901032468,0.2767514650595052,-1.849229865987723,-5.879845161663482,-1.9590731754756838,-3.6253358065413352,-9.652743210440878
2.456,11.68819745341288,-2.6147648473285487,7.08403512521439,1.2947888193875017,3.7747077427514952,-0.4930442415472682,-0.1801567032785205,-7.399165650610371
2.46,15.031312906997716,2.8734511587955147,12.503223228764806,5.45047390699573,12.53455959817681,0.7448896764490034,3.421019148812971,-4.131156044733695
2.464,17.332914235961493,7.230595924801776,14.79049109825597,9.169257656642927,18.074973659466504,0.9376915914120381,6.099842059236099,-1.3398813407865209
2.468,17.67739166239876,9.39307641046705,13.393181352164955,11.161866076908323,19.36033167632808,-0.16415685628420018,7.115901986343312,-0.2917429937981133
2.472,15.715483908025597,9.236675388059819,9.15671126477045,10.881320255890087,17.002983569821858,-2.0913071891722597,6.469577460928424,-1.339074222369817
2.476,11.88607710961492,7.5353479644444326,3.8752718011329264,8.703696911113974,12.833780717838508,-3.92044345329859,4.878397929174245,-3.749584885429252
2.48,7.270197008370458,5.48210238037357,-0.5711392031161302,5.649420668242887,8.935623783120397,-4.7963205337865364,3.3517806468529017,-6.124397214922316
2.484,3.1495226950929727,4.052397865647242,-3.040458586978655,2.835670836309613,6.661883944510558,-4.4029110750066955,2.628090257239407,-7.159990924227525
2.488,0.47617688640903966,3.5623452003053027,-3.5010284492206702,0.9647847657069665,6.140467956330174,-3.1059410973453803,2.813219922871774,-6.319217769502022
2.492,-0.4934173007730848,3.6213293366911197,-2.840735788420067,0.09946194187906876,6.439201594524331,-1.6914741759372667,3.417799581226399,-4.045134817954703
2.496,-0.20034749072839464,3.477138981608475,-2.276999857805912,-0.19525427545951457,6.2254414841965655,-0.8646158385955243,3.7414055379800826,-1.4350546628141667
2.5,0.5166211821963661,2.5011647086950637,-2.7349682130934942,-0.5008878633396456,4.501255575932648,-0.8346931022994392,3.3350023211546294,0.4058582105914562
2.504,0.8615477460477168,0.5276071972798033,-4.496619772980242,-1.1987401738211476,1.0365677849245447,-1.2395413850891974,2.2381742693360023,0.9464237246570792
2.508,0.45600733291581563,-2.093665477109167,-7.210772675999486,-2.286666540083885,-3.633567987135291,-1.4410625106342776,0.8725913701006216,0.427418101154986
2.512,-0.539431861026824,-4.725028510563071,-10.180202012313433,-3.427534681622279,-8.555298927610325,-0.9961915756903379,-0.30017334097065396,-0.3946367069803689
2.516,-1.5785459793554257,-6.762152444029488,-12.690974936987956,-4.150354429940796,-12.769911836415211,0.014554906637084253,-1.0978117370047076,-0.7651900815535178
2.52,-2.039657085865371,-7.851056440715339,-14.2108989974713,-4.071033542726885,-15.567035336947706,1.025608281052548,-1.6839493721476266,-0.38700704355825266
2.524,-1.5118890301797538,-7.9094680394661125,-14.421353821760908,-3.031317874472834,-16.525075790507508,1.3754018910424706,-2.341231064547622,0.44701702956584555
2.528,0.07258070061604194,-7.001039105979529,-13.161479270154338,-1.1377403410471294,-15.43685897919077,0.7914541313136574,-3.1367607819538064,1.0821971753411903
2.532,2.467972768480341,-5.223191323633179,-10.415840785515282,1.2590939039752571,-12.28841164868472,-0.35290605293375243,-3.7545161579801074,0.9171755277151119
2.536,5.258771679250406,-2.6936403022664086,-6.374567939702509,3.631671839002563,-7.33742958905499,-1.1981907871630808,-3.6360601335596536,-0.24514830142233812
2.54,8.021285640108871,0.3645473022221757,-1.5109061088525149,5.374660453672578,-1.2224722655210765,-0.9034072075060141,-2.361053504789635,-2.1101841333343265
2.544,10.403816765787873,3.5277452648637366,3.4271384828155207,5.934675705351847,5.036036674334112,0.8033413014910502,-0.02366549081128344,-4.098935124880037
2.548,12.128891484930627,6.2046709128450885,7.586759119904931,4.976436504499486,10.255183187415422,3.379255262593042,2.6781719784099973,-5.685055576429459
2.552,12.942791007537586,7.795975880060714,10.26715951955033,2.5127233174589776,13.456114929367711,5.689134689012738,4.730137381822503,-6.65249131407533
2.556,12.612733190075812,7.9314046226087225,11.155720741538321,-1.0460625863740347,14.215281561078653,6.593067848081509,5.319677781637218,-7.1343609066901985
2.56,11.001840223588204,6.646766453341652,10.415248622815891,-4.977008693599728,12.811299918696676,5.568321382453953,4.28539280752549,-7.429794168393492
2.564,8.185716842485844,4.37952335960159,8.570598731669792,-8.461113819582373,10.066620528633319,2.996327907829614,2.225359247977547,-7.740479053886016
2.568,4.538856297850901,1.7834003828911127,6.265892725515218,-10.849622634099772,6.971081052456029,-0.05127129759247184,0.20008633164623402,-8.006627908707415
2.572,0.6921496370612545,-0.5492446030451772,4.02547967184885,-11.874445128060957,4.27634643787888,-2.4004747884178754,-0.7933410665704228,-7.938014569316783
2.576,-2.6136985935203576,-2.2757205913403,2.154203538253958,-11.672875889261693,2.2865368850753187,-3.3943318508489986,-0.2668766062761653,-7.205583704971294
2.58,-4.731874379770749,-3.317745049799115,0.7871270157532839,-10.629339501711149,0.9196785611410319,-3.1720864555281256,1.6336494921492817,-5.662088818883153
2.584,-5.305287406811209,-3.7428885053187892,-0.00045492031143268274,-9.139467933181505,-0.05535944989177555,-2.481154270328752,4.340737121743362,-3.458788974538856
2.588,-4.3361318776915985,-3.5967229404647076,-0.12319317631373661,-7.408019063799338,-0.7704938815917446,-2.155871365496653,7.226750148939152,-0.9954769962332923
2.592,-2.1317641449852545,-2.83972810458159,0.4659625994908341,-5.422176176538702,-1.1793045168298488,-2.5934864090097856,9.853197843312309,1.237637417295959
2.596,0.83371029470208,-1.4271483393973026,1.6520283276374381,-3.096242625334763,-1.1706171256077074,-3.5525596664427455,11.963637574931527,2.823933851139339
2.6,4.074716520127144,0.543706834255822,3.0726113474010877,-0.48207424725438397,-0.7565487629556789,-4.369980684439231,13.300120642974843,3.5195821426000897
2.604,7.185651841367616,2.743646747593279,4.186124556801721,2.098483744069237,-0.1691629272148305,-4.4322120733950126,13.468545240487938,3.2748168359161376
2.608,9.88566760099255,4.706027763722785,4.526960106448884,4.134434214790451,0.2556608784404335,-3.5859661125679967,12.051661828658512,2.2212104843361846
2.612,12.019034812800768,6.063206165161372,4.0173039104394945,5.181758810283132,0.3328160862794407,-2.229986570305472,8.95531298753341,0.6657635698072664
2.616,13.523506018797598,6.773434107665315,3.123868750478403,5.137110892514511,0.23411817345588704,-1.051227195638791,4.751132389943792,-0.9296346323645146
2.62,14.393959249002924,7.166445398920445,2.7036539632068495,4.340157643373047,0.46058838994318974,-0.6009237574953801,0.6948031749424146,-2.0396083644922918
2.624,14.63615297565861,7.713951611934578,3.542003301430619,3.3970699185397635,1.518005267900696,-1.0033402272367884,-1.7546888019728968,-2.2838128813928
2.628,14.204492594879067,8.622020206153223,5.780694220983879,2.7853885450068288,3.4429738646102725,-1.9860962171370302,-1.7539393016976037,-1.7102908658837235
2.632,12.935958208903262,9.481882454825998,8.56185885352252,2.450877324911492,5.470469847571327,-3.1961391324623407,0.21919815808360976,-0.9928696905862626
2.636,10.541031599539336,9.252258164327918,10.168496342693395,1.6666227771742328,6.123756975096992,-4.567051491675401,2.261763394979619,-1.3665091480194045
2.64,6.731825979567409,6.686280185754775,8.70486895032078,-0.6697255217181182,3.7975160037600793,-6.44259210463132,1.7636656055705018,-4.186214453925007
2.644,1.4488231175544306,1.0409277357339797,3.0501330917555824,-5.403271274046093,-2.3927279244852877,-9.333946630403174,-3.2868095208409334,-10.218647982010783
2.648,-4.91143548222474,-7.280805418912565,-6.364819574465279,-12.462168320206501,-11.909534454191752,-13.44338253834354,-13.041737789276011,-18.99065011862227
2.652,-11.39217638799907,-16.545200844499107,-17.399552892309263,-20.53759831380018,-22.6564851436558,-18.256025871793724,-25.28568332157908,-28.56624801238091
2.656,-16.623782860753685,-24.15461614736367,-26.844807300050615,-27.351596008322524,-31.569729031548825,-22.511043457358085,-36.06659197251021,-35.998486800660004
2.66,-19.239425212588962,-27.630299805354912,-31.6452481361494,-30.47736681771932,-35.746913425997754,-24.637085501485323,-41.272061919304235,-38.37273642830197
2.664,-18.423506301499952,-25.681941195239183,-30.171684933520577,-28.372002872351477,-33.62873753941403,-23.457413505473756,-38.43742811522393,-34.02077741180827
2.668,-14.330626945498508,-18.833547086672834,-22.926259546875972,-21.115317000760392,-25.669828020363095,-18.803358605369212,-27.905713219462775,-23.342569921668613
2.672,-8.16412989441983,-9.290754412729605,-12.35843107541494,-10.491656311805638,-14.190460238372475,-11.688229148708665,-12.76393844888262,-8.82179824209711
2.676,-1.8191864322422737,-0.06059964477497898,-1.8411782769136522,0.6708371738888759,-2.445709025513641,-3.9279985290714943,2.445552537254392,5.833268864875487
2.68,2.7928516906373453,6.275092485237101,5.717722873584538,9.608879163415473,6.661298970998019,2.6049409998711717,13.625087815393298,17.06594279579497
2.684,4.449403494049838,8.553232108615418,8.972944056672208,14.665836899297817,11.624289999183286,6.721545724156467,18.70899908705814,22.744674361467688
2.688,3.055276016592991,7.351844679957204,8.476316849208143,15.80387231736775,12.704142740887638,8.289885092662708,18.226102006516765,22.781218216919285
2.692,-0.3911695000786424,4.507757427517798,6.120378949994043,14.362990945392642,11.491321484322976,8.09144236295454,14.655473978458392,18.865979682747863
2.696,-4.2789390814946175,2.124565746809007,4.055804047492847,12.238283425995823,9.955913659520604,7.274521197779077,10.987223868476415,13.51998665059376
2.7,-7.0856188738441634,1.5828970834657952,3.6582910767669485,10.90743822472144,9.491244789090489,6.727550446009195,9.263153721457364,8.960405678169053
2.704,-7.982536711672805,3.0096522504535144,5.015228246736859,10.776661770992526,10.385577813371452,6.695505392976003,9.79042602415191,6.299215013280736
2.708,-7.060800908513077,5.435619207089063,7.135295769151357,11.150349575190525,11.93410074239836,6.805555002968328,11.332690584532761,5.396456853653772
2.712,-5.135721448044356,7.463099993888321,8.66980298952726,10.767816600908471,13.035034306645546,6.424120513586441,12.05505667483688,5.311196279995422
2.716,-3.24795732824753,8.054962087214623,8.710526888954226,8.600301527241589,12.90053165092791,5.1080425369241755,10.645909924362186,5.01407933774631
2.72,-2.1282513306763597,7.029736713942069,7.2445009311773525,4.48707342270815,11.494790111927468,2.899221413043509,7.0201856428877685,3.962800754449159
2.724,-1.8980465256673877,5.020436840643095,5.050966293208573,-0.7186467691742138,9.473704390116922,0.31380900695045844,2.2813596914651666,2.2586711098472376
2.728,-2.110087855296009,3.0102811257423365,3.1863972542180155,-5.523749531302857,7.737612522785268,-1.9231715204682969,-1.9419368459221067,0.39984900317933514
2.732,-2.0819486046550377,1.7375470833672482,2.375083875419937,-8.486630335996992,6.874741151811357,-3.227438505207969,-4.370333589119646,-1.1388715796340683
2.736,-1.3328846893246613,1.3122380320805527,2.64477620877554,-8.876704813246906,6.812824741127793,-3.407763859247466,-4.684220702333216,-2.236276744735547
2.74,0.11023958245656718,1.2297444680731742,3.367293281667218,-6.986037322575121,6.863799383273946,-2.7050871931080867,-3.584674153367586,-3.173750829178192
2.744,1.7165078513938734,0.735228174322847,3.6278290024103628,-3.9483174606697915,6.111130997056253,-1.6230448609681867,-2.343107141607204,-4.394836746092748
2.748,2.738086117065829,-0.6937732569941453,2.7246406567099504,-1.1779101323899317,3.933036798255076,-0.6645814008942819,-2.1053824382456905,-6.151680632812424
2.7520000000000002,2.6208849864605215,-3.039943894784395,0.5182734328092455,0.2852114860805599,0.36440162652897534,-0.11696802883177038,-3.3306791620583915,-8.262732373730698
2.7560000000000002,1.3430037919872282,-5.757946862687509,-2.5272243555152505,0.22456100347562247,-3.8846593555227074,0.020644392998688588,-5.633410254106745,-10.139669557949414
2.7600000000000002,-0.5272897537962078,-8.06780131239491,-5.571824951602471,-0.7274502401707181,-7.734215157629112,-0.048173800660671784,-8.056446311045294,-11.083617662722329
2.7640000000000002,-2.0947569480054273,-9.358078615735796,-7.777152503793025,-1.4829372176733058,-10.213784358962426,-0.0961021018380861,-9.601497092267234,-10.69912893108255
2.7680000000000002,-2.5718946708642787,-9.447870892291363,-8.6404236388875,-1.0812234899478268,-10.859315570985775,-0.04109406797401105,-9.720501252607187,-9.183747399246407
2.7720000000000002,-1.6797425028373514,-8.595766166953716,-8.151818689554437,0.8168762768105706,-9.853659966484894,-0.012694767473575563,-8.536890060691764,-7.311922240136073
2.7760000000000002,0.19129667424726682,-7.289847930216173,-6.729582160122062,3.7696816105666517,-7.867809369337225,-0.2783241498399147,-6.725459385560634,-6.104826932133321
2.7800000000000002,2.1413584134312202,-5.976453337369238,-5.0151243973625315,6.786572447902519,-5.727257768129514,-1.0746234545680333,-5.144600592851974,-6.335958325062608
2.7840000000000003,3.1717889569153983,-4.891910452322604,-3.6142456745558644,8.823812106534657,-4.071094084601704,-2.4259688330888443,-4.4264825047429746,-8.112451087974547
2.7880000000000003,2.652253081206178,-4.066401891289728,-2.8749337325060127,9.292942877506139,-3.1509995403137,-4.049954779363297,-4.71957612294016,-10.759104811480148
2.7920000000000003,0.6026609497526385,-3.47290720490464,-2.805805603162353,8.300933958701496,-2.8595977343267283,-5.425116592522586,-5.692613715632938,-13.1085130415897
2.7960000000000003,-2.310004878191732,-3.16558617647742,-3.1294843519100333,6.537553992663668,-2.9115661418966505,-6.006246752997927,-6.762080052651921,-14.0635515546555
2.8000000000000003,-5.054119666685011,-3.298872256460222,-3.4433084045070173,4.882472752666434,-3.060223531476959,-5.485967428701165,-7.406988382356253,-13.1484502609967
2.8040000000000003,-6.672448538349634,-4.026750443445458,-3.4264940536131157,3.9392605873022006,-3.242787572048171,-3.9806127148501886,-7.407088960057387,-10.76921888484243
2.8080000000000003,-6.658593268368977,-5.340267225441745,-2.9848593879611784,3.7638080086809147,-3.581053546520946,-2.033541804054119,-6.898666130673274,-8.031084415089056
2.8120000000000003,-5.1155245878163065,-6.972730862274939,-2.2812699274121706,3.914232219212598,-4.268588087032802,-0.40773949804310355,-6.2451756901619735,-6.189741712546293
2.816,-2.661107137060606,-8.4505397709082,-1.6243165119049858,3.7728156482587343,-5.416622997945901,0.241395966846266,-5.811539185121509,-6.010400139867107
2.82,-0.16267220680823247,-9.29578424174178,-1.2852492611313888,2.9316543510463453,-6.95684313479136,-0.34587030442678224,-5.770742561011607,-7.3752230030613966
2.824,1.5792052220238142,-9.276296536047775,-1.3540839268332467,1.4208504353437306,-8.660355096970882,-1.9280542415287372,-6.048005932361162,-9.359330902065928
2.828,2.087610594287068,-8.53154056952858,-1.682536115919632,-0.3280036055864102,-10.234454151732184,-3.9064709257808894,-6.414349986277651,-10.738580734627568
2.832,1.3043761998934964,-7.523243669281581,-1.9687313166514784,-1.7575288546142307,-11.452472586530455,-5.645238302248968,-6.655491484545513,-10.64617443873197
2.836,-0.46050719402558765,-6.812835550792115,-1.9237269311015406,-2.515514107234784,-12.234580908236042,-6.791605487637703,-6.71446058152344,-9.030729013735687
2.84,-2.6737912609623913,-6.776496320693677,-1.4212329769384229,-2.6347975530080925,-12.634103826634346,-7.4201827488381005,-6.718225238867757,-6.657806303475005
2.844,-4.769855011177573,-7.424673224736102,-0.5579945060449469,-2.4704385161451685,-12.757422142262252,-7.929890817050434,-6.879683456833868,-4.671806021006519
2.848,-6.307214289779821,-8.393698397218486,0.423183852961575,-2.4316759885719827,-12.650780251148763,-8.741381409390689,-7.335319101895005,-3.9688950125685603
2.852,-7.076442727575255,-9.12802487721377,1.2653464441409312,-2.700291478291253,-12.245257873788947,-9.985754843552714,-8.023144264806598,-4.734971335317297
2.856,-7.117223576407713,-9.14255177264229,1.8165774902720075,-3.0955080427025825,-11.381957485869837,-11.363400044498615,-8.677729142298794,-6.402468142209641
2.86,-6.638683703128525,-8.228006125327376,2.072916743269184,-3.1647482935583824,-9.903050260438894,-12.26309328435866,-8.949427053640948,-8.02576333346269
2.864,-5.900467221957828,-6.535113186049901,2.113173706105063,-2.468736222193425,-7.785277311311259,-12.093658698727983,-8.596847515233897,-8.849350926026691
2.868,-5.093130309796907,-4.492312171407782,2.00113574628715,-0.8852933343989742,-5.228781926016329,-10.634150669134204,-7.641451621970214,-8.725496498547516
2.872,-4.275539096410621,-2.620009269169619,1.7279654402758542,1.2497324459808428,-2.6521013981340724,-8.200060929600603,-6.39691590524581,-8.132787603308357
2.876,-3.4223313255715,-1.3421503348128487,1.2365109678321557,3.2319106065100023,-0.5939992561049952,-5.529571698516356,-5.359541061730014,-7.8185059474760035
2.88,-2.532151302054041,-0.8592982072858,0.5092139867925285,4.271467058411355,0.4478740376214887,-3.440262216384648,-5.005107712584932,-8.291913377666962
2.884,-1.7462102423551222,-1.1348137740173865,-0.3579804483515612,3.8155711283696174,0.17416290856274808,-2.451390351598445,-5.588928360432347,-9.481891929700485
2.888,-1.377520286668748,-1.9548081471029803,-1.1543815442526095,1.763660974610295,-1.4091738137133811,-2.5748324122672432,-7.048511469018171,-10.766911813251882
2.892,-1.8086498497856067,-3.033917601915847,-1.6529318673395168,-1.521265364900036,-3.9826661851345007,-3.37868499293471,-9.043482179917024,-11.346815839839861
2.896,-3.2968889653830855,-4.1182815750968,-1.7513509486282637,-5.396418434275449,-7.003020890943513,-4.277455901947245,-11.105888835081444,-10.7337457670446
2.9,-5.779486015987449,-5.0460149616484795,-1.5709860125925514,-9.205227087027481,-9.862012811800536,-4.8678526489648855,-12.815956180874927,-9.058363393059084
2.904,-8.791449061620002,-5.753702001939115,-1.436827729932482,-12.488061859809562,-12.057917241156662,-5.111720364386282,-13.913554597077558,-7.009739187139468
2.908,-11.55761779785491,-6.217300350330178,-1.7164070735518755,-15.036271484776368,-13.304415902770096,-5.259883292375233,-14.300486486158734,-5.43732873887932
2.912,-13.238834085957492,-6.378409603078487,-2.616746045630752,-16.795478553408905,-13.556485675426613,-5.578279730786856,-13.962029181800151,-4.847826917622663
2.916,-13.22499828199081,-6.093921768632564,-4.039571608772678,-17.697029018894835,-12.941956454482614,-6.0690564239895455,-12.872391981997886,-5.0955837575776135
2.92,-11.345221790960794,-5.147636891103968,-5.573716710519606,-17.543729438495497,-11.635207422765747,-6.369011038668095,-10.968768173513727,-5.4546374661844155
2.924,-7.919280411828922,-3.3540576761856227,-6.651158317945599,-16.048312173825984,-9.752025931823983,-5.918165605611806,-8.218801759605906,-5.027557345942869
2.928,-3.6493887017319566,-0.7046530510567033,-6.777530040050941,-13.020762607566773,-7.31024634379657,-4.318677631111558,-4.731965669039892,-3.258470708863537
2.932,0.5845639183049252,2.506801397261894,-5.7357232753743626,-8.617931057874246,-4.289486849031759,-1.6591723318815395,-0.8466332364291635,-0.2698940812500821
2.936,3.9537091344274216,5.678637254339117,-3.6733329805910766,-3.4934893311353727,-0.7564182809445077,1.3930051889322452,2.8837511636476294,3.1591183913546583
2.94,5.894311315930502,8.066536387335358,-1.044335305847522,1.290513750895739,3.0221149856746288,3.8280610525978935,5.840417803331298,5.961448745062949
2.944,6.248663476626133,9.059625259420747,1.5486102026553323,4.593493374310439,6.548363891023092,4.757080109255606,7.5656761742934675,7.286943855688853
2.948,5.285921859985095,8.445361635498884,3.5384077913033627,5.640729032914958,9.19397011297365,3.8559469773260147,7.9455902609355284,6.873922552226369
2.952,3.6204408321199573,6.525258490410147,4.537150872911206,4.383099429256521,10.41357270866187,1.5495028666156911,7.258478271825416,5.114553629963943
2.956,2.019539514695038,4.005693691547188,4.420772138230894,1.576287856806704,9.987018240195725,-1.1794748897957663,6.053614000893173,2.803754360652407
2.96,1.132222177192578,1.6964749290140577,3.3501765650396513,-1.4975638417551884,8.16948864336549,-3.266323553033022,4.912349801180337,0.7278901592210199
2.964,1.211747049014686,0.14898857566228085,1.7284118769311227,-3.5684524839328193,5.655180175389634,-4.071632382971026,4.218303998099893,-0.6733286398412868
2.968,1.9797699967246394,-0.556116544261286,0.1133644464086132,-3.9202973067532665,3.3574676812408324,-3.6478802292273276,4.048645010016953,-1.4071332563822616
2.972,2.7283571855063373,-0.7718569060703426,-0.9216480151371162,-2.6782491429988253,2.0686511645497063,-2.633853483030747,4.224417118838285,-1.778752697867593
2.976,2.643184165301194,-1.0252556857897226,-0.9667975902061035,-0.7024065485759721,2.1493945581260276,-1.8492778979093403,4.471673457279,-2.116581188340556
2.98,1.2021673470454015,-1.6865871649635904,0.05459639753760548,0.8449174633564643,3.3885280688059214,-1.823043900480919,4.587873023851435,-2.5407416773851264
2.984,-1.5301424834250026,-2.7650693849565586,1.802103376117209,1.0519891650914297,5.0927543746978605,-2.523251241038087,4.520458034623983,-2.9017688607669063
2.988,-4.8710352682017435,-3.927928049550265,3.606099013591293,-0.33866127713856387,6.385761061968117,-3.43267403769251,4.328056479563542,-2.9046941258001793
2.992,-7.799679565018192,-4.720760263463891,4.7244709233123094,-2.8649541293126344,6.58450513174331,-3.9050003151987855,4.077836998396684,-2.313236757819213
2.996,-9.418843337822954,-4.853508750782583,4.6699781888815775,-5.615607569939881,5.487076777225195,-3.57890187965606,3.773264135882017,-1.1037684664190048
