Timestamp,O1,Oz,O2,PO3,PO4,TP7,TP8,Fz
0.0,5.286437954055145e-12,-7.958078640513122e-13,-1.2505552149377763e-12,2.7284841053187847e-12,4.774847184307873e-12,1.3073986337985843e-11,-4.320099833421409e-12,9.322320693172514e-12
0.004,-21.588975074190387,-41.903857175456096,-32.82981345693463,-22.763538227081256,-39.906965214927254,-10.596973867665838,-18.58265908011208,-15.369431542079383
0.008,-38.757803237909854,-74.57831049407247,-59.30201106048497,-41.2098050343746,-71.48704384937372,-19.984755719849545,-35.46151856437655,-29.193465890835796
0.012,-48.75164242539023,-92.47882385315742,-75.41442894312331,-52.506673039259624,-89.70493513161847,-27.11079923836462,-48.94670478993487,-39.98048028247172
0.016,-51.34164580845436,-95.62059836361433,-80.75805425296409,-56.110860596015414,-94.47477111616365,-31.224531619488175,-57.51339545762431,-46.42958165872176
0.02,-48.480798377427845,-88.7822308868484,-78.09472785940113,-53.54248740116668,-89.92313332722316,-31.99395033250562,-60.12466951841492,-47.66556301654805
0.024,-43.04189053408709,-78.63214904628796,-71.6241698059273,-47.353438031143185,-81.82367965975095,-29.571048126041433,-56.60381404797391,-43.51667445470616
0.028,-37.37056373102547,-70.43102245543426,-64.94151614896208,-39.901705260960114,-74.70609803607772,-24.571539631666383,-47.85282882475087,-34.68836928571534
0.032,-32.46685906070189,-66.08752249060831,-59.78204961750487,-32.59267329250565,-70.22184849912563,-17.95931650230898,-35.77392451615003,-22.728760792221237
0.036000000000000004,-28.13334816745686,-64.40688278764725,-56.081249919597724,-25.8909898600744,-67.47088429766191,-10.861471972969866,-22.864896490182502,-9.753690860134725
0.04,-23.82617364738354,-63.00070786638213,-53.02748513800418,-19.902253995597277,-64.73848273832783,-4.347741211036237,-11.60094227855069,2.033875176832453
0.044,-19.563123916281427,-60.435050917321604,-50.23830665796379,-14.999669960471635,-61.306440940184785,0.7750912282365334,-3.80312838391319,10.884107672395885
0.048,-16.26678084772925,-57.2682838558388,-48.27539627127618,-12.025455846249486,-58.151683501031584,4.092169137797555,-0.2273424795084793,15.914415330712245
0.052000000000000005,-15.365664316248115,-55.525550775992826,-48.26358589046322,-11.947284200267745,-57.21727740807739,5.591486991886313,-0.5179835964851236,17.25515301402868
0.056,-17.93541066314515,-57.168595111064946,-50.98656616642688,-15.223793092900394,-59.89432489434782,5.578900682499693,-3.4913011756183323,15.88322757673427
0.06,-23.928488661277072,-62.63740104387702,-56.11697272528971,-21.325701159056166,-65.79823970914651,4.535062507715111,-7.607728072053703,13.207530832875591
0.064,-31.95819393440263,-70.36801615680548,-62.09194069221536,-28.739867662750726,-72.6479442491547,2.9586292774489493,-11.443305278614218,10.560435664680995
0.068,-39.76583379393497,-77.51352394401053,-66.72288653787254,-35.48904685277347,-77.3274372456795,1.2537646392439115,-14.00918397433162,8.78807463595922
0.07200000000000001,-45.125119409731724,-81.38814130749512,-68.19512284822804,-39.90399467524571,-77.49286413909675,-0.31685415024765007,-14.874906934796115,8.074619347150701
0.076,-46.72726089599692,-80.77989524220888,-65.9027054018238,-41.25051500813612,-72.78619304999782,-1.6286073293635468,-14.146097599334325,8.017771986788205
0.08,-44.61054443933514,-76.39403910479052,-60.66341028599604,-39.89528719560002,-64.95006804656353,-2.66257447742737,-12.342828281716663,7.904930498238059
0.084,-39.96711429689046,-70.26088984177531,-54.227277417651266,-36.95775435644907,-56.81620911761647,-3.464092410150556,-10.209902232298134,7.069136951260077
0.088,-34.483325132869055,-64.54793420597932,-48.38942191303639,-33.67442345789647,-50.79888458128988,-4.100317900274604,-8.469277450738502,5.19817809789572
0.092,-29.598076292548257,-60.535039665194205,-44.230989149445264,-30.851540328734075,-47.79621624775132,-4.620614828883333,-7.582111221314676,2.4682663325189083
0.096,-26.035583153454894,-58.29233722183906,-41.86383373150272,-28.679099082362995,-47.07715806829751,-5.034319295309274,-7.602850749501954,-0.5504948987945681
0.1,-23.777783850980768,-57.07297134627444,-40.70273318316302,-26.930082007956287,-47.07193749050583,-5.324769481433805,-8.198272782082427,-3.166101086862284
0.10400000000000001,-22.382799266406465,-56.016759742713504,-39.98994663823481,-25.337922402577362,-46.472543067631676,-5.49263179877056,-8.850111512231535,-4.899046346603882
0.108,-21.412105769525766,-54.695455724319714,-39.24409164164487,-23.887032663054384,-44.97365962264763,-5.602101870392175,-9.161496647510432,-5.716782734213211
0.112,-20.73651442196669,-53.27375121987137,-38.45486270506956,-22.860990527860366,-43.32287553214272,-5.796944802492419,-9.125975924854572,-6.053056791068627
0.116,-20.58152976749966,-52.31461253883785,-38.00673150987987,-22.657875420316685,-42.77688583550096,-6.244871793030711,-9.203417901789408,-6.590037199330254
0.12,-21.320658327020965,-52.39732724611227,-38.41318168018452,-23.504412704612406,-44.33199260360013,-7.018674580695233,-10.110199638455072,-7.895006226320504
0.124,-23.14006747769281,-53.751637188061466,-40.000526551581515,-25.240543458844115,-48.145295150642525,-7.986302039711859,-12.402310402519959,-10.092457281625059
0.128,-25.788710712336098,-56.07829036172279,-42.685225256851,-27.318713384786577,-53.428293946999375,-8.790663356151924,-16.07436741096359,-12.739802645166833
0.132,-28.613694430863745,-58.65925417819514,-45.975874286182176,-29.056931142438827,-58.85496139158079,-8.975017714740488,-20.432603478482406,-15.003137559452057
0.136,-30.89587466433676,-60.7098199382757,-49.20874354386348,-30.018879311474848,-63.24632981822282,-8.239521213799549,-24.36228064505417,-16.07399840002148
0.14,-32.286286598393076,-61.76912679874391,-51.86779749276792,-30.29516830007003,-66.13253351445576,-6.685390759245536,-26.85204495642745,-15.601843371869677
0.14400000000000002,-33.05355625645328,-61.90773241034918,-53.79373018219036,-30.486831200248503,-67.87866503112505,-4.885236431507906,-27.47931361581209,-13.9058942755766
0.148,-33.953385368758205,-61.648513855474846,-55.180176996113175,-31.37912451712998,-69.3399377258531,-3.6875183091586905,-26.581370659416166,-11.841368182514373
0.152,-35.73654546656391,-61.65842609882952,-56.37685292889,-33.46469405119234,-71.2722809039391,-3.8150028323155993,-25.00635285410874,-10.387743340644533
0.156,-38.57966175980715,-62.379042735425315,-57.618911216834874,-36.591346378217395,-73.84463709960406,-5.463468478956258,-23.595549273590564,-10.183305709506044
0.16,-41.79479195499732,-63.761817117494445,-58.829099559435235,-39.9552843158815,-76.49616628782468,-8.132268466084838,-22.718519179116925,-11.266044250714685
0.164,-44.018858928147836,-65.22598433069379,-59.59628809810539,-42.45204401491435,-78.18161715724031,-10.82090837799035,-22.14999749637707,-13.173487568339624
0.168,-43.851358150000806,-65.8957997779444,-59.367082516811195,-43.224106024432444,-77.89044937872904,-12.515962208329029,-21.35325098197734,-15.317577091230646
0.17200000000000001,-40.64946909411884,-65.07186315568316,-57.786572497543716,-42.135114699872645,-75.21571471048708,-12.715980057889851,-19.975435016063898,-17.38941524791926
0.176,-35.015256063867355,-62.69810485071082,-55.00031754486025,-39.88723067273406,-70.6861707531333,-11.705670161263924,-18.222353564497894,-19.542244917549965
0.18,-28.658383039235332,-59.509727586115844,-51.688207666861615,-37.684955883332236,-65.62563243944379,-10.3945544391878,-16.832641008911764,-22.211026629959747
0.184,-23.63890693218201,-56.69468273908802,-48.7417433817385,-36.5849560351848,-61.54438005192401,-9.799609608103538,-16.630694663253735,-25.68665075310662
0.188,-21.38205037672401,-55.22903175631495,-46.766828113612405,-36.891695968659974,-59.37589969520434,-10.470612873833147,-17.945540807272323,-29.728051309892862
0.192,-22.029654758219806,-55.30671898061706,-45.7386708884128,-37.971788887898015,-59.008656126781545,-12.185548047711336,-20.286958636186114,-33.48462869172943
0.196,-24.501295336378234,-56.24685955353459,-45.06102880378529,-38.63225792182561,-59.41355736326972,-14.096874594804717,-22.528176958052427,-35.83687582981304
0.2,-27.19094932791552,-56.92412863910806,-44.010502253169534,-37.853732148289055,-59.28947166647623,-15.23812437212257,-23.523462224914965,-35.9839113191681
0.20400000000000001,-28.85527494032624,-56.43717177244986,-42.26844289087097,-35.43245444783793,-57.83067414007701,-15.0796033367144,-22.79213409838553,-33.93491153252717
0.20800000000000002,-29.1650388270171,-54.600577973556085,-40.18782110234906,-32.138971743775755,-55.17071047836464,-13.795116440706465,-20.835244809097958,-30.58736727589553
0.212,-28.660031334524433,-52.01315559981026,-38.64425295616644,-29.31453260347564,-52.29648904042239,-12.101360422672883,-18.89221322185915,-27.33282777657496
0.216,-28.224461698020093,-49.707268486786745,-38.57208901569834,-28.151222900270568,-50.52337439287015,-10.79290247038432,-18.278106814005696,-25.40469583778338
0.22,-28.451841326248314,-48.578983483001196,-40.438560215968096,-29.058252765386896,-50.82278509366682,-10.267563039970128,-19.68000268565038,-25.310806181992916
0.224,-29.30721500386869,-48.928523680331125,-43.95949891904644,-31.47087309683343,-53.3597481823013,-10.338164334202247,-22.812091068188693,-26.668974043555636
0.228,-30.26332736929362,-50.38305431048718,-48.24534329619229,-34.21078418568834,-57.494805718978625,-10.427802432684302,-26.62161346462301,-28.514259447804534
0.232,-30.76330128785969,-52.22839719522881,-52.29730832775374,-36.1754490005618,-62.21918390851647,-9.99980821451254,-29.893763326752833,-29.86791788781011
0.23600000000000002,-30.63374333144725,-53.86488018789862,-55.51233942092648,-36.925447482324216,-66.68519304995033,-8.93789281764748,-31.86796311541036,-30.23542761053386
0.24,-30.15926065174847,-55.08689585793229,-57.8865150035723,-36.84057600913775,-70.50482944823693,-7.630682242244347,-32.50965378765977,-29.756477745290795
0.244,-29.813198768417692,-56.07070417948455,-59.835846356998786,-36.79659201358652,-73.70396943413459,-6.717320290639691,-32.32713758444049,-28.96630624950967
0.248,-29.866005074045802,-57.09881887958761,-61.752759983416695,-37.57923209369471,-76.39474665178119,-6.680142853251709,-31.909419254886757,-28.37938157165263
0.252,-30.156483951155565,-58.21184147801455,-63.5794470297684,-39.38418916995272,-78.40669026056906,-7.542230172914515,-31.51182817550034,-28.175486151283167
0.256,-30.19858172024101,-59.06718598474686,-64.70470746527144,-41.68619122979828,-79.17130731314899,-8.854927838384128,-30.952386374903426,-28.169891176020656
0.26,-29.55009187324299,-59.12219234683084,-64.28291837818847,-43.535847955040026,-77.97183042148731,-9.961488054993424,-29.862288401338446,-28.04936225020674
0.264,-28.148285073333227,-58.00079011850528,-61.7734868776821,-44.06418334749367,-74.39989420939867,-10.361354115239465,-28.074839325551807,-27.667375183100603
0.268,-26.32978127951924,-55.73015280704146,-57.31595722103748,-42.86815053958935,-68.67048244862292,-9.935646538194987,-25.836445237011276,-27.165083066511897
0.272,-24.511541886399186,-52.66592138304941,-51.68822424553912,-40.077925027295805,-61.567381695612994,-8.919090490900544,-23.680364443844837,-26.825231532163116
0.276,-22.808234705932136,-49.21391636075464,-45.909039397668266,-36.16570921078676,-54.089881228721765,-7.689152194562439,-22.054367183669456,-26.78807647456597
0.28,-20.923404887370907,-45.6056692836238,-40.76476334395795,-31.705459487614007,-47.06459991564236,-6.539526649866275,-20.975113704467503,-26.85541516069793
0.28400000000000003,-18.431702252111677,-41.915075842404576,-36.553399269737724,-27.24927324648479,-40.96405644927245,-5.585064516584453,-19.978466142465777,-26.553232259218248
0.28800000000000003,-15.249245969611707,-38.254745614460035,-33.15239988248527,-23.332046614499404,-35.97456414288183,-4.827233626568159,-18.41878430262932,-25.45076373910524
0.292,-11.9253748590736,-34.946902244048715,-30.2961277619371,-20.4928716046129,-32.177161059781156,-4.282287667041828,-15.929457278221435,-23.530914117150132
0.296,-9.485522323837245,-32.49816997693563,-27.853415975890243,-19.19409306662726,-29.671528395768632,-4.044413861770408,-12.756944416360284,-21.352937962257556
0.3,-8.875402098240784,-31.38174048780502,-25.94808509592235,-19.63194628742508,-28.56850136590947,-4.216597689142645,-9.744141679136874,-19.867502522553877
0.304,-10.352252652006769,-31.765192484536215,-24.871174018689885,-21.556056982158452,-28.881689585363688,-4.7717274626188555,-7.939714828765318,-19.943740044142032
0.308,-13.218737855323297,-33.33354686084397,-24.83944913967298,-24.236548126876187,-30.384034826478,-5.4636500969613735,-8.042330918306789,-21.854729046885723
0.312,-16.12162489186403,-35.346268182685435,-25.775826014441236,-26.682415636678115,-32.56529470540818,-5.904481026755548,-9.994158923221676,-25.031672618407356
0.316,-17.792612916420012,-36.94980571943893,-27.276301361881906,-28.058183844934547,-34.77388169571498,-5.784515615895771,-12.953487576370662,-28.234277279296975
0.32,-17.781903346921354,-37.59306636960571,-28.79684592602655,-28.084287232140923,-36.49140393099492,-5.092891534141472,-15.659373873546201,-30.059083315558155
0.324,-16.73966986854623,-37.3143550955989,-29.952177480205023,-27.195430723736763,-37.585478406491006,-4.189514938866296,-16.998204854472533,-29.553076142837654
0.328,-16.02138762141908,-36.67277897726581,-30.701593820442554,-26.315108200147733,-38.33283070550351,-3.6369351338898923,-16.47017459227368,-26.616280088727763
0.332,-16.826488441144534,-36.33846878201143,-31.28689415830513,-26.337232163020644,-39.157828728274126,-3.8693801248348336,-14.329585861863961,-22.0023827009029
0.336,-19.41515625213765,-36.62466968646481,-31.989034324227873,-27.613833306395918,-40.26438025487869,-4.90656831800743,-11.38853841855007,-16.96833159143239
0.34,-22.899706314108926,-37.284241990786654,-32.89314572364856,-29.750163615272868,-41.417751504656394,-6.296149483273666,-8.628321882013779,-12.760531525235137
0.34400000000000003,-25.751849860094126,-37.70872963601232,-33.82391642427058,-31.831174189740295,-42.03282882186545,-7.337013886583236,-6.826613648330522,-10.175571111282125
0.34800000000000003,-26.69019511063118,-37.34449636406555,-34.44741195608867,-32.91698813609196,-41.48213025866471,-7.458365859309424,-6.338567499619785,-9.349106904631071
0.352,-25.369877577158945,-36.00439653928834,-34.42902951662688,-32.490295302681034,-39.40407167378203,-6.529758784761725,-7.05769170625922,-9.796933454715372
0.356,-22.462026991436915,-33.884510745137845,-33.55321755439479,-30.61480185081882,-35.851141990808856,-4.912800355595891,-8.520739261465678,-10.653880323606245
0.36,-19.13217885526683,-31.337093590406653,-31.77833553597452,-27.77491936811475,-31.2452324583752,-3.228748134706393,-10.089675762164461,-10.9967562246336
0.364,-16.283559002086577,-28.606216587915014,-29.2420319368872,-24.549725782889936,-26.21618176461584,-2.0025151700717743,-11.160393815908037,-10.160702156953676
0.368,-14.065472066312736,-25.715079219325503,-26.22916719708826,-21.339022095380415,-21.40643626886265,-1.3939981588630417,-11.347495669234604,-7.961508274731841
0.372,-11.943456835193388,-22.562723708643148,-23.11022008906275,-18.287761828820294,-17.31458487282282,-1.1678481133972127,-10.589759017006145,-4.767431469311305
0.376,-9.258530915013125,-19.16620003362459,-20.27799076767303,-15.418944121898676,-14.235475613063613,-0.9112292875120147,-9.155882596982565,-1.3889838246500403
0.38,-5.884798168600128,-15.872928820376728,-18.089564480535728,-12.836159781390734,-12.287942061272588,-0.3389856745486668,-7.52695823438944,1.2056298985580725
0.384,-2.523905714345574,-13.355717069238267,-16.7935913309841,-10.808146660109742,-11.46143124191292,0.5195433175217659,-6.175511733590156,2.273300376873067
0.388,-0.3738286681809768,-12.30096841595548,-16.424647823441774,-9.638397810177594,-11.603259007083125,1.3688906460001817,-5.326931828665238,1.6240526429633064
0.392,-0.36249950629735395,-12.946624898594337,-16.715160968199598,-9.406660145708884,-12.361032385250041,1.8811626440499367,-4.823485762045038,-0.26654066635410345
0.396,-2.4464015176861267,-14.798649459085937,-17.132468237080047,-9.794608694759518,-13.194255394322,1.941678907795449,-4.195087950019342,-2.4561025315392726
0.4,-5.461474228678753,-16.779057777768116,-17.105684564238572,-10.180009865390275,-13.545542780384835,1.7299554631749743,-2.9473653505629045,-3.980858582674955
0.404,-7.686134331839867,-17.79097475249239,-16.368209161243612,-9.99871138338358,-13.13693598585246,1.5702605662909264,-0.9251387190356581,-4.329785475151311
0.40800000000000003,-7.7944213266735005,-17.340960500471283,-15.180254719516824,-9.133192660122859,-12.17650847470145,1.6582150662156891,1.4894616868919002,-3.667947103100687
0.41200000000000003,-5.647305700620336,-15.820688389528641,-14.258314337663478,-8.073353156142502,-11.311130472554169,1.854395869822838,3.491960631876509,-2.673721047547133
0.41600000000000004,-2.4364649413414554,-14.274692317962831,-14.4156894310795,-7.707470296666315,-11.320484025964333,1.7052666999497887,4.250966914105902,-2.0823041081089286
0.42,-0.07810356890536241,-13.79935735370691,-16.105124107558822,-8.830257883926379,-12.712341883868817,0.7124025518564849,3.375787939161455,-2.2004573321860335
0.424,-0.19025601540533899,-14.946243380725946,-19.142474796030683,-11.65945499248869,-15.46440882507693,-1.3107539351622108,1.168833451147293,-2.7116453100543367
0.428,-3.1918448716596686,-17.437536816619968,-22.752115826187264,-15.626149714511257,-19.02615787899481,-4.010422363399357,-1.4979586115321126,-2.908860868688407
0.432,-8.01091807489729,-20.322060929990585,-25.906255837646768,-19.56674779214245,-22.55328046252953,-6.550037013044403,-3.6295501187985337,-2.2224952355536516
0.436,-12.579334324391994,-22.479368545821444,-27.788862191669068,-22.238735085226153,-25.25027262618778,-7.965793797551214,-4.623354604785618,-0.6974752916785292
0.44,-14.860975670651897,-23.19587892192635,-28.154768890019568,-22.891871022350188,-26.660921455306152,-7.6475180092747905,-4.562583998682612,0.8918445466147205
0.444,-13.863154278372122,-22.479785358852496,-27.37564886727864,-21.585343452699362,-26.75761823873404,-5.673143116990104,-4.103586884055176,1.4357566950188811
0.448,-10.102944499289151,-20.93379534941164,-26.139954111245743,-19.09073223777841,-25.80162149810053,-2.807762575682318,-4.0057829681118164,0.1859345729353663
0.452,-5.299983450667696,-19.290230422778677,-24.997051431563705,-16.452791077774236,-24.095354996122865,-0.1631999609730883,-4.608641125459826,-2.6817145935301596
0.456,-1.4810702297504577,-17.924571117393725,-24.02949584253497,-14.465406920405258,-21.80971575804506,1.3098962131352891,-5.5906149699635534,-6.009085245919778
0.46,0.009476241232050597,-16.66914830468295,-22.87185729238422,-13.360293375265655,-19.019405865112958,1.2468221771259778,-6.170244127541537,-8.201995238688596
0.464,-0.9021215111001766,-15.030451111647835,-21.061965216607405,-12.836644612589907,-15.902721834844328,-0.000898493766271713,-5.632974174736091,-8.103249449018676
0.468,-3.095098189695136,-12.613861123292736,-18.471795379435207,-12.354523360261965,-12.899676734244053,-1.5792424198525623,-3.842146378982079,-5.68603068965831
0.47200000000000003,-4.907467164564196,-9.449766239296196,-15.509658422146458,-11.47900668514535,-10.64102576767732,-2.557619729194357,-1.3907756704388703,-2.1303464703369173
0.47600000000000003,-5.0301712160430725,-6.032524846309798,-12.961994362530731,-10.086171244190837,-9.654093095061512,-2.3488158020008996,0.7197442196888915,0.7917713676761196
0.48,-3.1716853630925925,-3.0730440515806094,-11.569555951481561,-8.350718394225623,-10.031057223704238,-0.9255608158341602,1.683176468615784,1.6845209995271944
0.484,-0.19909651522971217,-1.1683044984806656,-11.619322496648692,-6.6032367392479046,-11.315533895392946,1.2284074951508046,1.3831138857258338,0.2848152830897561
0.488,2.2995134241657524,-0.5632627300039985,-12.781739227270464,-5.180473715670814,-12.699377677220696,3.3745785251398956,0.46364171796290066,-2.431379634568657
0.492,2.8336978558422743,-1.0931699851814756,-14.275587975309008,-4.326763173093468,-13.426498445202697,4.840130992741251,-0.07477785128412506,-4.848496404632442
0.496,0.7833006188291165,-2.310565210834511,-15.263606449029567,-4.168316994011093,-13.188452880787281,5.251419127916961,0.4873412037329672,-5.652080769981239
0.5,-3.2503176329612415,-3.697189998029444,-15.258592595832624,-4.7189249250257035,-12.287071468529007,4.611143490355516,2.1168051329218542,-4.544115786750353
0.504,-7.683057296927473,-4.847424980889173,-14.322791064875219,-5.873432595552231,-11.468011192126824,3.2347932919847153,4.01598641599594,-2.326992217195766
0.508,-10.6802903499281,-5.537509983887389,-12.947104006289578,-7.385362715061547,-11.493252606672172,1.5974355875309811,5.093324890196072,-0.3323307761479555
0.512,-11.02192287590492,-5.682447747957667,-11.699341700043647,-8.871979660799298,-12.679075523318375,0.16571011135965819,4.627334318071007,0.4361679965982148
0.516,-8.665931012949159,-5.264699355356697,-10.868683477178706,-9.895808755031112,-14.67012863690411,-0.7248026456791195,2.717425703793424,-0.07953979270723721
0.52,-4.762210080260729,-4.329832227132897,-10.326489098279808,-10.140218064064356,-16.601833853534004,-0.9368465536661006,0.238484651646786,-0.9952002127909054
0.524,-1.1091275917949588,-3.0537712002148965,-9.683908326350092,-9.591679976088017,-17.57323880678507,-0.55573672627429,-1.6793976161602586,-1.0991092768999806
0.528,0.6827832651570134,-1.777085671406212,-8.60545903932541,-8.595087477925517,-17.136074808139824,0.14320780391653898,-2.3201964420868535,0.32873316019754384
0.532,-0.08070802248744258,-0.9080687150774338,-7.048295677401825,-7.698513663165841,-15.50500980635411,0.7841976654146947,-1.784538997996151,3.005535677192256
0.536,-2.905729897537867,-0.7227775039060589,-5.285408794000887,-7.344161885040421,-13.39023293409241,1.0190903024899853,-0.8860300431103951,5.744548775725207
0.54,-6.424771035318031,-1.2018842750409249,-3.7302377435368044,-7.583525575166277,-11.588278846231788,0.6651021711370504,-0.6186130043627145,7.111048177288012
0.544,-9.151544191238713,-2.052984917493063,-2.711534896568878,-8.027068328645328,-10.605028527095214,-0.2209515800191184,-1.5498630346626214,6.229134874431793
0.548,-10.23849927253093,-2.8809927648801477,-2.3044350245347687,-8.058681729681894,-10.473815390498771,-1.3641543388469017,-3.4824265233730785,3.2900982618041326
0.552,-9.82580153595643,-3.3842314048916933,-2.2893078877475546,-7.196582412291718,-10.808648408853173,-2.3863861772854307,-5.561558042888464,-0.5081236210583029
0.556,-8.824571372010496,-3.4615694357597704,-2.24955969426901,-5.393406885857985,-11.02417894409939,-2.9703853036821783,-6.741145026638833,-3.541055973797711
0.56,-8.278736695965677,-3.1712015810667253,-1.7483091843239436,-3.0855048282460302,-10.58897953454175,-2.98609259883483,-6.326841788295269,-4.519113067299486
0.5640000000000001,-8.723337992903112,-2.6143574607389155,-0.5229885940262875,-0.9765459874720364,-9.227613769994377,-2.5296259729252597,-4.2984704984212385,-3.0470196666030915
0.5680000000000001,-9.90906769781941,-1.8289495747050069,1.3934356880605492,0.328582531996517,-7.002129757607008,-1.861084668239755,-1.2632587320038056,0.2687193362519338
0.5720000000000001,-11.01650762058398,-0.7678881470884562,3.6728973788667645,0.6426261445888031,-4.276390260187213,-1.276064958812185,1.8813303013027962,4.158275952244594
0.5760000000000001,-11.238359640958606,0.5911935286328571,5.788716970284668,0.2638393114550581,-1.625267779685032,-0.9856768562192428,4.352908100628838,7.250550226149471
0.58,-10.339265369890654,2.090844982375984,7.165665393339054,-0.23484194670390934,0.28464327564665837,-1.0546616016754342,5.738949294374379,8.584917103411954
0.584,-8.836890427000753,3.326346141666363,7.3531255672130555,-0.35255489117298566,0.8488203688567637,-1.4209858478261594,6.028826656798174,7.889171861563
0.588,-7.6841667358715995,3.7715852009139326,6.192060318492622,0.06959207407385293,-0.270634750090494,-1.9660448464253477,5.479088769253849,5.567656547650358
0.592,-7.659036306583062,3.070809408937407,3.931757858920605,0.8020754714832492,-2.9336910318564833,-2.5785638728143567,4.435750556208177,2.4783107120435943
0.596,-8.830610445410912,1.3269368233154637,1.2259861181074712,1.4230504957902212,-6.420171294949796,-3.166838757771984,3.236049567706459,-0.37062783802480226
0.6,-10.46700752861716,-0.8392808083019645,-1.0507007493647507,1.592306034521016,-9.580086753602018,-3.623563374261039,2.1989050936697367,-2.1110448899564744
0.604,-11.47833789669221,-2.556256259069869,-2.1320787631614166,1.2204196810096164,-11.251280775803252,-3.787035353954934,1.6349795486225958,-2.2282915856944783
0.608,-11.084822867512685,-3.1345338569802834,-1.6812168389844828,0.46769530180858965,-10.75724096963404,-3.4329008703591626,1.8204852868709622,-0.6609800687203915
0.612,-9.289655782250406,-2.400952000627626,0.08500843712442929,-0.3873871990876978,-8.220047399091868,-2.3288087092482783,2.92837642046743,2.2321546343264345
0.616,-6.860463536498855,-0.7437775515376188,2.53018156243661,-1.1109945157998027,-4.522043899190749,-0.3569256359373867,4.943418533426666,5.8098390954232855
0.62,-4.842933569839033,1.1275534756968,4.889725735019965,-1.626444658611149,-0.945439500309476,2.3381734443087225,7.584875349657295,9.323576197408329
0.624,-3.964784972760526,2.507662131799293,6.534228188270845,-2.0663183083776175,1.3010976677883264,5.247123012006796,10.264237421849657,12.051172731749148
0.628,-4.328362978502696,2.906914017192321,7.064875048803515,-2.7822591093307665,1.4410098963551263,7.519058148581735,12.102955234800902,13.347042735205832
0.632,-5.560842031889479,2.068631745606922,6.228792335475987,-4.301185468132417,-0.7588806709302389,8.1543070045268,12.036357772950396,12.636442460449643
0.636,-7.271966654322114,-0.13790594605586648,3.782490061458475,-7.192201734481614,-5.092220934859142,6.342044200480359,9.039637793309794,9.453257955881327
0.64,-9.453820327333915,-3.7827345538865984,-0.516846106215894,-11.823536901319926,-11.077560605157714,1.8490891225558244,2.4949377449975145,3.611215576711402
0.644,-12.474018484515,-8.779283140451753,-6.7071032665454595,-18.052819619859633,-18.035498717383803,-4.714236449397504,-7.386745909496653,-4.522919260332401
0.648,-16.61017448326652,-14.63177899993616,-14.28042781447084,-24.97966751486831,-25.026102286437094,-11.910311571410375,-19.27456501530378,-13.801451304944749
0.652,-21.443585735135002,-20.222217253504027,-21.93937315612027,-30.95741468353765,-30.765548361531387,-17.839051010514595,-30.77558847213902,-22.323894774391192
0.656,-25.61020451892989,-23.91440564759239,-27.732896872039873,-34.01383840439803,-33.74182776404018,-20.76967995539553,-38.967614521933,-27.86449647548784
0.66,-27.230757689843358,-24.096008729786035,-29.6741362046414,-32.61954968667203,-32.643451800898845,-19.80325353344233,-41.33594113045626,-28.629466290660503
0.664,-24.886248816142597,-19.966337450106096,-26.629699115636527,-26.48404089270082,-26.979648539458708,-15.26773650742416,-36.7702700252986,-24.034689224263275
0.668,-18.584578230187276,-12.12597297344945,-19.018712379414865,-16.9329359931246,-17.53560207660024,-8.625369462709841,-26.15434863734015,-15.088162924457038
0.672,-10.059839579508093,-2.5447554789332116,-8.869819560063775,-6.5498861838407265,-6.3091499654581185,-1.885638425584375,-12.19788463664247,-4.106943329131582
0.676,-2.094850285313896,6.184818173043482,0.9060820786094723,1.859053898835441,4.15836687295905,3.2322171996663656,1.513884566735669,6.171338832486754
0.68,2.8248928224733163,11.950716790090212,7.706728090670026,6.487570340724346,11.766833229305576,5.986603433776963,11.853209244968753,13.66666918993269
0.684,3.792634177177206,13.9920673504771,10.29974860327826,7.298050445510626,15.654915667447767,6.802107308315499,17.253598394532673,17.680278486352563
0.6880000000000001,1.926738145669674,13.070113169962838,9.219559519915038,5.894355580492743,16.38865722929347,6.867318303023694,18.076212413093344,18.902718426925276
0.6920000000000001,-0.3347264212064829,10.861632938041794,6.305285577354482,4.538390562017071,15.45406849214271,7.366630020013076,16.098148560086656,18.741345962932655
0.6960000000000001,-0.6959199474708839,8.946359678437375,3.640752214775887,4.847889517716794,14.341858453128793,8.76726987896393,13.437556895483453,18.377844267965088
0.7000000000000001,1.6093320091382566,7.974096474067437,2.4798442133908907,6.904131752649619,13.747417747500833,10.561859095136128,11.505485592242849,18.131300344875967
0.704,5.334156571409721,7.472563162602569,2.726088209960267,9.284898986418057,13.319384734915843,11.61344457112125,10.514340197760248,17.48325571346811
0.708,7.950244582721552,6.379142191777589,3.215314569325301,10.007872287302916,12.080269204730257,10.89074783738181,9.734055027451632,15.695912732531951
0.712,7.168504400605002,3.924748275467664,2.588431579959547,7.819665533844045,9.233953754693061,8.14969505593126,8.248167777030062,12.574535636730502
0.716,2.3511879122559094,0.2895338588117511,0.21490819461899946,3.057673797064126,4.846218253209543,4.152879415679422,5.696827073158488,8.83238652180728
0.72,-5.01581897655052,-3.3863480412504146,-3.373563896402061,-2.4373258225430163,-0.022290124653409293,0.29430318474089745,2.5669139737563,5.797196363212834
0.724,-12.077782986230716,-5.6481844831366175,-6.775185451263781,-6.321497372805425,-3.820084546679709,-2.154006107219061,-0.10269151733496074,4.623177419216745
0.728,-16.12033505370141,-5.584176590775428,-8.504709869207943,-7.045694987173874,-5.305406169308753,-2.7154274324014978,-1.3615902552240868,5.530451606170004
0.732,-15.928435627688657,-3.33085786275376,-7.779604685703362,-4.661055064573361,-4.14577905793999,-1.8980335057301545,-0.8993325802792924,7.593300007289258
0.736,-12.266983028692266,0.05692184172158932,-4.871448032361968,-0.6882397795147881,-0.9981033547978768,-0.806778688489203,0.8212212685047007,9.247880464030459
0.74,-7.270671481742966,3.252744906672035,-0.8742689961014776,2.837094316268576,2.9298298844628903,-0.4328626958242694,2.892220393792172,9.23463613539161
0.744,-3.1963059506250033,5.356342740234254,2.884381029060421,4.520349882570031,6.497217804080833,-1.0775329610020208,4.482491491859832,7.366194420433317
0.748,-1.309986445990205,6.218369397828781,5.43084618577052,4.2706967737927926,9.062261431020318,-2.261665326685147,5.222587187956606,4.634176368415069
0.752,-1.5018748282649312,6.2599771177231105,6.433822004001058,3.119989885103678,10.5362903939901,-3.1505992521647386,5.2564137234707005,2.577284456834718
0.756,-2.741420056576544,5.969575761188253,6.102449419973198,2.3674197008168676,11.111847296816393,-3.20834610098143,4.970386352476794,2.2857255257480347
0.76,-3.9450318106594864,5.476611801104127,4.862518102542197,2.6445638685912627,10.92824440652339,-2.6356401379254066,4.646503750572151,3.67256842237623
0.764,-4.633459502095377,4.495356532526387,3.0607497947156617,3.5172157094293652,9.934254696686423,-2.2853701215029787,4.2919691851369635,5.485178309264484
0.768,-5.006278875403723,2.657619136221058,0.8817289288812731,3.849237677467727,8.036915689071463,-3.1012780531548287,3.7304653694020544,6.056562470688277
0.772,-5.49229666871031,-0.029735731895641493,-1.5175496576698038,2.662072951214327,5.406220547635314,-5.42793965559224,2.857836813319409,4.3465650975808785
0.776,-6.18060603900517,-2.971164407245908,-3.8390740186912353,-0.09462420414092776,2.6571126177715882,-8.650309599656453,1.8408432713171123,0.6252851857261703
0.78,-6.610002462251771,-5.2096462441095355,-5.621687874665213,-3.386678319388409,0.7160732518695454,-11.426342416083799,1.0876591177074033,-3.629789030277834
0.784,-6.08557106274219,-5.9796792269456205,-6.429343826905381,-5.665068342472978,0.3867575402227885,-12.4023577815841,0.9953746903466936,-6.569628567704967
0.788,-4.273409761998494,-5.201690731304268,-6.117514414691357,-5.794003291508204,1.8805867421083917,-10.991425432310848,1.6518921293741187,-7.036250993953217
0.792,-1.6292001327491334,-3.563017743369471,-4.969290062542939,-3.7551895137972906,4.616381953948803,-7.7543337638655885,2.7114117176009813,-5.21911523051358
0.796,0.6978213519820429,-2.1115339265868442,-3.5883720946048925,-0.6872602700661332,7.436847559916032,-4.150401199113844,3.5279488901928744,-2.529272081521981
0.8,1.4922889307880496,-1.6033428899665978,-2.5877970363825398,1.7690289600449773,9.153992073723373,-1.786080584814954,3.482153449810312,-0.7768394702660544
0.804,0.22888780891895522,-2.058533165097458,-2.278105211417653,2.3912718269957054,9.106812218186633,-1.5918415792933729,2.297718668270363,-1.1620173226547195
0.808,-2.527214506607322,-2.8006057868566927,-2.5371228177344847,1.014130614850444,7.447102941078583,-3.38895747020797,0.16317657279751074,-3.656075324083531
0.812,-5.338622927980907,-2.9392329085716824,-2.929978185702282,-1.4630464508960017,5.030929612478133,-6.068093530114538,-2.3991074454996806,-7.093230224419017
0.8160000000000001,-6.638130228269631,-1.9836269658205197,-2.9919019063079304,-3.6684819542589366,2.9939920205862904,-8.241272722207214,-4.805071159486147,-9.875343474564943
0.8200000000000001,-5.568996973728588,-0.19187694053880477,-2.5021074476415492,-4.5741450081469,2.2377729743874966,-8.985924793474169,-6.6655846850992475,-10.85501763364391
0.8240000000000001,-2.4461228741911896,1.5549422982446117,-1.5898458724100237,-4.042286556058912,3.0693540923867317,-8.275100318450768,-7.887760288162212,-9.888833037471954
0.8280000000000001,1.3976583791138637,2.2750698265216442,-0.620240766644315,-2.8103023067904473,5.144960281755516,-6.884523390370077,-8.598035985780598,-7.788586467479718
0.8320000000000001,4.278238778769548,1.474492887722306,0.041828959785107145,-1.9752041986944278,7.69102576537864,-5.885496937627408,-8.984725667950613,-5.779458885521308
0.836,4.972636857555585,-0.5587205944718221,0.23740078457899472,-2.3076195417369263,9.857607317318582,-6.034429174943284,-9.175044644572722,-4.8164496034632975
0.84,3.257302641709657,-2.913827423092556,0.06789956344334769,-3.8027044340224165,11.034430181070263,-7.398325393338951,-9.208388912189776,-5.142251947391401
0.844,-0.06394761892880751,-4.564306202952821,-0.23262888502478063,-5.709806787535683,11.000026088335886,-9.382828221995737,-9.093230196831826,-6.290365921952457
0.848,-3.5971224906623434,-4.90927949631174,-0.5120897622524581,-6.98994931533889,9.882543480873807,-11.103771706388784,-8.88152724344451,-7.465038566266685
0.852,-5.981799016362345,-4.018175288893843,-0.8263638913596765,-6.894844359627541,8.030425437122204,-11.8561175008075,-8.684692751472937,-8.013196302270444
0.856,-6.4065213822873375,-2.475333760888134,-1.393011854639667,-5.350569721247098,5.870818530532318,-11.424888684241523,-8.61777129001598,-7.7184096031554645
0.86,-4.844883061621545,-0.9850576227876502,-2.425256721595275,-2.97835362256086,3.788575572478834,-10.117954182151948,-8.731803213921864,-6.807836951931449
0.864,-1.9878409130271848,-0.020677910920056775,-3.9581697812373022,-0.773909072369861,2.0396566008098205,-8.549325516161275,-9.000649442173994,-5.736389294832179
0.868,1.042478284820504,0.2857213626953694,-5.776246750116684,0.3526878955231041,0.708008470200383,-7.317981183012819,-9.374175599901832,-4.9240884954013495
0.872,3.100474888038889,0.023283519365861594,-7.478867419115176,-0.038388645113400344,-0.27865510915509617,-6.752329829365635,-9.852898758009303,-4.596402959494299
0.876,3.4196506168823078,-0.6981542246792571,-8.647650201538056,-1.771896406656765,-1.0859308131656746,-6.819313492136132,-10.525800259752032,-4.785023768777023
0.88,1.9058248922661107,-1.8414387459147576,-9.011891219660498,-4.172532174034927,-1.8729292687998225,-7.2000681649282114,-11.524358680907426,-5.418204485346564
0.884,-0.8015747570820224,-3.3817576955618733,-8.549726066369715,-6.3705725626832646,-2.7199764728347873,-7.479262816776156,-12.923416226057952,-6.41165786391997
0.888,-3.540133349267677,-5.145841289383895,-7.470203973059768,-7.640105466822661,-3.5987052380619957,-7.340899511757243,-14.644298437063583,-7.687415645464284
0.892,-5.076420669569586,-6.704214255549402,-6.090719679878589,-7.642320605371765,-4.386255610854363,-6.699256429352033,-16.423698740968575,-9.127823146995127
0.896,-4.647682939768686,-7.457567248396344,-4.69482776400875,-6.511267387086775,-4.922004383761617,-5.7363993509935085,-17.88544585662629,-10.538304577732902
0.9,-2.3365407464905275,-6.89508983115806,-3.4301884517017243,-4.7575819626904945,-5.064828191090385,-4.834928609368717,-18.669640125484364,-11.661886538205522
0.904,0.9234511965253205,-4.897604466775647,-2.297028448626861,-3.0465496217197483,-4.7442314954852804,-4.427304257667743,-18.56060622111653,-12.260907217541899
0.908,3.7558199277906397,-1.8867066541394024,-1.209079299566156,-1.9330354641745657,-3.9812643362481026,-4.801949802229956,-17.54724516186093,-12.211767710464528
0.912,4.997425461980811,1.30844676944605,-0.07882900901472567,-1.653378396387609,-2.8767042968448777,-5.949006355612823,-15.79715848545402,-11.553453814771046
0.916,4.277318346476534,3.806219285603788,1.1123826870729658,-2.0565164627087142,-1.5846371780440904,-7.515646140273589,-13.580638163060485,-10.456245227761656
0.92,2.2092290257343734,5.069386924399566,2.292736047347944,-2.688186713568939,-0.2762996950817751,-8.896679057042093,-11.188142001207211,-9.12004217380138
0.924,0.08215877057830312,5.12682206355305,3.328919368643767,-2.9856456711128203,0.8905902278606845,-9.441691347559072,-8.868032537249519,-7.663383614035638
0.928,-0.7870179394388401,4.514296367114753,4.094284673096126,-2.4977320346047236,1.808697554823084,-8.70002539135578,-6.797206887504899,-6.068080542459484
0.932,0.3017478775503264,3.9791678476602215,4.541484692661697,-1.0458279932374808,2.457710396021298,-6.597992659732199,-5.0802690978748615,-4.216753097175342
0.936,3.1356579182639166,4.113799980189469,4.742530397576729,1.241199939714079,2.921820323769623,-3.46886405680641,-3.75887746234298,-2.011476001287292
0.9400000000000001,6.7463942224198945,5.094350147467594,4.87067572124937,4.003554804980013,3.3683406220964116,0.07143451612137142,-2.818566548058925,0.4982883803659206
0.9440000000000001,9.896775695830456,6.617438324133843,5.111365578244545,6.766181179083901,3.9638284766233483,3.333652702194968,-2.2106201585365852,3.0452493380782926
0.9480000000000001,11.632673235002812,8.045087590000264,5.539722072997847,9.048030448514737,4.764430521105851,5.7657284808838085,-1.8959118482368922,5.1784522564453255
0.9520000000000001,11.585618611606833,8.662953468372848,6.031410390899964,10.430588105337165,5.642287368251971,7.072893332599051,-1.8744227825450253,6.406888840936972
0.9560000000000001,9.935859344992764,7.941905566755054,6.2738483792116995,10.612298033930074,6.306949571291625,7.218538564370647,-2.181777594518735,6.400893491029137
0.96,7.171099237176804,5.742579139757709,5.911550243331931,9.485443686225153,6.448223420815566,6.353754872094896,-2.837718247560474,5.173544354502155
0.964,3.8289147562697963,2.385049222670659,4.748201492940552,7.208538264399181,5.912907841362539,4.742859658221732,-3.772711284482739,3.1377566590140304
0.968,0.3830103869255481,-1.4286165624655496,2.9044088605917295,4.235287715860409,4.823114919490536,2.7141355209623725,-4.784912559018039,0.9874704444873714
0.972,-2.7241108156196105,-4.798650984055371,0.8483099412858337,1.250697668545854,3.5748504635419067,0.6433020092749757,-5.573090537369126,-0.553693192078299
0.976,-5.0138910348428,-6.878490464196602,-0.7441668181096475,-1.001529185641175,2.696237728391452,-1.0650200745235452,-5.852826540063916,-1.0169929770988801
0.98,-6.007896037270939,-7.124701978084772,-1.245778467271066,-1.9501559129525958,2.637394537886621,-2.0343444985610404,-5.489195003833629,-0.3717974397202397
0.984,-5.412787758084278,-5.486378631361845,-0.35231824489665087,-1.385654236246637,3.581440384305779,-2.0120579264262233,-4.58154663936989,0.9899443127178529
0.988,-3.343632699892396,-2.4538969142145106,1.7611605618524209,0.487290947449992,5.3654807878627935,-0.9650475141609149,-3.4434996396266797,2.4605184882652793
0.992,-0.3908048132454951,1.085099794797543,4.492052008278961,3.1735508351478074,7.55540613544872,0.8790545420131366,-2.476136767912976,3.512698211469342
0.996,2.5567746189833542,4.139082562269095,7.050928838408822,6.114525095903446,9.627488980260296,3.0799929698353026,-1.9940806900092412,3.921910077024677
1.0,4.678033486232721,5.959650147404773,8.783282103673855,8.888757420880665,11.166821915709193,5.11564879298885,-2.093371422504788,3.788775567177254
1.004,5.596664700252063,6.290515768569776,9.414269488979699,11.290473230578982,11.987243131277296,6.5503573791233975,-2.6325458077110397,3.3611463507384087
1.008,5.5301428736534035,5.398941570340639,9.097029405944568,13.257544585678943,12.125624527350055,7.1648915748037325,-3.32647282841981,2.7742169271307375
1.012,5.114507346942446,3.904357719160771,8.278484065336897,14.736179866313478,11.762593970339594,7.002989389184677,-3.871043252488562,1.9073203560574257
1.016,4.992373894378943,2.4744282430713156,7.455063081598837,15.594359052903883,11.119576435904946,6.32348869476391,-4.044234736114504,0.4631772127413569
1.02,5.409704703136413,1.535400361664415,6.945788483787169,15.660692098326308,10.383859738853971,5.48467363140162,-3.7419533424579186,-1.7655069505776737
1.024,6.071464650501866,1.1212446116327328,6.781499000778922,14.86515105619219,9.676966594502119,4.816665901998931,-2.9619491286571247,-4.609967515511926
1.028,6.3452319809046,0.9136708657665622,6.7453677262726615,13.37241669146897,9.048936924041527,4.523770359918217,-1.7849053748684582,-7.435510205460105
1.032,5.6883085409763225,0.44084431863757345,6.536574244776375,11.591400180804612,8.488717572899986,4.640486751201024,-0.37851770441193366,-9.352539698551482
1.036,4.049307086965882,-0.6672082362895253,5.962549659488104,10.022500800944727,7.9435649915612885,5.047329916732906,0.9824724940306169,-9.660229722227086
1.04,2.006703066384489,-2.471335889675629,5.08243292733323,9.037154949050318,7.368206176424792,5.533755042076336,1.9533944144136512,-8.267914923267654
1.044,0.535434762404293,-4.67813952939855,4.214936931035027,8.69978005867415,6.769577016055337,5.882581589044094,2.2330821633668165,-5.839543934392168
1.048,0.5226180852973812,-6.76571892656284,3.801906058942677,8.744481418134455,6.227741528440674,5.944650491672746,1.7107064444790012,-3.5428181255870186
1.052,2.2989773661936397,-8.209632442571092,4.193967624653624,8.734240535323124,5.876043807688802,5.681575831421924,0.569352345086827,-2.5052450402349677
1.056,5.437567698972543,-8.713962450831104,5.450573845324698,8.300358590847281,5.821494599298376,5.165310735659659,-0.749091935839715,-3.2655816757278444
1.06,8.926089782998815,-8.333738766869146,7.261121992022709,7.327540778441971,6.048393877168792,4.5325329704051,-1.7403609278144359,-5.526673601376842
1.064,11.615968771123562,-7.444821407609879,9.024760992339452,5.987187651520799,6.356771552350892,3.92401643239873,-2.106719652760148,-8.337993317080873
1.068,12.723698084770149,-6.571835767334505,10.078356680419802,4.621592326231166,6.398745855712605,3.44492302432036,-1.935321916655539,-10.592485198805207
1.072,12.124959295036206,-6.156570460550483,9.983431589360862,3.5571376692546437,5.826292659698993,3.156201661326122,-1.6647718094213815,-11.561667669061535
1.076,10.319420948575726,-6.3614901775329145,8.748268899061713,2.9690422977596427,4.500669166894795,3.0997778521345936,-1.8185841683125545,-11.174031603098683
1.08,8.120354735088313,-6.9982191046838125,6.871939201313353,2.863107194164513,2.6515268547818778,3.324700813052459,-2.651750165580779,-9.91276240687921
1.084,6.237918333760717,-7.63765223527912,5.153439563026723,3.1437582720723185,0.854709207202859,3.8861016245045903,-3.9376826078414524,-8.43892637384306
1.088,4.950393727985784,-7.864628991718519,4.326943873220671,3.6789916915895446,-0.21003201208918654,4.8016398593345,-5.047241455988569,-7.201980152728538
1.092,4.049711105564256,-7.527813708551093,4.699479932671693,4.328136123813238,-0.10756031044206793,5.999989532009749,-5.305667398903097,-6.262407014106884
1.096,3.064836211539614,-6.843570075718617,5.976827085630475,4.934663362659194,1.080375978326174,7.300956661957116,-4.428189493944501,-5.399147732825895
1.1,1.6151902898284334,-6.285471636646662,7.384147060385203,5.3240826895103055,2.731987094749911,8.456831095429607,-2.755291772907185,-4.373396390997186
1.104,-0.31010896953307565,-6.322619897013965,8.024682564292107,5.351919859941972,3.9429296241657994,9.251854237445059,-1.1180869392428576,-3.1419852729450213
1.108,-2.2955377686764677,-7.142772190774622,7.31331311779104,5.001603055126452,3.95509007070018,9.6155763522097,-0.3764470573582912,-1.8735439355205017
1.112,-3.6885108471356034,-8.505221226686444,5.273740493923924,4.468587391923393,2.545537226462784,9.681884475206516,-0.8855553290973148,-0.7625424350017056
1.116,-3.9395138216505075,-9.831901953143188,2.5383044217271618,4.1414102343810555,0.15713434463714293,9.738433871638335,-2.2227786648950314,0.19693485518610032
1.12,-2.888604260664124,-10.469417824682523,0.07174329383951772,4.461167662220305,-2.2920785232545313,10.089905985272708,-3.3547627673610805,1.297205064019181
1.124,-0.8496457509031643,-9.996148491808754,-1.2472256692353767,5.700132469476102,-3.835710726670868,10.895521016537714,-3.1834552268446714,2.9720521179278876
1.1280000000000001,1.5507245091393997,-8.413540727040981,-0.985288642444857,7.783479087480373,-3.9044472298069195,12.06665174642876,-1.1678198704462375,5.501265183953365
1.1320000000000001,3.6907149076550922,-6.111027939981113,0.7119365233929784,10.268876391273807,-2.554821678632152,13.288252804958574,2.337052107473937,8.75555544956569
1.1360000000000001,5.242433265881573,-3.648122712431814,3.2361000907121706,12.508626000094864,-0.3927417272382172,14.16006565065345,6.211059234572986,12.144652888738165
1.1400000000000001,6.266399233821176,-1.477189003084277,5.805220430013833,13.926210020212238,1.7599276069688585,14.388366176061936,9.120367716944202,14.827162725253402
1.1440000000000001,7.051868776194624,0.20826846776617458,7.75177544257167,14.245584642316771,3.2433467979378747,13.91983632933534,10.167448129112472,16.062087302229884
1.1480000000000001,7.811305500844355,1.419394478412869,8.687453988127345,13.553414026299833,3.780275607279009,12.958030724136734,9.28002495484452,15.50915352654556
1.1520000000000001,8.468424502831112,2.202463224069106,8.530024753589714,12.197665043233428,3.4747643444072764,11.865382076015521,7.156333478864326,13.332690373650621
1.156,8.678105992853943,2.490549287826525,7.447133974175813,10.595163177707036,2.6419492084332887,10.998671488169748,4.836343975548971,10.078063924062917
1.16,8.085684010422483,2.1156404204093633,5.796031066970954,9.07275206246095,1.6198870276421076,10.56441851996442,3.1712539129312063,6.422620668350646
1.164,6.6677128272995105,0.9754908375489322,4.07054265186116,7.811848508222283,0.6692311457954929,10.55812413012336,2.4880250757778413,2.945804970903737
1.168,4.911988564133026,-0.7658049856045182,2.8170792314977007,6.881863555273412,-0.02400004354194607,10.801630591796311,2.5977825395075342,0.016550566902878927
1.172,3.6703410786167296,-2.6153149243464213,2.482304147621562,6.29365158739256,-0.300370384370126,11.045997401306522,3.081849772827809,-2.199131144688181
1.176,3.7216845844318414,-3.917397296408126,3.2173918374123787,6.007253727548687,-0.024046893343893316,11.083173626292592,3.6216060136857777,-3.6783168003667015
1.18,5.286832951076576,-4.169774267495086,4.745327236208595,5.8941732663888615,0.8533173411419739,10.820273284988616,4.161534958780976,-4.495564448608093
1.184,7.7892143941621725,-3.3253226477081625,6.393774677180772,5.706996871652791,2.1911511512007564,10.284223838894832,4.824443032224735,-4.816622058277062
1.188,10.045883576085998,-1.8873351731517687,7.329009124676759,5.120278842056905,3.6062614922379908,9.565032605376473,5.673802887282363,-4.903862627700619
1.192,10.82657580276009,-0.7034092773806151,6.923678622638818,3.8684189296536715,4.550354443972083,8.736553846695642,6.531210277266837,-5.065451066759124
1.196,9.495184393677846,-0.5357547344938212,5.091586010506035,1.9248500447083643,4.521941805804545,7.806960335492477,7.0099203575318825,-5.531157552964032
1.2,6.374619737136982,-1.6301840179917235,2.399112749415508,-0.3910816395382426,3.3193380057368813,6.725391001864409,6.752930708148597,-6.311154652438745
1.204,2.6049329194597703,-3.5559875456865484,-0.16308747132234203,-2.4841769980221216,1.1677396402301383,5.440265847605588,5.709459878909001,-7.138323875083188
1.208,-0.414934973718573,-5.4138462075893585,-1.6520970263977688,-3.714285631700477,-1.3624565568647995,3.9795093741977325,4.246157083287471,-7.560876011841174
1.212,-1.7140985906648893,-6.305881444311126,-1.6387850535002144,-3.6804028102242228,-3.6037651548126632,2.500859362086885,3.0020925283779434,-7.155689189065924
1.216,-1.1963573607631588,-5.814958520570144,-0.40969919187682535,-2.416057022176574,-5.076561372412925,1.2739133387649417,2.5480212367110653,-5.759721292642098
1.22,0.4213963591423635,-4.191384766759711,1.2343088243642342,-0.3661175689740048,-5.6331125473057,0.594228875051158,3.065508605679497,-3.5763427392612357
1.224,2.1127572985783445,-2.162321724004414,2.464931751844233,1.8408790379053244,-5.402360002693513,0.6611721644567297,4.252854764722542,-1.0850987382636959
1.228,3.1606619528779447,-0.49311906292905405,2.909182906832939,3.6814434192065164,-4.601941629932298,1.4744649001195285,5.51136758082157,1.1939097979584403
1.232,3.536735608712206,0.44780530616390024,2.84462450232877,4.935128196830192,-3.3534202034802547,2.8157040996447904,6.303091086238055,2.946193381132616
1.236,3.8233950704989184,0.8590670603844046,2.985473646426726,5.69185804272729,-1.6326996320462968,4.33383014239098,6.459183565169042,4.172828570031925
1.24,4.757720584636445,1.3281219993505147,3.985079876324562,6.193589003230045,0.6167604192064573,5.701028250066884,6.2346664669112215,5.107960572948286
1.244,6.699568079063283,2.413862811281433,5.949420271866984,6.634839776776062,3.2888299811820616,6.762586597138579,6.082906946657204,6.011625688513959
1.248,9.347576938195289,4.251494302504398,8.270999956986088,7.048381916863946,5.992699726318733,7.592160844427781,6.311613479853804,6.97683710626643
1.252,11.880878547087377,6.434228745574728,9.918697995920866,7.34932265014686,8.134770797712463,8.4260232588922,6.856721139868569,7.885209311308245
1.256,13.430560905558195,8.25263188427789,10.029700048905397,7.487528436703542,9.185965420892444,9.510507248618524,7.333020379296613,8.543449367012727
1.26,13.566665387678768,9.14323799940803,8.465016632321749,7.5657135821293195,8.98714559807604,10.938749908130376,7.332062957945709,8.895400617213454
1.264,12.509275057015657,9.056589618399812,5.9789825112516155,7.82375864801179,7.8830517455544395,12.567603385026814,6.757058399016387,9.143905268757408
1.268,10.941065702926608,8.504294825984744,3.8629639552837034,8.480095034521582,6.562202647692629,14.052017987459294,5.946010949148331,9.666732601985132
1.272,9.543098490667944,8.234121185093954,3.227351164321135,9.519538216479305,5.653534530732031,14.971253632316802,5.45221870842488,10.735337222336966
1.276,8.523805971441107,8.69826062314587,4.3018035364661955,10.557821923065603,5.291117509609194,14.970838610499413,5.578364409938331,12.203162304242142
1.28,7.458669090108742,9.660644073512685,6.171806467159058,10.91151795143287,4.933939784881204,13.85384736236847,5.949183471611832,13.379391541055156
1.284,5.533818339264144,10.194076349545412,7.133749583675126,9.862255104541873,3.576716481946278,11.60111528874586,5.451741111523006,13.221722967533424
1.288,2.0629034886815134,9.119418254306765,5.526002202178461,7.00337330457387,0.2912030144079836,8.351253914144763,2.685072340154875,10.814531252157394
1.292,-3.0319095835502594,5.673958029767618,0.6237179769977956,2.484612304437178,-5.174857286224778,4.370517579032821,-3.2534178108662672,5.896699346241803
1.296,-9.04645582073772,0.04848979539156062,-6.865836148514063,-2.973727944426173,-12.072488755797622,0.040665150381755666,-12.056482760666768,-0.8462412133703765
1.3,-14.710577877814103,-6.487355185661727,-14.951013196817257,-8.290484484337867,-18.774910609771723,-4.137098180679459,-21.9781396253029,-7.892791260899685
1.304,-18.6689574349748,-11.989015882201784,-21.115270788076486,-12.357850148744546,-23.34599638062491,-7.569287966507545,-30.289060588765096,-13.391415477632108
1.308,-19.98625034896031,-14.604574507316102,-23.342906320267502,-14.353358985898012,-24.302596254052787,-9.659785647416356,-34.27268329322669,-15.832013994464432
1.312,-18.44085908514171,-13.336529989940573,-20.92542695544489,-13.910899707297176,-21.208641923263258,-9.953261275904879,-32.31747359142355,-14.568698285116625
1.316,-14.511583258305109,-8.444767714378031,-14.700395272115202,-11.123999807047767,-14.831518725789465,-8.28683773306875,-24.592083376852315,-9.965170736706568
1.32,-9.108841660622602,-1.2896596180489723,-6.626673800445133,-6.432173053876795,-6.790303235918145,-4.8758032525674935,-12.973557091095245,-3.1293284794264764
1.324,-3.2342441651007903,6.264773029122807,1.055842454078629,-0.4886260966595728,1.1016991210608467,-0.28998259294894524,-0.2801895755546866,4.586362065520007
1.328,2.2680582641096407,12.574255584077946,6.672671785199782,5.928564447986901,7.47651327562744,4.673347991467381,10.80651700091039,12.048550336814515
1.332,6.818662582940306,16.73711118715164,9.598778635226154,11.976162481507345,11.76261336918833,9.180695909813949,18.62826626855167,18.5579677179976
1.336,10.096774408381862,18.71027223519468,10.223290742750578,16.822773605213115,14.143577506548354,12.545643075773114,22.88026957861439,23.776723133572887
1.34,12.011635324539384,19.061203670237774,9.513742858802289,19.791849038683722,15.240398551255566,14.358981087825669,24.329590071984057,27.51050802348982
1.344,12.696667646804599,18.547829188320975,8.460807792114792,20.552683116150547,15.726033869213097,14.54429380646252,24.174766044012358,29.555597302951355
1.348,12.50275197425799,17.758332854617038,7.678172563346379,19.267408380523193,16.056561068191513,13.349020042212942,23.423147364768738,29.728703344602764
1.352,11.942912648232777,16.97503638272792,7.314819284329133,16.602483573742575,16.414523322347122,11.277772599723903,22.574456978683884,28.05538378645724
1.356,11.539777217789378,16.248435513164623,7.233527120286453,13.544714381495396,16.80751642272662,8.96240453151222,21.667363036242023,24.938415202679607
1.36,11.646827633474459,15.576894141519006,7.282298516651281,11.07915481202781,17.206206145867327,6.985508694053351,20.544307957761703,21.138937766783783
1.364,12.315459070018733,15.017132025782303,7.450215655462671,9.850467860795106,17.59529679591742,5.704396939956496,19.095976430029623,17.523819019865186
1.368,13.27681528427729,14.65001537617627,7.81970206472306,9.949982440882195,17.912076894468555,5.12636909334833,17.340081080594246,14.688732272546986
1.372,14.0798958864425,14.467406170013419,8.39389177810881,10.934798229140142,17.96291192782519,4.906897882638077,15.34840614836503,12.699044662738743
1.3760000000000001,14.315426815324827,14.29109645248991,8.95794271824525,12.063780880132981,17.41463152839424,4.498575461535438,13.15570297650629,11.125354571559
1.3800000000000001,13.823850589864378,13.836281267816958,9.115830638928855,12.646750533096565,15.926092432749101,3.406857554018643,10.761312545955661,9.371045535923258
1.3840000000000001,12.757667899003536,12.88838957781445,8.502771427873085,12.337038816151107,13.362974750196372,1.4332956853704673,8.246329371197135,7.113256020309564
1.3880000000000001,11.462995884877273,11.46712909496091,7.0442233785779536,11.231541987091987,9.959548158969483,-1.2132842201390304,5.8897065639612265,4.580342434499471
1.3920000000000001,10.273003211847026,9.858897641432122,5.082247798053686,9.762690467478023,6.310529905501426,-3.991604990194901,4.142548207391883,2.4710252749246138
1.3960000000000001,9.3386896685588,8.469173744503678,3.253857985866489,8.463641918235226,3.1624862498347284,-6.256894824622577,3.4156068213469553,1.5469240817074024
1.4000000000000001,8.59819727355989,7.577166367610516,2.1700076305405673,7.736490878554832,1.1005795978653623,-7.527360993999537,3.785131650036419,2.1329151787595038
1.4040000000000001,7.88781177196779,7.1482279889860365,2.0806012346074567,7.728761879143349,0.2922649911570261,-7.6562882317339245,4.824697208434372,3.846725498315209
1.408,7.100955411169707,6.831507938439245,2.7185447522024333,8.340199782827767,0.42073910021736083,-6.834586159855462,5.7194924790237565,5.737117396569374
1.412,6.284941556843478,6.162206862039966,3.4359990571656454,9.318932090012822,0.8577173281937576,-5.447465229519366,5.654266732530232,6.771548036933382
1.416,5.595096528353679,4.852511719640461,3.572064718726324,10.364755382932344,0.9844601254089866,-3.8935839160203614,4.264542342192726,6.3857209530433465
1.42,5.15837503716466,3.0094521353003074,2.848457452024377,11.195717058986702,0.5022151638731884,-2.4651936473565,1.895878188255665,4.773392552882797
1.424,4.942444374659317,1.1228437105028206,1.5499551448983766,11.564816807132956,-0.44116627152834553,-1.330708956833405,-0.5154600801070046,2.73841667115812
1.428,4.732960140886462,-0.1898131973330237,0.36942544432622526,11.268795910760673,-1.3725576281194662,-0.5820612704264931,-1.908628793040407,1.2105047468976409
1.432,4.247112727586682,-0.5321797739079557,0.0018697194173000753,10.18533090114579,-1.7843696723866742,-0.27327335279551335,-1.6501833280290157,0.7211775739124278
1.436,3.340488520228064,0.05147368247889972,0.7329990051894129,8.357416049453605,-1.412259845047629,-0.40039566447012476,0.1453297053976712,1.1613620742828061
1.44,2.1690370306750992,1.1254526266011453,2.267303051026829,6.076210940513192,-0.33869776868232293,-0.8442741894450592,2.7030966541915404,1.9524457474108203
1.444,1.1657222377507424,2.1287011551858086,3.881423903279938,3.864298128075461,1.1002251165509733,-1.3511034170769562,5.0207985720007855,2.4865432161241188
1.448,0.828335548098039,2.6878590477863327,4.8139437326417465,2.3253694448485476,2.5316850388235252,-1.6148543184117443,6.377050926879747,2.537822783306183
1.452,1.4321034145068552,2.789085883536245,4.658347960943502,1.9048782394311274,3.7403362338873194,-1.4434673411251424,6.620929991970115,2.366342454606638
1.456,2.8235973475639184,2.7016154805878614,3.53412045051482,2.6603636742966046,4.717127461887685,-0.9201717644100427,6.101953033448808,2.4545879064662586
1.46,4.436416484491019,2.730558835201009,1.9587220656521822,4.1777559666825255,5.556985219986018,-0.4325709594741056,5.317270219762577,3.075876497960053
1.464,5.5273517773539425,2.955586854410285,0.5056385355637758,5.6955342323581135,6.277108302453598,-0.5126448413338949,4.534944054883454,3.9947392999711155
1.468,5.541569425931812,3.1453831828075636,-0.5266511789595825,6.415237031653305,6.702001085469419,-1.5462040178535972,3.6415748838007858,4.535134480016495
1.472,4.3984531029709615,2.9106003250381036,-1.2324548507122017,5.8597058486739115,6.513237638579994,-3.5060306622890494,2.3051066010848444,4.003120103665424
1.476,2.538572066321649,1.9968739028654454,-1.937132310033121,4.105453129022862,5.455137885382101,-5.873867905429506,0.32690174833078345,2.20388052663111
1.48,0.7219298485506442,0.5431447828486853,-2.8651694410127675,1.7794062379143725,3.587369848793969,-7.831799863428387,-2.0738546089905867,-0.2954997078031738
1.484,-0.3426472165683663,-0.8994599397847196,-3.881314757558357,-0.1979348360109725,1.3963782899645594,-8.64523978595389,-4.25439554849072,-2.3650996904525527
1.488,-0.3470239385678724,-1.6315295519470965,-4.4900346499834995,-1.0103055547260738,-0.34578109451285854,-8.038461641892354,-5.446553495017724,-2.898769556244588
1.492,0.48034734860084427,-1.19981384123912,-4.111347222768927,-0.3036130469499767,-0.9289506509840066,-6.353184473224246,-5.193519945434673,-1.4671161461774318
1.496,1.5050331378752162,0.3058830702884734,-2.4702805994284063,1.662150245421799,-0.08572450464362191,-4.397171741438797,-3.6457630673903623,1.3555139734744444
1.5,2.016219337030634,2.2584137245439706,0.1564922522265988,4.135821785583175,1.8262667271019382,-3.045598053788126,-1.5210565678571584,4.2103343091584975
1.504,1.5894682430498506,3.8079948448539653,2.9953160742697946,6.202840393589213,3.9595099814650894,-2.805773647611204,0.24839979146236146,5.61354210452555
1.508,0.2914001123372145,4.331832996482262,5.128118681370324,7.164781522318663,5.3840834999846265,-3.57356045837696,0.9842155513324542,4.7112279273424065
1.512,-1.3744740747642936,3.764789116426982,5.953484576897608,6.802589629183785,5.564754267354147,-4.702104750398576,0.5807951416682045,1.7245392306649592
1.516,-2.7493752249192767,2.612417522464966,5.485783086997799,5.408457311104939,4.63979375764211,-5.351132238625723,-0.5055739890958648,-2.162266764225933
1.52,-3.383693174300788,1.6454108842899586,4.324252659172998,3.5970057702143095,3.344079771633915,-4.9358929320915195,-1.56632353981513,-5.398425849016348
1.524,-3.302083428696278,1.428429472976859,3.2837423068849603,1.9874371689365944,2.580076736254341,-3.4436890419237898,-2.062639355479405,-6.8325380366477475
1.528,-3.024009640837903,1.9580048998450366,2.8976754297491425,0.9152131068985909,2.8630798756375953,-1.4633184749727661,-1.9217179998522624,-6.242590539241064
1.532,-3.3088531571156636,2.635770551578389,3.090604283483117,0.31779982889383973,3.9611354703502,0.09468199311231729,-1.5405586802517064,-4.371342486636422
1.536,-4.749650540114089,2.6023723741363938,3.2191709997841826,-0.16284758119763865,4.950718248716839,0.45123450215760386,-1.514615525589761,-2.4763654391535965
1.54,-7.389022579362063,1.2790002818446737,2.4895311141917773,-0.9018446604495693,4.706645290132656,-0.6299123932731163,-2.2594148687239795,-1.6539179389910714
1.544,-10.600272268355184,-1.2194973809027942,0.490330574404652,-2.0197249248794833,2.554210614929616,-2.692966929582326,-3.760860852733458,-2.3034604673375725
1.548,-13.341504277112108,-4.063539686414515,-2.4848199355492397,-3.2855134939727577,-1.2923758075512524,-4.790779548209684,-5.587324654406984,-3.995407556205464
1.552,-14.641224233148023,-6.0958256423982675,-5.520767314119439,-4.227157234110564,-5.7499009813291195,-5.936299541688641,-7.136702495496138,-5.771650793794834
1.556,-14.090588931794628,-6.4336927842850855,-7.542406546757775,-4.403459450273658,-9.357037301058881,-5.6048794275848195,-7.9638433417494525,-6.684727530700911
1.56,-12.10010046606294,-4.957269747510509,-7.896760194293165,-3.6974607707743417,-10.973683211016578,-4.035344361251191,-7.995449499987444,-6.269743764609302
1.564,-9.730146048452298,-2.3988705669962656,-6.715209518848496,-2.4405390888186957,-10.306127477854716,-2.1550786389852874,-7.515685088463215,-4.71616071774406
1.568,-8.163747228027205,0.023078154551512853,-4.840562819421393,-1.28661656483564,-7.981543185109331,-1.1415229241356428,-6.954198245606676,-2.6867187103634933
1.572,-8.0804630692528,1.244016176682635,-3.3355802898076945,-0.8785170507435396,-5.132746224040602,-1.8137851461397076,-6.595130528228765,-0.9015750487014884
1.576,-9.256707472921335,0.9270007740233268,-2.850581863855041,-1.476924748667443,-2.738425957517393,-4.149658816953888,-6.384527864887787,0.272146492927277
1.58,-10.628983736578448,-0.34863512202718994,-3.2225533918172005,-2.7719948787889734,-1.110250557643667,-7.197085132593202,-5.961464342894033,0.9899525075416022
1.584,-10.817606456432259,-1.3966912951764243,-3.548405196008389,-3.997223432219471,0.17877064133790554,-9.464474097541824,-4.884011456168082,1.7881312774552498
1.588,-8.875517496817338,-1.0776245108536386,-2.718182589762364,-4.322558462739835,1.8885014834449976,-9.628421086039452,-2.926045899024757,3.2233658411969373
1.592,-4.861909016432037,1.0556359042584518,-0.11931234174335259,-3.3346148237396847,4.489085407325547,-7.220066834921454,-0.2849919690997922,5.4925489824745455
1.596,0.09482996554152123,4.487481246122115,3.904453948187893,-1.3268283287743543,7.7256778545474845,-2.9251637804391066,2.43969924468729,8.25619501901565
1.6,4.311281954105652,8.009571782791227,8.13413082763418,0.7875200837875127,10.66619533453104,1.6833439195152096,4.505279972781864,10.781057600563145
1.604,6.374722969322647,10.364503601439537,11.064881633848017,1.9159233366426633,12.20412512837629,4.864059469853601,5.390226015890221,12.327712524251183
1.608,5.85160024891411,10.893081091326167,11.680202510669915,1.3541272443799244,11.707496078923214,5.519541605372069,5.066659765187069,12.569244456710294
1.612,3.502154760482881,9.831223725697782,9.982604328459274,-0.821973035519477,9.418110827473356,3.6914045002013154,4.034595463610458,11.803377867247036
1.616,0.8671865014966897,8.085848949089268,6.966635773176677,-3.769916890476452,6.329023305574083,0.4764736963552423,3.0788194352644496,10.815235935930104
1.62,-0.5396080187565531,6.644630745317045,4.054253794773103,-6.292835870519411,3.618071193654032,-2.5754800230388355,2.8610145948041463,10.449989761815232
1.624,-0.012228310108184814,5.973698815405442,2.311219803726999,-7.441310345066086,1.9746569721701235,-4.241488409566955,3.5661834159163845,11.130195753023145
1.6280000000000001,2.018176900133767,5.7601219365442375,1.8869393713175668,-6.986126631236402,1.2282253039120405,-4.171438214878435,4.7930296868817095,12.583714843211055
1.6320000000000001,4.29146537726956,5.160769105055806,2.003403771590456,-5.498167094847304,0.525267170513871,-2.930527234351757,5.754182439441138,13.954480423806672
1.6360000000000001,5.465753548989596,3.3957560858034412,1.490339748796032,-4.01187817833852,-1.0478627500478979,-1.5635906588940998,5.688643015606431,14.248988163875765
1.6400000000000001,4.90078938149054,0.35361912796906836,-0.420735809886537,-3.4467847811574757,-3.748046671918928,-0.9589721072261455,4.287793810985022,12.898777239424817
1.6440000000000001,3.0262678972285357,-3.178635270380255,-3.5159407254468533,-4.120962978957323,-6.822826805151635,-1.392280710846535,1.9104233862581168,10.119918522188527
1.6480000000000001,1.0942400387903035,-5.829912891520507,-6.595113480077998,-5.626038986712956,-8.780895905234502,-2.4920777166480548,-0.5460076880754059,6.857018216338474
1.6520000000000001,0.4778228988907358,-6.3245721575804055,-8.054395902208853,-7.098687832924043,-8.14718726027786,-3.5872152122719854,-2.0522203979871847,4.341474409076909
1.6560000000000001,1.911061917866391,-4.155105818080301,-6.745032576462108,-7.714166833131458,-4.291391769212169,-4.187749209246249,-1.929277999795886,3.4868875299689535
1.6600000000000001,5.095156999383107,0.13540114772604284,-2.630302612455125,-7.108826503310411,2.139769893101402,-4.278595084979315,-0.15816080251170206,4.454569135887141
1.6640000000000001,8.896757614718808,5.219648563468581,3.1193830566407996,-5.492792567305514,9.43608406633939,-4.251634181451664,2.633444896517176,6.628241947535571
1.668,12.015081870840731,9.650903313144227,8.655835965471852,-3.4137931684854266,15.580946775450684,-4.556527792701672,5.500339765063472,8.995546309732163
1.672,13.695714089801186,12.526402399487779,12.312041811517702,-1.3745440084967413,19.131287523739047,-5.326398399323807,7.640354655130068,10.710329409237602
1.676,14.067416253252304,13.773675310128056,13.326230003494857,0.4271942632840364,19.74943521619025,-6.247152598745743,8.743205277218294,11.515507304502535
1.68,13.946919000965863,13.964416647721919,12.088593021500856,2.0907258171282592,18.16973912593585,-6.745114608751464,9.065283251578876,11.803157774764259
1.684,14.231741866335142,13.802773585421164,9.812214168434366,3.750118091582408,15.668058878653937,-6.365352696746413,9.207928519839697,12.308384832904267
1.688,15.273319239478951,13.633679968905199,7.8522000416787705,5.275151973261018,13.373305402329606,-5.082242223250432,9.741739189388682,13.635562945899437
1.692,16.63427136039718,13.286442189905756,7.059860926132387,6.189048239553813,11.804987072669974,-3.335618796372728,10.886858095853313,15.910066261665634
1.696,17.351489328751995,12.306808446356627,7.487282647043685,5.89211154028817,10.828001990011217,-1.770666720756708,12.4102502197984,18.73207521499353
1.7,16.540892985414757,10.409780650851644,8.553914594232992,4.077531112756333,9.973200569123037,-0.851781103421672,13.778946151847776,21.424939869019
1.704,13.977660374261177,7.828366881932197,9.49885649834141,1.0691837244630733,8.852390789154015,-0.6109623891898082,14.45306178654937,23.40458807480536
1.708,10.26769870213684,5.287767860885651,9.816557337851918,-2.1804818131531647,7.391847437762408,-0.6975833050018991,14.153345121763778,24.436252431547473
1.712,6.511118980391984,3.60736832123348,9.442586524030958,-4.477657251811252,5.78400286062606,-0.6752754507106147,12.977008752875918,24.665529200372475
1.716,3.6749434633729834,3.1713486688422563,8.626462524112867,-4.980918376057161,4.241074997243231,-0.3666923067521566,11.314830532821361,24.431428283454807
1.72,2.083777288926285,3.6396970749719912,7.663159839165928,-3.6463818292086216,2.8056357147706876,-0.004631432086171117,9.654556532557763,24.027552079633097
1.724,1.3452829937268689,4.1159456329805835,6.69804959373414,-1.2508563069386582,1.3844647379228263,-0.08389953279220208,8.38358219084148,23.57957985014582
1.728,0.7529372584431258,3.699604386097235,5.739555996377931,1.0478120144980494,-0.02118184755636321,-1.0067304422900634,7.6887008004050585,23.07701748965337
1.732,-0.12099831765317504,2.0881359538088873,4.828942764015665,2.364680771344865,-1.0858319713233868,-2.753816589985945,7.581172485857678,22.504629336883227
1.736,-1.051399201460299,-0.14974865819021943,4.199901909294567,2.5743957248487277,-1.1481537182908141,-4.811888295997051,7.97931752032855,21.938846442038994
1.74,-1.2669413188787075,-1.803916103453048,4.281637546767342,2.3497592447602074,0.5172840560835539,-6.415776367604849,8.778986458792133,21.53005225076231
1.744,0.009197999630487175,-1.6532687040134988,5.489815146237561,2.7248751622610143,4.259261962865821,-6.968503730042357,9.87175209796078,21.391619633457594
1.748,2.9227044606623167,0.8442743707018963,7.92132142886021,4.439024639994386,9.700014531672423,-6.389655508080978,11.120126767829788,21.4833461305916
1.752,6.698015677894546,5.199049949516848,11.156748807608892,7.4485544615145045,15.719166792255237,-5.171260702893051,12.345450754299236,21.602262376612998
1.756,9.915691653305657,10.057647996225569,14.315870893572537,10.885643522664395,20.817802827343257,-4.109721985241777,13.360914660595881,21.496434858268913
1.76,11.246201165004095,13.820700349971958,16.39377181607506,13.500645662768875,23.714820311508447,-3.87030583516389,14.05173460919832,21.024163352514734
1.764,10.211534935663622,15.371626081496288,16.708613332984896,14.31799725741439,23.863012488645836,-4.628609612302171,14.450438329287863,20.243985521965442
1.768,7.506989388444708,14.536043040903678,15.219000985069215,13.137664118446992,21.617663411191643,-5.9847918740561,14.74430333881537,19.369288731346387
1.772,4.650990094498411,12.053326252420447,12.529899504698733,10.601716185528858,17.971008962118503,-7.187140468020516,15.179747319036323,18.61898117318742
1.776,3.1415162459579733,9.108047908500339,9.56948024813937,7.805006264567055,14.001551973854475,-7.529559615768449,15.897066893303418,18.059059763840196
1.78,3.6144516391013894,6.7300023518118905,7.1247501728666975,5.704169827135047,10.369313625396899,-6.69936440071433,16.794193409885338,17.554293739833156
1.784,5.482735742512887,5.375685886795509,5.487314518109997,4.653152190619949,7.1126133610277975,-4.905954437184846,17.50967713146565,16.859096771622717
1.788,7.258236601551289,4.859481970620436,4.38410488647969,4.302541095914421,3.8282954402011455,-2.7503771303181566,17.54649006699765,15.77872229118475
1.792,7.391924931169342,4.61321686190422,3.2126650597301705,3.8995754899879103,0.10165960602353152,-0.9241375497804256,16.50148884905866,14.295312404694414
1.796,5.159371353222014,4.07435632270699,1.43111842626422,2.7885190904598858,-4.090093325836278,0.09822616953715624,14.292000976860436,12.567364298098255
1.8,1.0815398548102166,2.987504634994366,-1.1025421150643524,0.8213312599982601,-8.21902874600346,0.2296423612133367,11.260161227090066,10.810331188175041
1.804,-3.3219281612546183,1.4997999100760353,-4.01046915788902,-1.5298350802095229,-11.371340043383498,-0.24940050150689785,8.090111511321084,9.161685781573397
1.808,-6.275726059717272,0.06251601468648005,-6.536273968050409,-3.3905737957393285,-12.63476366057057,-0.8612918570470356,5.5614332020086295,7.623387850446306
1.812,-6.609784833962294,-0.782668541932253,-7.870160331986881,-3.92201504127479,-11.507345904959038,-1.1711072921152663,4.239684768441293,6.112137226522464
1.816,-4.270394768532242,-0.6231357941724127,-7.498592734636986,-2.7417603820431395,-8.133124086965836,-0.9871532061624748,4.256562110604136,4.57453685803921
1.82,-0.25360202825959277,0.6923975771196638,-5.40264481234135,-0.11819178344921966,-3.2522624757748417,-0.4458190235964139,5.281267929267415,3.0683755058180395
1.824,3.9352221604385704,3.014025276670509,-2.047283892221458,3.129252593527781,2.078512128256989,0.05021988892258378,6.6923073136931635,1.7425857789785368
1.828,6.983180755374633,5.932688689156748,1.8163420372711698,5.972209642990492,6.860670973144806,0.016010902358175372,7.8750441424981545,0.7433689650515589
1.832,8.267521257396766,8.880264557225928,5.429184372323107,7.587210985688216,10.454538215188222,-0.8751688480078883,8.506578631127923,0.1384153172475635
1.836,7.942330172718357,11.256066277014725,8.250675341057104,7.643854675211514,12.680872137357255,-2.596817000896408,8.67700580251585,-0.08150190626292897
1.84,6.665577424443654,12.595525686647306,10.077115348905863,6.371431149074851,13.746216045458823,-4.721101597828238,8.806087317865604,0.09120432267445722
1.844,5.157327213708413,12.714004962684157,11.006410944214622,4.368210989275212,14.030363851829861,-6.564798427993082,9.381080317642045,0.7644214806950913
1.848,3.839120652443853,11.759778362422367,11.294029160058926,2.256201069292729,13.850140937111973,-7.486742811925069,10.645609887225874,2.1176702085249417
1.852,2.707200688158082,10.137089223523617,11.178920871812807,0.35597003849943576,13.301522324929465,-7.205047533234392,12.410910028331273,4.2400343684712425
1.856,1.4531930157809256,8.301336367935619,10.74854730975403,-1.4558154096730505,12.222744152982159,-5.960883134481264,14.083923351481644,6.925623728751816
1.86,-0.27694823250476475,6.53394459390438,9.91630335911941,-3.6193418229904637,10.303305592295146,-4.421916395182052,14.905349329579622,9.581233419283308
1.864,-2.6154279274778673,4.836839614051314,8.526446562898855,-6.5450488293963645,7.300765274150763,-3.3435872313348227,14.30785824461418,11.389795264412896
1.868,-5.331339174492314,3.0087463129193566,6.526073215183715,-10.234438254052293,3.2654321837353564,-3.1636653113491775,12.223086365243944,11.683059966668225
1.872,-7.86377069712762,0.8585280326115026,4.095535246192412,-14.083824932965399,-1.346408699661879,-3.752119596438206,9.156349064219285,10.328789591552777
1.8760000000000001,-9.531906240461467,-1.5891433169717857,1.6517391966499417,-17.029388033792202,-5.748180226227305,-4.480270611675223,5.996131043256355,7.882452882664438
1.8800000000000001,-9.810881149402121,-4.005265296491416,-0.28480537713312515,-17.983577911037173,-9.057462402078727,-4.580288179555282,3.6435385103613953,5.3598191737546586
1.8840000000000001,-8.54118829343497,-5.853810114310363,-1.3040595660277177,-16.350702928099054,-10.601754747308405,-3.6003381706141226,2.6269302792998133,3.712440077251813
1.8880000000000001,-5.995001525447151,-6.631479061322352,-1.2897215577222596,-12.353491653118908,-10.16715662527622,-1.6868280752369174,2.89483827908316,3.2862937258378224
1.8920000000000001,-2.7628948864239646,-6.10954413136551,-0.465421198254262,-6.977741532579785,-8.075074020126522,0.4787174583943852,3.8781913776701913,3.596469939171584
1.8960000000000001,0.4794335764972857,-4.44813854651602,0.7158889328320583,-1.551357733963414,-5.0549900222945325,2.0567872640658607,4.78935775087848,3.5834401614883973
1.9000000000000001,3.2239441755318694,-2.100956808189949,1.8000057453764384,2.829982083503637,-1.9564476052223654,2.5302356824431627,5.015204409070975,2.236593500851086
1.9040000000000001,5.276404057987747,0.41348391779638405,2.546615381234915,5.724677882144533,0.5651367697323622,1.9980204826442787,4.414950441769179,-0.7474187366497063
1.9080000000000001,6.725262667325296,2.7255413509060418,3.0086028808254923,7.390501525995205,2.2473610497677328,1.1152063247791375,3.3887699592405625,-4.670436642623827
1.9120000000000001,7.788819110432996,4.697002820623766,3.4456778982512333,8.468232596157577,3.2348460527205134,0.7130917972990574,2.6955750100751175,-8.089083524089801
1.9160000000000001,8.608549244549977,6.313079302247843,4.106839920879793,9.484383609176803,3.8927546812637956,1.3206020898396673,3.0905555256922526,-9.515998403267076
1.92,9.133127081257044,7.510186357329076,5.037635896357642,10.490216591395438,4.549265122012912,2.8818230722718,4.958644249737517,-8.186500790554419
1.924,9.182055300383581,8.095075576010458,6.033753661521132,11.053274205209163,5.30232252388214,4.8214297847735,8.104591902852007,-4.4700769213850435
1.928,8.61934930152529,7.820547301681927,6.755712798329114,10.573660308497892,5.9726640048374975,6.399061631856966,11.782959696248327,0.2912017496073531
1.932,7.504937930316373,6.579215351511721,6.928672126445235,8.710658617246736,6.21214999444237,7.126871548181953,14.964186366162721,4.4337546313890925
1.936,6.136509397440932,4.5801752542083705,6.497785900594408,5.660616024093542,5.701347949438514,7.010637605040756,16.724252227947545,6.762717879000775
1.94,4.929827580661367,2.3745128675336673,5.664157282859833,2.118207475015879,4.347095165778228,6.492108072892734,16.61570407299041,7.062295333130351
1.944,4.2206550691480516,0.6868733121991681,4.792117081493416,-1.0319602042900442,2.3919647567818174,6.16104117269424,14.8762187313705,6.096733556106301
1.948,4.126730233910166,0.11743324102963015,4.239982917171346,-3.0994068470827187,0.37291264503392085,6.426325887084204,12.371732235625132,5.115024800887113
1.952,4.539014459033751,0.8731576850136662,4.214919433568866,-3.8353825260928716,-1.0629227947547406,7.330599833579981,10.265388506439194,5.1410076382017
1.956,5.217590478313923,2.6539340255558272,4.695322877076251,-3.4466276865059626,-1.4373306290758592,8.572147642121308,9.506530020509672,6.401830250762032
1.96,5.9088071216156095,4.757587395246446,5.431010070322827,-2.4230839900137653,-0.6933839428425017,9.661595799350835,10.33596505652622,8.156221178425767
1.964,6.387150754911545,6.3416265867494985,5.993595229163475,-1.322512387288043,0.6927807656829827,10.078106332175594,12.031287709443859,8.979678581735243
1.968,6.413866889604833,6.707862374432352,5.84880668347796,-0.6308508247066129,1.811570345796099,9.356762904803873,13.053268848928383,7.34480823348531
1.972,5.680105503891809,5.489395104034429,4.460516446291422,-0.7236558570575653,1.626556333082135,7.121491857563342,11.601985576600782,2.241669165115127
1.976,3.8439723166361546,2.69707027009963,1.442210488216915,-1.8495786675375712,-0.6137227599110702,3.144263267478891,6.396095780837641,-6.399592229269729
1.98,0.7315013022375751,-1.3081100892231916,-3.2253316709807223,-4.040713719979976,-5.001176308252525,-2.5104305588802163,-2.627221375402769,-17.61222800368614
1.984,-3.402911268943626,-5.873969486601254,-9.004366032924736,-6.969952035027745,-10.812939971175183,-9.302642987999207,-14.024248688108855,-29.614787577089373
1.988,-7.74951366583673,-10.135318029293558,-14.774068292460925,-9.87572757639191,-16.677740670477306,-16.146738973244283,-25.160737382148,-40.2560290069423
1.992,-11.106182604875357,-13.135004835790824,-19.05915237630461,-11.691177415770653,-21.02600400022493,-21.584752750458392,-33.05809071573276,-47.53848524686691
1.996,-12.327774932644843,-14.0357387801414,-20.508233662409566,-11.409484218724174,-22.660552355136588,-24.212334789426677,-35.439939530509946,-50.085616776384086
2.0,-10.839182028441883,-12.3727045442497,-18.430331435834887,-8.537314420999792,-21.186129230439292,-23.20690567802376,-31.543182876586798,-47.44582271595755
2.004,-6.967657605615841,-8.276050490917896,-13.147627875671787,-3.417661801620852,-17.12569099437269,-18.701806276839307,-22.358134490227712,-40.164606073656614
2.008,-1.8708860450892644,-2.5270665354478297,-5.959498387790518,2.80294640545344,-11.673506291867852,-11.783506798401504,-10.201492176169268,-29.62833400872387
2.012,2.95209123051427,3.6432699664437678,1.3174728512294678,8.605573704628569,-6.20253256502474,-4.090858354028569,2.1731181631048457,-17.714603085415547
2.016,6.30464767355943,8.95828204517693,7.030546314935236,12.722672599531506,-1.772321066654058,2.796362275931642,12.523153681504482,-6.344731783870884
2.02,7.760000016683989,12.554141023072589,10.287996069107976,14.641816636446947,1.1639247489815716,7.870779752139242,19.729217380910995,2.9392426717186027
2.024,7.699777637682928,14.260576513419892,11.175738990677473,14.704931572523037,2.747145970623933,10.876933801109772,23.851422895950236,9.267844200840955
2.028,6.933182961661714,14.556739342435776,10.508797010553735,13.760848134493244,3.4556135643574635,12.110292330440643,25.70098487527048,12.533201522222953
2.032,6.149911077669458,14.23665576305575,9.29177638950705,12.594272129367255,3.776727300717539,12.014647414047431,26.220115436626656,13.279980488490764
2.036,5.551079730459151,13.947784648566085,8.177231183057756,11.469719111327322,3.9696207269216757,10.855828459489203,25.987617574730393,12.441642001146647
2.04,4.872955226669092,13.872304594421621,7.234265856061029,10.07658572404398,4.039781775524261,8.675505761617387,25.085877060203075,11.016545623690035
2.044,3.7439496477500143,13.718145310610453,6.119269742227516,7.888070106298073,3.882127422464009,5.5190200123688555,23.316634281168263,9.784408405892464
2.048,2.1269004710202353,13.014157122440793,4.497661607869304,4.703493935143797,3.472879589528702,1.7374707103926994,20.557525704670297,9.129790755082468
2.052,0.5398586669907672,11.51816896359287,2.426295533442044,1.0188555725135302,2.9839519125334846,-1.8960468683508225,17.010742684091838,9.009741539286551
2.056,-0.13222808738100866,9.470890872853033,0.43989425718973507,-2.0479561134393407,2.7473301148088467,-4.386679087387165,13.19833805072949,9.061314253350247
2.06,0.8601182119209625,7.543050780074282,-0.7153622935161366,-3.271480303885255,3.09997737607182,-4.965217268304514,9.727728687288618,8.786769119195014
2.064,3.6421918243686378,6.506954490700082,-0.5307544152233277,-1.9766775819462055,4.211045053903035,-3.527999131930301,6.981092191277639,7.7622846358299284
2.068,7.511835988160328,6.815511799388105,0.9205858838097356,1.5304842532696057,5.989424012605468,-0.7913532059819772,4.935237792522457,5.813045249873539
2.072,11.154689558220525,8.335311933667526,2.9662838012432076,6.009810116129756,8.10629808113481,1.9702965659580514,3.226574907578197,3.092583143621596
2.076,13.203926860149295,10.386588533027634,4.655303879675785,9.817709447003836,10.095521291916839,3.488590866189952,1.4057851897791807,0.043211661303757865
2.08,12.846725371136927,12.071986138443208,5.242863800582654,11.656014318888538,11.489756094737913,3.0841998039350074,-0.7760903381995377,-2.7393022318888143
2.084,10.14989294732186,12.698524913888377,4.560866715211887,11.13614164740784,11.937791277515316,0.9660733068349145,-3.206078323786187,-4.686677782016886
2.088,5.973048169828417,12.061954727819057,3.0659536157240836,8.882194214731499,11.276440928817692,-1.9001915805361023,-5.4611263848869385,-5.427230812295875
2.092,1.5475403157038272,10.456684760301869,1.5541247076332638,6.139780460077418,9.561267722932826,-4.275990750518304,-7.032557961151724,-4.8910723806679925
2.096,-2.0586953774450194,8.418728101912393,0.707469655713794,4.113108828987151,7.051371917951656,-5.223771602813031,-7.5843793317308155,-3.3148927551228553
2.1,-4.336423213958824,6.380656201609327,0.7439053400637476,3.389826949477083,4.163344490729514,-4.482054311643424,-7.0994170649019,-1.1549644173355773
2.104,-5.421060117485467,4.4513614363982015,1.360548030542759,3.738058527449539,1.3873468524766395,-2.4817910281617515,-5.848246855419802,1.060119519694581
2.108,-5.888724788678246,2.427435075942185,1.967505443715936,4.340023481945536,-0.8466602681885433,-0.049935801169340266,-4.234523424972394,2.8762375199798953
2.112,-6.394206364424463,0.012390640078365323,2.052600373714995,4.309785313144857,-2.313954282242321,2.014343927585287,-2.623188355182265,4.012086838812138
2.116,-7.350555813313804,-2.9281871222444806,1.437644272335092,3.1817414518559417,-3.1126763216507243,3.2531041962365634,-1.269486266750846,4.37244709827246
2.12,-8.761287506345525,-6.215485662275569,0.3089956401950076,1.13557744442096,-3.665794805671112,3.626360690353522,-0.3580953670539202,3.987341503130665
2.124,-10.252563084153735,-9.402714334108168,-0.9769945871546497,-1.1400841133618087,-4.579318889554088,3.3776833970628104,-0.09883612928479124,2.919293940075022
2.128,-11.256596191499739,-11.957819593232898,-2.1515361803528776,-2.831610670907139,-6.375290891268605,2.8193169175583535,-0.7590007737126143,1.2060481360690574
2.132,-11.240910389620922,-13.456969756427952,-3.1670090625755165,-3.3954283510847745,-9.198460377591346,2.18423933288841,-2.558122047505094,-1.1139988848776738
2.136,-9.917153923243859,-13.704140083685388,-4.147663508047799,-2.7740420045552128,-12.656145706585448,1.6096038919563398,-5.4826721402869225,-3.9080077547164365
2.14,-7.363548371216893,-12.726747834955631,-5.199464816335421,-1.3433765992867848,-15.87924413716064,1.2027931130473917,-9.13808693942201,-6.843500561278688
2.144,-4.061589631787001,-10.720819022419391,-6.23953399402717,0.3105382637904768,-17.83138930919904,1.088300606671055,-12.772263397228016,-9.38128792641237
2.148,-0.7902881321456334,-8.006441223431011,-6.9753882406080265,1.6588495569581028,-17.744546928581713,1.3683705230905616,-15.520551214792704,-10.924802362427272
2.152,1.5992401923222133,-5.032556053379494,-7.072317284582823,2.395629990890029,-15.49508149270605,2.0112054388664546,-16.7769857005037,-11.090730308163984
2.156,2.438460503493843,-2.4120228916908673,-6.419815440582852,2.4255210594262735,-11.755321894308736,2.7563147424025374,-16.50252352680377,-9.976348158420478
2.16,1.4698785358300483,-0.8601736104487827,-5.287056829217363,1.7578942221630314,-7.789929065215006,3.146773738119009,-15.27195319790394,-8.249538117403063
2.164,-1.0419339288082483,-0.9897938661990793,-4.251740700385199,0.4192141066075692,-4.964922042961575,2.722480327030098,-13.99960181912138,-6.954085294647939
2.168,-4.377215583900124,-3.00830393880301,-3.907108836430325,-1.5382106866065897,-4.1701412336290105,1.2953581816013866,-13.453382246002093,-7.061677065345066
2.172,-7.60146352026095,-6.487138080590967,-4.51690889985889,-3.9559809630370637,-5.431475168041175,-0.8552754095280761,-13.823660091629336,-8.983466449647949
2.176,-9.928819852425022,-10.417183392369566,-5.856159041063165,-6.530447259465063,-7.943646799109047,-3.0274433936615424,-14.615596841386377,-12.31739362360986
2.18,-11.032224831991698,-13.5624850289812,-7.325148878163191,-8.866558049819787,-10.484331043953603,-4.395691495913525,-14.93510893516077,-15.985147410973696
2.184,-11.158034854813422,-14.997349622290358,-8.302212744308349,-10.636181910816049,-12.019462167098482,-4.422347244227467,-14.0426094422819,-18.73282611682089
2.188,-10.980776821160134,-14.559595824624921,-8.527073443680479,-11.752670343372756,-12.193528530042727,-3.1754833137190417,-11.868345602423233,-19.749698245471563
2.192,-11.274063216104537,-12.959855419479595,-8.279312238220427,-12.444677968832139,-11.4452832212462,-1.3553450914814675,-9.16607709662253,-19.0653478797185
2.196,-12.51283828071223,-11.435880347608759,-8.236549672082106,-13.137177525505422,-10.69507572083603,0.023790213558413598,-7.190795944552519,-17.49539057514312
2.2,-14.590501025017033,-11.086447375923626,-9.059377463815508,-14.165386507706444,-10.762299837492037,0.1464479904725522,-7.0430309590087745,-16.14746347926075
2.204,-16.809591750803293,-12.252550834087288,-10.960924142147178,-15.494613427425975,-11.86851279480959,-1.1664094446775835,-9.041872464112203,-15.77426827517047
2.208,-18.16512344974217,-14.294166620354304,-13.518993863766582,-16.636313339077333,-13.512386030712378,-3.3382190798474767,-12.48043487339146,-16.352380021471163
2.212,-17.80870175976611,-15.92026103117746,-15.862072414781096,-16.85605113712836,-14.801413384280636,-5.311130925203997,-15.9270615793057,-17.134953550465525
2.216,-15.491866803459288,-15.93784412161176,-17.160613170934994,-15.603171121860896,-15.068991897507203,-6.07989114484235,-17.946478783351267,-17.159282779134628
2.22,-11.778579494171936,-13.99937477561889,-17.13173615691653,-12.924996897920664,-14.385008947185725,-5.2080394828474255,-17.84304198593145,-15.909465918182377
2.224,-7.914199838498689,-10.919554505702536,-16.25967914554144,-9.602284791975535,-13.629127963620704,-3.0480690743816012,-16.009851364153974,-13.719465541894351
2.228,-5.377692663059406,-8.344177676246545,-15.583177299690306,-6.884065257935845,-14.04313933782828,-0.5583819981211491,-13.69857520243636,-11.666797514881182
2.232,-5.281369680249895,-7.901711134229345,-16.135363075220994,-5.91537519217934,-16.48164304570355,1.176573612510083,-12.33092606951459,-10.998649973558486
2.236,-7.879454356532506,-10.290090446222166,-18.344647959228382,-7.152317506785607,-20.796771306993605,1.46143068472702,-12.727614329028938,-12.415273443068145
2.24,-12.370890715919131,-14.77279524461892,-21.70660162452691,-10.070304052095935,-25.71413259794508,0.27284754364291075,-14.678257016353427,-15.630270060237535
2.244,-17.130061506626816,-19.403406642858272,-24.931974116320134,-13.36358085003917,-29.330952467629402,-1.8125212058096167,-17.07531433685324,-19.454854316663386
2.248,-20.306211022263938,-21.897749323771507,-26.509475101069484,-15.558421565382787,-30.005614021856218,-3.9733115320398156,-18.527895502838874,-22.367134613541793
2.2520000000000002,-20.548509752536347,-20.714101080496107,-25.402841653599012,-15.7244232964008,-27.17183878599434,-5.56440403782949,-18.109507210533252,-23.24212041407668
2.2560000000000002,-17.57290317317802,-15.809431291142971,-21.54000384124936,-13.915174372966703,-21.651799221934596,-6.368915526182718,-15.822720732324228,-21.8473729303455
2.2600000000000002,-12.316977805350064,-8.677346317964634,-15.84441118478992,-11.103939345753815,-15.284572232518315,-6.571162821558573,-12.53594029812757,-18.85467610558112
2.2640000000000002,-6.583347329765729,-1.6568916613949796,-9.816171656909205,-8.6521771904645,-10.06951894204144,-6.506901521647819,-9.458912313264932,-15.412331551115813
2.2680000000000002,-2.3126426454381885,3.1210856538266967,-4.886945166748546,-7.602044634749291,-7.27939303476785,-6.38407648998475,-7.4727467654680595,-12.561406186527734
2.2720000000000002,-0.7780079063826406,4.635663543984151,-1.8568268588946921,-8.171005659935986,-6.977281808024486,-6.150864787270734,-6.685132300596933,-10.813107374331366
2.2760000000000002,-2.049751148181599,3.2891066506434754,-0.688123106875878,-9.704482275749001,-8.16677982820545,-5.576204282754361,-6.447698324152498,-10.084939882361823
2.2800000000000002,-4.988446021717664,0.532822836336095,-0.7056318821371406,-11.083616039003687,-9.433681347974755,-4.478656882759651,-5.807083594320147,-9.953913157596958
2.2840000000000003,-7.769574557200258,-1.9381320368643173,-1.0479580390714318,-11.333510319367008,-9.693286212730698,-2.930624487577802,-4.104107229912643,-9.992784447343638
2.2880000000000003,-8.73558390895181,-2.997457088525209,-1.1276983341017512,-10.112594228123669,-8.661191189382976,-1.3021306115347215,-1.377838431564669,-9.971931245166616
2.2920000000000003,-7.171755131673649,-2.497674861359201,-0.869162467842898,-7.830109231726226,-6.833873588835502,-0.09902428122109086,1.634814878551822,-9.831082822935286
2.2960000000000003,-3.6461000645081185,-1.1444080157680787,-0.6455762041917978,-5.372670870837339,-5.072533131772872,0.3067832250644642,3.887510273619341,-9.511661420443716
2.3000000000000003,0.24673437281342103,0.022284117191077257,-0.9839771566440163,-3.6324404947162066,-4.077278250482408,-0.11020991698285343,4.570450861127711,-8.838383442153372
2.3040000000000003,2.629616396602728,0.21004220882710456,-2.230345790643753,-3.104021356138446,-4.064821102820616,-0.9981291022556888,3.5021399358653866,-7.577447192417708
2.308,2.221161988792744,-0.7813423826815722,-4.344219956268489,-3.746000878634277,-4.778691036126958,-1.7990732772651654,1.1797022245127664,-5.6424685058027535
2.312,-1.0671654348445827,-2.578295399594822,-6.903195180718512,-5.127528919462918,-5.758781491032977,-2.0262582823454522,-1.5102356575663975,-3.287706482370254
2.316,-6.112153860129695,-4.548688833806466,-9.29953391011935,-6.730367171603973,-6.66872325713075,-1.4968329973604568,-3.7476169465929274,-1.1234355439255523
2.32,-11.108730789626065,-6.155742361409693,-10.980301325757296,-8.188712505450212,-7.436422376432631,-0.3882472644233985,-5.134533976224361,0.1254501544665345
2.324,-14.383464188285984,-7.157186716441913,-11.622736165179106,-9.356641356263765,-8.162815645435956,0.9002017019361119,-5.781209927686064,-0.004496093904890586
2.328,-15.077055476873056,-7.573096642130736,-11.179950344705617,-10.2005509826501,-8.89650565447755,1.9919379853591863,-6.108397703339961,-1.4233863366370088
2.332,-13.395811257098103,-7.5060256613751335,-9.811630728796217,-10.645504180298701,-9.459729369511876,2.7387089036272982,-6.507201016918202,-3.4740816789928886
2.336,-10.370880049523805,-7.003085679787546,-7.791649710860497,-10.52745535191525,-9.489218884645197,3.2670542263213065,-7.075503667945327,-5.242156149747302
2.34,-7.306096117170966,-6.063996754372965,-5.444669384095221,-9.696434820828017,-8.668825547952906,3.841045508361276,-7.578138148149378,-6.0351530338256225
2.344,-5.2298911761265,-4.778295639269288,-3.125428343502847,-8.206477248230613,-7.0076115659173865,4.624643477921154,-7.635238267703585,-5.753445373844102
2.348,-4.596252900901334,-3.4652591815608957,-1.2057177057914714,-6.4423702510160865,-4.973598168321814,5.484024281958227,-7.011437742354019,-4.942674439350412
2.352,-5.295634205325996,-2.6553605224506214,-0.014534498548243846,-5.055481900579366,-3.351842695039295,5.970528882034387,-5.821307436005895,-4.4833747656804235
2.356,-6.873433040095506,-2.8779610869750627,0.2693977356761934,-4.706749442882483,-2.8877215668036342,5.5195539171875225,-4.518788082537526,-5.090128582442276
2.36,-8.785738515107028,-4.353603375033515,-0.27564905185113275,-5.7413957061710335,-3.8991798329454923,3.763807309581466,-3.679049714528901,-6.909301245026086
2.364,-10.55706513944557,-6.78531158426415,-1.2977989036639883,-7.982988394896893,-6.084194326337297,0.8035337873091066,-3.697145731759406,-9.435234017954713
2.368,-11.80926790175323,-9.405924888495349,-2.2885087899857126,-10.761781797275376,-8.63653394689004,-2.7210143522173666,-4.572033341437532,-11.783848733214995
2.372,-12.260630472267735,-11.298231217215573,-2.810549302612344,-13.184084078179353,-10.616599257522466,-5.82666146340614,-5.891815287044551,-13.15832282257304
2.376,-11.786553012241086,-11.850701812890975,-2.747153539809176,-14.52117861367185,-11.408975608528351,-7.5885053666469275,-7.039173456838739,-13.243497809712267
2.38,-10.5306943251407,-11.083532618339746,-2.4134282233063686,-14.511938423729134,-11.013871137551916,-7.555292819625606,-7.5035776297933126,-12.314210611384397
2.384,-8.980636595113765,-9.654396742169467,-2.44374188754648,-13.44087726831117,-10.026938166532545,-5.964874513964787,-7.130156386109206,-11.019894435906167
2.388,-7.851461432606243,-8.51059255441362,-3.47983725351628,-11.95185152292754,-9.322336751427486,-3.6460641403006093,-6.190868290578123,-9.998839018225112
2.392,-7.771762546457012,-8.364699281683102,-5.789672803752694,-10.707892502658297,-9.588933823890784,-1.6347006933933699,-5.234200453339213,-9.541594407813818
2.396,-8.924990085765899,-9.30039931723536,-9.034277859896235,-10.08938865133132,-10.970983171193325,-0.6880578781672284,-4.803040937289325,-9.490102646766786
2.4,-10.84321007975825,-10.703666547016667,-12.306853652286634,-10.063255074699327,-12.967997806079268,-0.9400933532697309,-5.158860158864172,-9.404906051069702
2.404,-12.526167657076144,-11.57524088305189,-14.470670887253789,-10.276643812066709,-14.64974211853854,-1.8816264932329432,-6.159632046529737,-8.880184668915945
2.408,-12.885583898932055,-11.056021955593394,-14.645172068843124,-10.29371617284312,-15.080872526315602,-2.6754419619433065,-7.348823715667322,-7.8126793972444375
2.412,-11.300363261536518,-8.86812433269506,-12.601968478262279,-9.833216656402556,-13.744811064438181,-2.631126474166649,-8.192850898188908,-6.472127200927844
2.416,-7.980194829090465,-5.456182507261758,-8.889142741553655,-8.888759742820298,-10.790178114098865,-1.5780954144729549,-8.338661607354652,-5.346387985965066
2.42,-3.904921301546892,-1.7496305399868106,-4.605678449368838,-7.678432918385852,-6.979891393585376,0.06713235158508724,-7.767450579540309,-4.866665463001709
2.424,-0.34730407525455576,1.296916403469936,-0.9378360787869724,-6.481135444424467,-3.381388751711313,1.5750902998236143,-6.76858272027323,-5.18118338756517
2.428,1.7651176628902476,3.1142122820882605,1.3103781395633405,-5.480941531467238,-0.9502758649772431,2.3518433847791584,-5.765353879723875,-6.104734099438929
2.432,2.3059615585805204,3.6886301548166784,1.9889336325419436,-4.696602673152711,-0.17092145677185044,2.3010459780853125,-5.090345500308217,-7.243432019250349
2.436,1.9527652091721848,3.4128113324389915,1.5506433687643266,-4.03755116887703,-0.9211723057273957,1.8788265558514468,-4.840111979193239,-8.212684026719444
2.44,1.7460179576407882,2.755815275823238,0.7362850023445162,-3.432421780323125,-2.5970971995974423,1.8007887053331615,-4.875298957842006,-8.818782520800823
2.444,2.479643621539253,1.9828041430686199,0.1760197893518125,-2.925809846957236,-4.417844818313256,2.5768367336195297,-4.953829962084228,-9.103981445090312
2.448,4.248757241909061,1.0721611399085305,0.09996485587646475,-2.68638768850667,-5.7749440104717,4.148885571373285,-4.915888537369256,-9.250412030891994
2.452,6.411485372479547,-0.13715665738379812,0.2944695069993486,-2.906363501668011,-6.459309552480704,5.866870360029679,-4.798391137511089,-9.41369493149341
2.456,7.983291187911391,-1.6956739704351094,0.29330019958706544,-3.644445353957849,-6.676965544205132,6.836999989661763,-4.814121778239496,-9.585238324720876
2.46,8.215190905698933,-3.3636604668595282,-0.30366817651463407,-4.699266184001772,-6.847725854321425,6.4473384588638964,-5.193397169019136,-9.553829348801855
2.464,7.032965664254448,-4.632994330668907,-1.5638666314216607,-5.603228878111622,-7.308609960048329,4.772741134612943,-5.989358058156768,-8.987638833402116
2.468,5.084733112988829,-4.954222147257838,-3.1454540323493347,-5.769723159337559,-8.082137579069354,2.6026623916786775,-6.975526867005328,-7.595574332742217
2.472,3.3953913494099197,-4.021186744181364,-4.430922966995695,-4.732726175238099,-8.818783043081794,1.0648352142002295,-7.706713654896248,-5.281727037337987
2.476,2.8232616937002604,-1.9639614866061947,-4.809551941270456,-2.3924774019146753,-8.967633116758407,1.0323184779351777,-7.739648700078533,-2.2334618469790257
2.48,3.6443519103499966,0.6820587309046005,-3.960205518284397,0.8724408228267748,-8.068660495475001,2.6374458347904692,-6.896280303452386,1.0870543349728905
2.484,5.465165300811236,3.209851885632247,-2.0020078266582004,4.292059099725975,-6.011693136858639,5.17821991238111,-5.4108962779150716,4.054397310798549
2.488,7.458716191487042,5.0468203961526115,0.5640576119341176,6.96270984475882,-3.1230137228735657,7.463450042606155,-3.8590798656603056,6.0576442999129085
2.492,8.780140635800535,5.99067323056579,3.0927900590883155,8.183373859652193,-0.016233327797749553,8.41074202405889,-2.8778868197400698,6.689194686954579
2.496,8.929314529528597,6.242757463978137,5.078780870857486,7.724014267919301,2.7025558759423802,7.584837406003544,-2.81866108316558,5.884824577479094
2.5,7.898152603535664,6.247666443998469,6.356113945564061,5.911685287626369,4.716497147771975,5.385302006582606,-3.529480362639333,3.952600365383887
2.504,6.063553366157976,6.422362556327926,7.097591547481329,3.4805704523464556,6.091759397254123,2.8097917587044776,-4.39971298784485,1.4731769301872646
2.508,3.940609827698836,6.913339251438174,7.617310977182342,1.2482645685956868,7.121863718443933,0.9280758849672566,-4.676960917520091,-0.9093805103216255
2.512,1.9769600801633942,7.518069949580536,8.098627437090954,-0.21689144291053708,8.032964300488175,0.36503784646288295,-3.8997917748897635,-2.713958503992899
2.516,0.4399857344812972,7.76828562649473,8.388100619292231,-0.8115639949262459,8.708415391900758,1.05665065230437,-2.208128725345432,-3.780992462528957
2.52,-0.5630500928569973,7.151129079623047,8.007157833298265,-0.8814320982114623,8.634767576632385,2.372972269216234,-0.34315152111253155,-4.2903057823778
2.524,-0.9954016615715773,5.36945390897597,6.399488209670949,-0.9760615438667628,7.139753618199393,3.513130057670878,0.6983967447579289,-4.607766851641372
2.528,-0.8430538152202871,2.517541157408573,3.3056301916716393,-1.5179975975845537,3.8179975680254756,3.9243425940435372,0.19739256400293925,-5.044441641979574
2.532,-0.1380908226117299,-0.8931597021899051,-0.9326126911802248,-2.5525183672152707,-1.0758092194876099,3.527113574592022,-1.8424142884034609,-5.638430451760769
2.536,0.9726658798743983,-4.095199492770234,-5.3484174086299845,-3.720170392277396,-6.524596888419296,2.6542127209847877,-4.599108996603036,-6.0909445156273705
2.54,2.1875384235622732,-6.339378734067623,-8.660758979329103,-4.46699819751916,-11.03284513550534,1.777947454981586,-6.75811248688774,-5.898988855906282
2.544,3.105794568815327,-7.1799466324225705,-9.806292184961762,-4.377919474110513,-13.203983871716446,1.2158614188995216,-7.118542761005983,-4.624423270469379
2.548,3.378885130780418,-6.653669063293819,-8.435495839586906,-3.446911305430376,-12.348020891362808,0.9848324510608109,-5.189674255813998,-2.1755937614798313
2.552,2.898268495164075,-5.252507662979838,-5.094328334560487,-2.1187918340194756,-8.803039272158344,0.8723020090478713,-1.4631013817554503,1.05621677875547
2.556,1.8991077624573336,-3.7139484321052123,-0.9876338277081231,-1.073205652132856,-3.822330986767952,0.6579126605377041,2.77662942843358,4.284718419458613
2.56,0.8898548797474177,-2.704848123572333,2.5846375281803375,-0.85925165718686,0.941995972957784,0.3153972222867196,6.017854291594858,6.612539612121964
2.564,0.4211315011816623,-2.5504817066565693,4.822488806098022,-1.585044879419911,4.102643687386717,0.06942182223974669,7.182368058947986,7.385901875813943
2.568,0.7832314216052509,-3.1440065514943853,5.732837694868067,-2.8425333588104422,5.035431476065355,0.28082069622359995,6.065621153037455,6.459111196613321
2.572,1.795071071031316,-4.057362676718071,5.997320814282148,-3.9131828124507138,4.0094082612801,1.2224790549330464,3.3675942691465934,4.253516683479575
2.576,2.831161440306232,-4.795065486717817,6.483697863127645,-4.140222977922576,1.9229884540349076,2.8880235461701886,0.3280037639706279,1.5937782096057163
2.58,3.125531926526719,-5.0310125342796255,7.697219748260977,-3.2488935787669107,-0.16621558949054815,4.950428583893881,-1.834883093352346,-0.6088699174142675
2.584,2.1945388915407875,-4.726042288581084,9.468240588176059,-1.4624442366398398,-1.4878975043384344,6.8847997707521245,-2.420005086689798,-1.6936729043732157
2.588,0.1636878496915415,-4.073545910508074,11.06036200747053,0.6447007903086615,-1.7870376161787362,8.183977547082122,-1.4604862817911908,-1.473654088074909
2.592,-2.1911869091234166,-3.3120715248185206,11.638909605382423,2.4813176834957176,-1.2525908133458188,8.567175203529132,0.40358108939881276,-0.25903783708145056
2.596,-3.76479653000888,-2.5468963294197238,10.807219824059985,3.753837668208689,-0.2669490140730204,8.080512472912233,2.2984335641597227,1.3241111379893482
2.6,-3.6677238758366,-1.6791930818976653,8.899454149774783,4.592005798481978,0.8637230738793278,7.0533980434520345,3.548140299431907,2.6376386306478707
2.604,-1.7120077334784582,-0.481204182686497,6.85364747974495,5.4315015472245705,2.054458085843862,5.9554003655689485,3.9657013739886224,3.332770090538361
2.608,1.4460546893553783,1.2393635422688476,5.736614243777012,6.743752230266637,3.4135472719424342,5.223477013993033,3.8881575517673355,3.511970482326433
2.612,4.611299698155108,3.5026561091344774,6.198691600292705,8.776899168919044,5.100829423326559,5.127771038413357,3.9638828077713697,3.6720965338799942
2.616,6.657864549581973,6.107768234247487,8.144426135166213,11.433955663007055,7.148778553460261,5.706478691546181,4.783419645667891,4.421082271780051
2.62,7.099235909854315,8.688987318263571,10.788282547824338,14.319347733901168,9.345278359464146,6.760564618008175,6.515994940490145,6.081058944160759
2.624,6.303635727368828,10.834724843841968,13.045362797028247,16.904038316886272,11.23475949339354,7.911329782471512,8.739598516688147,8.39675378304537
2.628,5.233877932902942,12.206534117295178,14.035107437745182,18.711930753619527,12.243050940535795,8.720439533731678,10.566248630499558,10.523245649974342
2.632,4.84801067771491,12.625355218946197,13.449927230960157,19.445090060183702,11.8991051161629,8.852109433043097,11.052506435048144,11.36236137649621
2.636,5.523400282309467,12.111930281301056,11.623954241714046,19.0273436123357,10.064065220821476,8.235062777610892,9.727197241381418,10.125591729267853
2.64,6.863978384612892,10.90638816814544,9.32245341553562,17.60998253150501,7.092069489222013,7.155998933426872,6.968369792767589,6.848125931526283
2.644,7.989250390711504,9.445761373553523,7.380943879842334,15.547698521958864,3.8190053942455506,6.210431569664252,3.9841526989603153,2.5501192731435367
2.648,8.097120502253802,8.239889243062407,6.350527387901366,13.32167494986652,1.3123853087174666,6.069033611623581,2.30035570177688,-1.1314783887273734
2.652,6.950455239109942,7.653142494922804,6.283680913104945,11.396950869588636,0.43580540990478767,7.129622195082447,2.936879674320153,-2.735540716540072
2.656,4.968637549428877,7.645501670014028,6.699509679041057,10.020509473241873,1.3836478948658169,9.209422753325725,5.666787007903167,-1.8180727752724124
2.66,2.878439647677851,7.615363809373093,6.708511915689769,9.040140936756416,3.412740929403526,11.45082423087797,8.777355589880244,0.5978486293638525
2.664,1.1788444641526894,6.505744091625047,5.2778775559788755,7.876921788481013,4.977906175279941,12.558935728279721,9.596014362148708,2.292901008294848
2.668,-0.23049684975194396,3.222042253528798,1.6055210803881437,5.7284709179075435,4.308299608637299,11.317265384727307,5.6780350823432855,0.8160845865618285
2.672,-1.960207413703074,-2.7521901349853124,-4.4808699772002,1.9865562848267473,0.2412679001276956,7.182994710300591,-3.869476235858201,-5.276135461238027
2.676,-4.625891561128128,-10.854659995178508,-12.253703165273691,-3.3178553004127025,-7.0769578562708375,0.6794240396015994,-17.58917474753298,-15.507700745761667
2.68,-8.248660958425944,-19.36314271751985,-20.084508915437027,-9.29083869103033,-15.989556899264699,-6.635777236196645,-31.87862339182675,-27.394740197820738
2.684,-11.959581245919935,-25.877886256469083,-25.816775810329773,-14.344030433382159,-23.803271521263696,-12.656977873275537,-42.225929578286014,-37.290118824575984
2.688,-14.267251684462508,-28.243645224195916,-27.475497125218226,-16.751248338542155,-27.813344174988288,-15.492383862188944,-44.98696238517414,-41.81009664428666
2.692,-13.79493668595478,-25.50007285831589,-24.06089115513032,-15.366532978975101,-26.43039930338,-14.170623415288446,-38.90597209916314,-39.19153606251348
2.696,-10.077527394028039,-18.395354475671184,-16.094640109542752,-10.163198132654998,-19.899719857112586,-8.99452778855084,-25.6690191855364,-29.96776221751952
2.7,-3.9203974475381074,-9.144240294802103,-5.594683713905624,-2.2879785794448253,-10.233791272487906,-1.3946328898068714,-9.212152468174736,-16.66392341777191
2.704,2.8838467570833473,-0.5188609547410579,4.589149276889884,6.392247324700747,-0.3725213042619089,6.638780400029191,5.8982774395185515,-2.6953927636022854
2.708,8.338340307328735,5.29185498396987,11.825077057880208,14.024186852764615,7.030282357275382,13.275978790967656,16.243035162344768,8.966735975523079
2.712,11.101651730335334,7.508468406715565,14.686059724804409,19.421426991151293,10.63018658196529,17.40849498172247,20.676862091932435,16.745552946331372
2.716,10.967093717260695,6.869573483588056,13.406752679758483,22.321494456781693,10.745440271454981,18.850382718140736,20.348661305790756,20.658954281926526
2.72,8.75146289902591,5.032375221777329,9.620436864825706,23.191556298733758,8.94307993467146,18.16339252025864,17.74194861805654,21.81367966022617
2.724,5.706340547549189,3.614861270644724,5.508691441018982,22.752763006405985,7.11396084795183,16.256300635956904,15.30563690378267,21.5710471229645
2.728,2.8427705067829265,3.4070625831452617,2.8009242497421383,21.545463697930245,6.538724956191118,13.97627807391973,14.36896357842852,20.85943325682456
2.732,0.5742961448947881,4.159596968119104,2.1189121256577437,19.790190607235218,7.411125553189095,11.856316086127663,14.826701133883489,19.94393045980496
2.736,-1.1766857407508269,4.981116870726282,2.9354068873760752,17.567670726868073,8.992149485465916,10.079908417748811,15.612061741058824,18.667005428882476
2.74,-2.566564571661047,5.05821690521816,4.110701663101054,15.133151998780932,10.235653487493892,8.611328244299784,15.57256634739906,16.89561415621438
2.744,-3.4702632035885017,4.222905209501505,4.6470876891510216,13.076021445280048,10.470137402114688,7.369336409009065,14.208169214179634,14.830355345643966
2.748,-3.436173029185966,3.047325457054967,4.239722793741294,12.171611715822564,9.762256067098406,6.3452354245469,11.891313772864123,12.996028653075882
2.7520000000000002,-1.9902705593140126,2.465056199467881,3.3658271874758157,12.989278321698293,8.812722741995458,5.626956234871614,9.551254406560929,11.954797342475104
2.7560000000000002,0.9099493074288603,3.1657872550081265,2.9165799648708344,15.491309180022881,8.484316061845675,5.334418405660472,8.086948035057503,11.956255378863716
2.7600000000000002,4.595485191475973,5.150998617857567,3.6350970818011774,18.89253165250716,9.280517371524638,5.5128446862713645,7.885434476807404,12.76283966424353
2.7640000000000002,7.827675981335915,7.713928714974145,5.689110771336573,21.91831095821817,11.07884669625605,6.05505930500658,8.706610199858005,13.766164076376754
2.7680000000000002,9.325563620744106,9.817130305522141,8.581628302998524,23.34679909096144,13.22682320076774,6.69215295981121,9.934619510394441,14.310632453169546
2.7720000000000002,8.413770617501768,10.638887977093646,11.411756667069085,22.568360859099812,14.923959765277232,7.069582024290412,10.981913574277314,14.041518719575379
2.7760000000000002,5.414926978901121,9.952378647188198,13.289266391361707,19.851759023797968,15.635033755053882,6.891199791095005,11.587486289502067,13.079786322251948
2.7800000000000002,1.5660157260310825,8.154710984648773,13.679781312527666,16.18136517606149,15.31317215550439,6.077435431994218,11.840904184573446,11.941705417112644
2.7840000000000003,-1.5224862339057381,5.968224886112921,12.541055772975369,12.765861151311583,14.35165218492375,4.859601218570788,11.97583371149176,11.28005668206606
2.7880000000000003,-2.6185786477699367,4.015122952358752,10.244454301317546,10.467942695025386,13.319946257027823,3.732058601047811,12.107766573121353,11.577017686600357
2.7920000000000003,-1.4277588510783517,2.5322877270220943,7.384217693397886,9.457055894257564,12.669334803334323,3.2548397383493466,12.110212600456634,12.945493245270427
2.7960000000000003,1.2826254539902493,1.3405165891506385,4.572718876142062,9.21994581675699,12.547407680582864,3.7707995849636973,11.695795797276787,15.101695639128593
2.8000000000000003,4.04085025420045,0.054261518288285515,2.2979612306000945,8.888297348370088,12.799722028010137,5.17902342345451,10.631540151126046,17.482502454892256
2.8040000000000003,5.330689748795521,-1.6247203527714191,0.8463350974686819,7.696357111771249,13.12105257125063,6.906272207242637,8.943362586152489,19.446343299950968
2.8080000000000003,4.249900599560533,-3.716587969982811,0.26547190888300065,5.3428360998232165,13.238583593561998,8.12965788340398,6.966322199576098,20.46747295915293
2.8120000000000003,0.8948421928282642,-5.93795877679122,0.37935251303383666,2.1240429911695173,13.051875084339372,8.17904243037583,5.211599263521293,20.282467596077367
2.816,-3.7056616920460783,-7.848994008368663,0.849334885839653,-1.2057073248170127,12.663349807315399,6.9109818258648374,4.133123986682676,18.96054672126911
2.82,-8.032839839810322,-9.047706488647918,1.3160284326884266,-3.739638368384476,12.322367972378743,4.835350003683288,3.926576801877218,16.87620746819357
2.824,-10.700019516653583,-9.31365126788478,1.5734686314228838,-4.757196616495776,12.31413291488434,2.897484732158773,4.46060137976815,14.586583255414098
2.828,-11.009815079774626,-8.666516192847666,1.6739313126686284,-3.9931746726065285,12.825368367959754,1.9938229549325115,5.349359655318722,12.624467312230536
2.832,-9.18739672284164,-7.321973763898313,1.9019865758361902,-1.735865980153676,13.848236186235795,2.4721439448621823,6.107936866600539,11.279231458496724
2.836,-6.223682980421472,-5.605045716820769,2.5941293475755174,1.25320906751449,15.14198848145736,3.9059567840699856,6.305109118795372,10.466027550254694
2.84,-3.414302242383201,-3.8600802525340896,3.8875573038594666,3.9771621466104534,16.28024932938058,5.297787963913379,5.663806841691667,9.767529718381411
2.844,-1.7882763827830672,-2.363721543553652,5.561130001100992,5.540086588806389,16.797921726189998,5.6246209463280366,4.113474295804508,8.666115572822719
2.848,-1.6820559174999516,-1.2615818880283314,7.075264123196632,5.469023063331292,16.38856943448434,4.424572328867498,1.8095312500835234,6.850984327452693
2.852,-2.657654917161608,-0.5474082043523367,7.806590377849943,3.8853801654267954,15.06055586655009,2.0812209030395934,-0.890270591282615,4.426814570676925
2.856,-3.7875744461719023,-0.10043077172929316,7.3529773513812415,1.435563553786551,13.159070398549488,-0.3738833759075533,-3.501902824003537,1.8902874507061824
2.86,-4.169688033694683,0.22377337500427075,5.737194095029963,-1.0096158777744222,11.223387922336315,-1.8522507055445203,-5.545867921906392,-0.1289879079590719
2.864,-3.4066073558926746,0.48814339616683355,3.383650115775481,-2.7674415220672017,9.724493920646864,-1.8544833018327154,-6.721720510382966,-1.2292279360776774
2.868,-1.8075272708417742,0.6097369405487143,0.8803976471275519,-3.6718326204718323,8.807783230478663,-0.7948992455762891,-7.050390062843462,-1.4844202592707916
2.872,-0.2045107058972917,0.40053243362092417,-1.320144080376508,-4.1345052987153394,8.202054838591607,0.19860665859164328,-6.898821255551411,-1.4171104986203318
2.876,0.5099380584445043,-0.3068244407789962,-3.085428507149686,-4.8953604863804685,7.357736206498998,-0.08573683753888872,-6.847242098018569,-1.6866260449755828
2.88,-0.13072961728573773,-1.5090210310117982,-4.545848995024471,-6.575542408385218,5.769525833927446,-2.2316839098896253,-7.423701998505749,-2.6700938050978493
2.884,-1.9078658545649887,-2.9637101495496836,-5.8628118273625205,-9.2733234787338,3.298087655116774,-5.814576274577121,-8.837033352193203,-4.205845005022866
2.888,-4.031291706436377,-4.266950153216726,-6.998093328141749,-12.438990731256354,0.3005123323089265,-9.581501424547696,-10.861000368578516,-5.677420039193066
2.892,-5.5613089340104125,-5.046274040312483,-7.6488597098395985,-15.112638641621515,-2.5099467570086063,-12.096860479982752,-12.935141988998112,-6.408688798218918
2.896,-5.909794702018644,-5.181758859800084,-7.422409176820452,-16.417327314968134,-4.424596429969597,-12.491427432668388,-14.434295028373526,-6.1340617781700075
2.9,-5.118658744871709,-4.89066927634849,-6.132106653931942,-16.015253159579515,-5.101751796162716,-10.89471979260884,-14.964855520119954,-5.245921424852668
2.904,-3.781696817125976,-4.605589451118817,-4.022941150596125,-14.267270074503585,-4.719288251277021,-8.316341557593432,-14.525985045736888,-4.629347320137185
2.908,-2.6615405432354464,-4.698379991834031,-1.7588157542032832,-11.99834000246301,-3.8338608799761005,-6.064030315750642,-13.458270367245177,-5.155030766483378
2.912,-2.2327253805057126,-5.199176998639814,-0.14163832439669477,-10.005259232155822,-3.0243982115761128,-5.039886837501172,-12.227911189920633,-7.1234466766186415
2.916,-2.422570765493333,-5.709730748755987,0.2776498369858018,-8.604596063938743,-2.5510038458893405,-5.310396373569347,-11.193173484118915,-10.00143422285737
2.92,-2.6876585666077517,-5.583097434671458,-0.5147711664163808,-7.489687709230225,-2.23651525594903,-6.1725889563867895,-10.491235784967103,-12.64101958772676
2.924,-2.3782774742645643,-4.3001755007258,-1.9894855445716075,-5.9890385634014365,-1.6460160680965146,-6.649185899133499,-10.082099609841862,-13.880781301929346
2.928,-1.1620123821952575,-1.836320238613439,-3.3623721653543726,-3.5665053204899095,-0.45691151312792044,-6.098738662636151,-9.89230324290611,-13.199566658919366
2.932,0.7528980100378249,1.221111755388165,-3.9982682220658035,-0.24801464331142142,1.2337190834311969,-4.579059229515224,-9.920526557859375,-11.030399388556134
2.936,2.7057793075612153,3.883565686465772,-3.7157057201751513,3.276551451470141,2.8630288623417073,-2.776673669536649,-10.21996070957971,-8.538861218228021
2.94,3.937356012866644,5.2161776296118205,-2.829150642128184,5.955219532375622,3.6720467788316,-1.5738517949298512,-10.779441950665387,-6.982072114707307
2.944,4.0061782536660075,4.79336502740523,-1.936709650582884,6.900047482443256,3.1285173135835294,-1.5323460447784782,-11.41555516715755,-7.012116124867134
2.948,3.0224173578524187,2.8996541108673455,-1.5933259833949478,5.830720632393422,1.2464539782521342,-2.597062362127872,-11.79402923622979,-8.316075465960012
2.952,1.5774753940960409,0.38097150103089916,-2.040269638383279,3.1904706252956885,-1.3750815244256955,-4.1688936975981505,-11.586276872610028,-9.790835126782895
2.956,0.4084392708098221,-1.785187848530768,-3.143230994118312,-0.12695928528376044,-3.834684170385401,-5.482382752581998,-10.677561683704198,-10.150776328627671
2.96,-0.0011405866291624989,-2.947121348509995,-4.521057982528987,-3.244857737255643,-5.358646573598207,-6.040611972935949,-9.268486105011789,-8.61738096852082
2.964,0.3309444719931207,-3.0260083304016803,-5.757127179974077,-5.684008731504264,-5.630731660752076,-5.846782964282966,-7.770101465083826,-5.30215614935878
2.968,0.9279186502001266,-2.438516563599137,-6.562828053118267,-7.442417085616171,-4.845272353558926,-5.318200715988496,-6.529651596011263,-1.103091348767066
2.972,1.157467401595568,-1.7627739026772815,-6.811202202020411,-8.760081709673045,-3.4710471806292844,-4.964108756258497,-5.5645777649243655,2.7925251266949545
2.976,0.604080661023545,-1.3755878073272925,-6.467793765972715,-9.768451586750075,-1.9015122649641967,-5.046497916398721,-4.493519460475341,5.50050787206942
2.98,-0.6846961608115407,-1.267046140100149,-5.500494569928037,-10.271149197032855,-0.21064221527780091,-5.419004578875956,-2.750626008381687,6.786338645076853
2.984,-2.2061371805878025,-1.1177820095503535,-3.8505467113348573,-9.806587073834748,1.835828129245499,-5.623707138441432,0.02187691225697108,7.014302267836229
2.988,-3.2644544700765437,-0.5675339467995855,-1.5009775067695728,-7.95855839288015,4.522564238598079,-5.17701981430605,3.6365160045970697,6.784689339297302
2.992,-3.321519132113167,0.5271320247164226,1.4255598890462693,-4.691555001391521,7.870920772406009,-3.8558106094890263,7.310613060002538,6.518310883172489
2.996,-2.2604032003645216,1.9950270772141039,4.608856544636296,-0.5017471371513693,11.461077466457652,-1.813808988529786,9.959647961479845,6.247844805174054
3.0,-0.44147353693375635,3.455722787478976,7.5701446133018635,3.7137030478722863,14.507559257502862,0.5099266697238818,10.685714436083913,5.701868559140166
3.004,1.4760288232814673,4.544792245841961,9.806125725400534,7.000124210994727,16.158188226155744,2.608193713437913,9.201349960827429,4.59566727430547
