Timestamp,O1,Oz,O2,PO3,PO4,TP7,TP8,Fz
0.0,-4.547473508864641e-13,5.684341886080801e-13,2.1032064978498966e-12,1.1368683772161603e-12,2.7853275241795927e-12,1.3642420526593924e-12,-9.890754881780595e-12,1.0231815394945443e-12
0.004,6.935949540248771,25.121359335188345,15.325459539278597,9.57663698387455,24.596706722998817,1.20064356109674,7.586615283362789,3.102231947162977
0.008,10.711556283559673,42.10599408334667,24.748639408636166,14.65454577035689,40.49927898595956,0.6581586435039526,10.648799712865753,2.4443310483460436
0.012,9.636100494660866,46.53747287849251,25.149632277429646,12.811017611096531,43.02742338867159,-2.458172188036656,6.857747322070395,-3.7657868257413156
0.016,4.229241408580663,39.549372054260516,17.569344501671935,4.755854327686222,33.495949787421125,-7.603076147618253,-2.7931817582757503,-14.398811870261966
0.02,-3.121123493054199,26.859531509983128,6.495569016404886,-6.126461360495114,18.191278366249207,-13.06612062901445,-14.480934706440053,-25.932152335436626
0.024,-9.3597586624349,15.663955419554497,-2.478255046158381,-15.446088155395955,5.022897290414107,-16.748940746777976,-23.373414443269212,-34.155116239111976
0.028,-12.19107616152894,11.108058837822625,-5.353084924685049,-19.810450404533697,-0.3005013017443048,-17.12322046333236,-25.83206694580582,-36.11973188344757
0.032,-11.004164455923274,14.211915158072202,-1.3653749853514228,-18.156865151539364,3.4413168653669572,-13.902380653248656,-20.910642725418597,-31.34370159092191
0.036000000000000004,-6.867300933885019,22.193899807520438,7.174719489062397,-11.830896740881144,13.246990873321863,-8.115321958096501,-10.489054225582777,-21.737522271636408
0.04,-1.7510081869642136,30.666547491538722,16.51925036207183,-3.5706174987506643,24.207296163285662,-1.5875949657171304,1.8821522245258393,-10.445119484003158
0.044,2.531473818828033,36.264320414573604,23.552750658613945,3.9426217544314,32.34782597846396,3.8750316957125506,12.716135466039532,-0.33095760347066516
0.048,5.087883361428965,38.17516962885992,27.116602603693366,9.170022003780048,36.360544099762194,7.192750954668668,19.980172344865707,7.07604289852361
0.052000000000000005,6.109729720812936,37.93851361995621,28.036245493233082,11.99896991733226,37.499546637806475,8.29973045273573,23.540834606541182,11.737221339940334
0.056,6.481817100854187,37.947589269170464,28.09698518613351,13.284486467532247,38.07221211753617,7.933400082762887,24.62849883713352,14.484935927940455
0.06,7.141818601745285,39.71841690980614,28.70219741805903,14.063324747328693,39.64538578787955,7.106062259819055,24.77031903005286,16.13270994315201
0.064,8.542943571401736,42.99795548615867,30.067041553357768,14.937624819565201,42.11436441616996,6.557779338897376,24.86532136479417,16.886838298609064
0.068,10.455677377948234,46.096987306659486,31.30211711304574,15.894957030301043,44.03665520000024,6.462759985393859,24.8594347945878,16.339785183975266
0.07200000000000001,12.168479553194516,47.0972292047457,31.194756104915683,16.553699361077747,43.83657724838412,6.507180832628251,24.085890959226447,13.939266677003786
0.076,12.909557951208171,45.10510520243571,29.122453405128056,16.575747995502354,40.995219618945384,6.230583514315242,21.940868528523367,9.566227310324166
0.08,12.249573845049781,40.753870712368666,25.47887980893188,15.928475391681786,36.4050981825292,5.395217013919989,18.419566683850405,3.826410538387506
0.084,10.299836989719608,35.7441876373301,21.41928435257256,14.875609169722736,31.74379982573916,4.17147145698641,14.215249733741757,-2.107623101682293
0.088,7.629712621346272,31.78841306743456,18.15364922986899,13.751791358763057,28.34790042509036,3.042577222845239,10.358866272446164,-6.98350567093712
0.092,4.977475991588932,29.687194228452427,16.30088891691952,12.72797013250704,26.406321918995644,2.51013321124708,7.69109510473703,-9.972071878990562
0.096,2.931056749895731,29.100919023209286,15.72062645949245,11.748193334767109,25.015901976627646,2.7939160614164393,6.513019799379379,-10.919015302515447
0.1,1.6881748941251544,28.990646334997052,15.813117544825019,10.621591696363168,22.956359204527672,3.691585427765574,6.568293601859864,-10.273377580277497
0.10400000000000001,1.0060918584966316,28.356922161290754,16.01409316720074,9.1785672285028,19.616400773901972,4.664137952386966,7.29904304904727,-8.807680808784141
0.108,0.36346927589994493,26.763827864103234,16.10709083734318,7.360552485180108,15.425436169064767,5.0842902180924625,8.167454203338593,-7.318488329989634
0.112,-0.7179447392393001,24.421808127721164,16.20212596661662,5.22261737338647,11.567597705408673,4.518912987149065,8.860670649550457,-6.416708021597003
0.116,-2.340526092906572,21.91414869476006,16.48654571219464,2.888989571555328,9.23749240040459,2.913898852755324,9.298082550150411,-6.443828914969458
0.12,-4.095182809365639,19.786651278523152,16.95543539485385,0.5033563545241009,8.926552816882122,0.5964442901508846,9.508777399481062,-7.47121168115882
0.124,-5.221573796432864,18.291014063025216,17.3592564831209,-1.7744856542762193,10.208425854029258,-1.8961586171275826,9.526958910601422,-9.336220602761841
0.128,-5.032880071185019,17.35840814743176,17.3815769112432,-3.7664762165918546,12.089657681299627,-4.056052766616915,9.370281471265457,-11.701441520118067
0.132,-3.3669421153511507,16.774410754214557,16.91673135543843,-5.293439186332762,13.67032986458247,-5.592689882186676,9.099466743804953,-14.140189023706512
0.136,-0.7739837137507664,16.409756733607935,16.23359398488566,-6.213329099597388,14.670995619974576,-6.495068378047051,8.86350589114528,-16.25859007225091
0.14,1.686472404123009,16.302316572129882,15.852512016749387,-6.489272451283568,15.46382535559485,-6.962838825915981,8.832183208392621,-17.825239232033937
0.14400000000000002,2.9841292895475533,16.575743029818597,16.20880300266225,-6.214467169309046,16.641829521828242,-7.267963735520823,9.042484521907738,-18.838171983026825
0.148,2.6581558614738015,17.250960508921338,17.300628350683837,-5.5872459195277315,18.432787590937778,-7.624386474482321,9.263731891465113,-19.484744341661553
0.152,1.0624549943892703,18.140560823942337,18.602136274774352,-4.82670238911021,20.412496676063654,-8.1144692144116,9.028842657838311,-19.986743778533423
0.156,-0.8361403360814279,18.92835826290343,19.330060898446902,-4.065855121169534,21.72898512786736,-8.679662137556875,7.8741422250151345,-20.423698775454852
0.16,-2.034485362075543,19.326017757904026,18.87239638604518,-3.320141061050549,21.642573751897658,-9.163262818146336,5.661867652106935,-20.656485577989088
0.164,-2.0759702384433467,19.21894001793396,17.142192794316088,-2.53402102613029,20.026586177484376,-9.382146865701998,2.7787921687016706,-20.420961014013642
0.168,-1.3341701035352571,18.663006356360313,14.608391741158187,-1.7104808327263186,17.455241572515774,-9.204853930353465,0.04616568119871545,-19.549651493574856
0.17200000000000001,-0.7670630510949081,17.802301896019287,12.022685400078387,-0.9953317767427734,14.861253871254917,-8.598002543732377,-1.6407724634266287,-18.158431219102795
0.176,-1.2828129355673354,16.793300830367514,10.037954821848473,-0.6409064859491878,13.00980331948449,-7.640826320955853,-1.7579649187795212,-16.659644489106768
0.18,-3.120745403959802,15.740977644124712,8.912957500616983,-0.8738032806238607,12.090370846442681,-6.5116547786713,-0.443146533114259,-15.569191763123172
0.184,-5.64771634026539,14.665948394279496,8.465398590948723,-1.7450091407121135,11.677258815282528,-5.4639397012388145,1.5442062965801142,-15.216524567624333
0.188,-7.711706041660989,13.480214849177173,8.24452474868525,-3.075976784854902,11.038997068783999,-4.783900398854826,3.1735048607048384,-15.542204782036833
0.192,-8.326435471609614,12.020313415380258,7.821472989182382,-4.5191680019827345,9.620695225639452,-4.721724890081418,3.633237627044764,-16.11047506678881
0.196,-7.251184540493,10.170218540966175,7.0395969554419935,-5.6842702716465965,7.423213792677075,-5.40880228465835,2.7070270737037845,-16.341716015375596
0.2,-5.1178979230755886,7.9861578391211765,6.068816869963825,-6.282905884562638,5.02755410228707,-6.789022324767643,0.8340785153470733,-15.842640321321596
0.20400000000000001,-3.022427958786011,5.77884289214461,5.286416556787344,-6.1991179993345895,3.2817758697504473,-8.603713381567673,-1.1472436760496976,-14.642874357840242
0.20800000000000002,-1.8547354239731249,4.077516235755695,5.069543528136137,-5.472238675625476,2.8399507974372113,-10.44525797489905,-2.4112276982621097,-13.183511175523563
0.212,-1.775152041313902,3.499649734359309,5.651385119641134,-4.21429403840898,3.8570182904694548,-11.876991191796606,-2.474139784881231,-12.048639487171954
0.216,-2.15788917828786,4.564085280388213,7.106232172917942,-2.5264342229597787,6.0066035758574685,-12.579080727915198,-1.2932282742880261,-11.598555315984981
0.22,-2.0408711696206865,7.457580237594016,9.375009131411048,-0.48574017769885813,8.726050050772585,-12.464122071378938,0.8450843026062103,-11.72431909574209
0.224,-0.8014133806334485,11.852557946397553,12.272800761032158,1.800975804789914,11.505411952058807,-11.715616886313683,3.5331291388690715,-11.882248748131246
0.228,1.3680812652909253,16.87660925860075,15.436961557865914,4.126609084442748,14.024076707948609,-10.712138046492555,6.3839815182635675,-11.402423685666804
0.232,3.5095783494826946,21.319109646456354,18.294816517570098,6.18198472412621,16.107911388295577,-9.862779312037674,9.057536872830497,-9.88569029337475
0.23600000000000002,4.444879352227417,24.028482922653097,20.150160551087197,7.649822501429867,17.600970087667633,-9.428517991375884,11.2256336382668,-7.460008578940574
0.24,3.5019295571346447,24.34618701469776,20.408773098781808,8.355161564171908,18.290493356475224,-9.408552971021663,12.567928503554981,-4.739727948912787
0.244,1.0011593550607358,22.426860925129404,18.898188645502728,8.397445804126733,18.012082099477425,-9.544116018970726,12.877768610278281,-2.5034901055657883
0.248,-1.8297573343913882,19.22871739592847,16.073610998463323,8.144153233350949,16.837622776526814,-9.45270654331739,12.21602801383267,-1.2768288053136985
0.252,-3.4790126597789595,16.130752637543424,12.936757915668295,8.06506098292698,15.179134679564527,-8.841095110505876,10.991851566428977,-1.0634275974070988
0.256,-2.9627514002114594,14.335185967428856,10.652006851220563,8.48304554992228,13.69150329900151,-7.686400634215943,9.863809338848682,-1.3813463146616414
0.26,-0.39274812779399326,14.33183181166521,10.024676041407247,9.367745348970288,12.981770542497884,-6.285924747043964,9.471489982162211,-1.5698922005115037
0.264,3.048680955718055,15.725399696194245,11.135991864580319,10.323228347536315,13.299168075095963,-5.1418504390071575,10.127346849677906,-1.18492040933711
0.268,5.66906755721061,17.455099559561745,13.313225660555759,10.76510693553223,14.360664719723786,-4.730504892610497,11.643392136816828,-0.25941834135142017
0.272,6.05946927916284,18.293425073485196,15.459578005197386,10.202154406508726,15.432225312856644,-5.2741474017100245,13.402359800277964,0.7119359784057906
0.276,3.735175354527996,17.418197552561196,16.596191340369273,8.495658274735206,15.678473151196727,-6.627402739429954,14.65935717827233,1.0587289730419798
0.28,-0.6703921030568836,14.807897742454657,16.342433899472212,5.969606185429598,14.626774843874614,-8.324014094380573,14.932627897300335,0.34907231792635685
0.28400000000000003,-5.7050741698999445,11.290293020642139,15.087485742377794,3.3172829711720624,12.504566894726736,-9.764220262663684,14.259018762021014,-1.3145991649498683
0.28800000000000003,-9.714953937672476,8.184234209148144,13.73995144746425,1.3290514627469747,10.215029012288369,-10.452415318015937,13.158991157759147,-3.290998648471259
0.292,-11.489721469282813,6.682383419498592,13.191833864914088,0.5617836525600524,8.92514878788461,-10.185862846980172,12.330662138813977,-4.703146955868306
0.296,-10.651947574968858,7.309413130984126,13.82901359031564,1.12333068905059,9.494456663335995,-9.107383449401368,12.264485015217133,-4.881182728532394
0.3,-7.652502522370014,9.740563431356236,15.371960954033852,2.6849338986223756,12.058807323618794,-7.599851754285282,13.009486890641938,-3.686989264700287
0.304,-3.44383751964358,13.059691590011198,17.119655083924272,4.704090195766412,15.988918639160715,-6.0999676407273,14.203326812554224,-1.5606381128973226
0.308,0.9516220375006696,16.260532537173276,18.41218028630317,6.71384042991167,20.204764245951424,-4.92760791758451,15.332583998852442,0.7356682022889345
0.312,4.762248209761765,18.6773345980547,18.998584753110435,8.502377951470407,23.64334296270647,-4.211792103129028,16.03148906841102,2.5195361211726777
0.316,7.584552829112681,20.144106839038045,19.09399611467518,10.093087312008493,25.646278322650915,-3.9216804448174116,16.230204787611456,3.5074641976134444
0.32,9.336492056994757,20.85581769816531,19.12091553742607,11.559066933197983,26.10683455633466,-3.9392046758525794,16.085500682602515,3.896996736090159
0.324,10.149197395083775,21.097354681372394,19.347536572372064,12.82234739062801,25.374685485041255,-4.111268104208875,15.774521474306994,4.188857239953904
0.328,10.259966242873134,21.00622233981312,19.64919111335962,13.570152587179109,23.989164727865614,-4.266768518322806,15.304049015688406,4.861301466223267
0.332,9.942176146886595,20.49970911522132,19.542060781173404,13.363247010793657,22.387629634834525,-4.2175477169530495,14.471205456023654,6.083888135083498
0.336,9.472388854818746,19.41663123123908,18.489908916716786,11.915879926367325,20.756806854189108,-3.7760183766226874,13.018638551325921,7.627084520462631
0.34,9.122808110885444,17.77549942173198,16.30489777992591,9.396418974268727,19.08393816184241,-2.812914821960703,10.893046640162083,9.025390336728378
0.34400000000000003,9.155662791125565,15.975624418960024,13.411954158138315,6.553917150299185,17.35866785033363,-1.3378396618775241,8.437589685000603,9.895139925122294
0.34800000000000003,9.770863670534595,14.73960216745786,10.766006750894576,4.522080424139176,15.74354816160826,0.4393732496125722,6.3519365782256045,10.198482184306158
0.352,11.0195931097727,14.78062117812351,9.421663189318792,4.34115412933113,14.576328028316311,2.119625123040123,5.411706540355681,10.287039168051933
0.356,12.733884214495447,16.393141324490102,9.999589138466376,6.424573500883071,14.222884764367564,3.2292728401266686,6.088354196407181,10.698265348125233
0.36,14.51309244263723,19.211360810681754,12.336784545719297,10.245970752169569,14.874903954471506,3.4193278680706953,8.276122850545562,11.83048961363329
0.364,15.800612861190984,22.310231476585955,15.528159260970142,14.454577900220784,16.426826598650678,2.640662739006302,11.288946492317336,13.672347605569712
0.368,16.0494202534519,24.587357016193778,18.322780478347,17.407882331399378,18.477538927964247,1.2018849562412015,14.13199344651207,15.743859142871543
0.372,14.90938342477034,25.205964846091774,19.65431394185123,17.88042166779951,20.435506899750862,-0.33934506258265174,15.90911576464896,17.285634219073245
0.376,12.399288129451179,23.918028376791085,19.06920662486766,15.627840775660616,21.702438548402597,-1.4183934460534147,16.166352046078828,17.593111403149123
0.38,8.997718310290338,21.14491704845034,16.863690885890378,11.523959280192457,21.86990289184348,-1.7206862514115073,15.024530183663273,16.337214173444636
0.384,5.57357893690255,17.809664152124924,13.911633456435766,7.194361773573746,20.873576086741537,-1.3249241916237224,13.059186803330704,13.711215098728644
0.388,3.127050965638773,14.982250721828336,11.2646525324692,4.297944438797003,19.02281283145294,-0.6547467082682488,11.01047806886936,10.329337784377003
0.392,2.406697942135679,13.470037116106823,9.709101335013429,3.7924418835152665,16.881611077422235,-0.2608120377990417,9.472276329464421,6.946273104175361
0.396,3.575317344260611,13.53829456557105,9.498331820318526,5.553320855911807,15.07578201025342,-0.5380633220838718,8.71013168236891,4.154376251620761
0.4,6.080035266374807,14.849993782147294,10.33967023832406,8.511658237354823,14.09511444948032,-1.520324830879872,8.657407879497441,2.206234619812676
0.404,8.841624687287776,16.645215167558263,11.613815033260607,11.239285338548825,14.175410594432378,-2.850308323151239,9.048513165390887,1.0280622958221102
0.40800000000000003,10.703332130869512,18.055704538312057,12.684473381269527,12.66131111677555,15.27145683802712,-3.9393033591204585,9.590134238715336,0.3948186883096696
0.41200000000000003,10.918988409692929,18.40549319406273,13.125010249999377,12.51105062518468,17.079621129221323,-4.248612877717278,10.0595506219031,0.13557140742273077
0.41600000000000004,9.456997743368902,17.416150537784915,12.795756588101312,11.321361481170925,19.113143687266415,-3.5517214720989614,10.304228610369591,0.24905779376467763
0.42,6.982593264398702,15.274444535331668,11.792143207741901,9.99939836769886,20.827398420299232,-2.045028043653474,10.194390533191608,0.8811460261886168
0.424,4.536219752906845,12.5713410587191,10.344049288730275,9.265653487818781,21.785379454525014,-0.2523264769288289,9.601837201418675,2.1935548265719262
0.428,3.062870496007463,10.094499053045865,8.72083003924331,9.266817233616848,21.794442629484934,1.2240101186021093,8.436953915293088,4.202187114256958
0.432,3.0010519208078676,8.513925839177318,7.159991531738569,9.553970202770415,20.952198626927725,1.9701929161274165,6.736273931859159,6.685467726299066
0.436,4.150123825273113,8.1186244230812,5.8479604082622245,9.437687166501519,19.6065654662184,1.9304183511871997,4.746228990695272,9.216012357117961
0.44,5.853821425618662,8.724356847518493,4.914585142200622,8.477466083806348,18.229115745933996,1.3939376973949038,2.920471129170892,11.300794318009139
0.444,7.340669481000305,9.807764761732642,4.4355410633670544,6.802407381094781,17.25851732299475,0.812363460287088,1.8115762373663529,12.570526487987536
0.448,8.02876969572094,10.778593717204785,4.407293332850031,5.0591935983025,16.938769268346732,0.5512475252285185,1.8665306331499778,12.915306505326043
0.452,7.658804156847509,11.231696776704439,4.701430668219473,4.012994237808243,17.194744063593134,0.6985229853858073,3.20671286462607,12.494184182710796
0.456,6.252707942399866,11.07448418893432,5.062517054527916,4.059859723284944,17.63011612048558,1.031899464131584,5.497475225648259,11.621005108695954
0.46,4.00022739263045,10.477746457941294,5.185593145285793,4.947858526289565,17.681648870740673,1.1631408999801351,8.017049752037565,10.592276665840927
0.464,1.2039475371066146,9.723780788865497,4.872761246315122,5.907697300334121,16.899690572039617,0.7807394801229748,9.908962826127663,9.54211204524563
0.468,-1.684437521097152,9.046951638263863,4.1849090971011265,6.126318767074736,15.213017005849906,-0.13916904519010131,10.523387076543486,8.399636372678742
0.47200000000000003,-4.049681726470908,8.537003094843612,3.4769025603625323,5.273456739752419,13.018911576575647,-1.2760185921711127,9.696883627432271,6.965820599355538
0.47600000000000003,-5.21994784144772,8.170244094612372,3.2813850147210815,3.7749803494186835,11.040963244445493,-2.0983344368391954,7.835103985467185,5.072137190572903
0.48,-4.700378418153377,7.931222753562679,4.063981945736259,2.6603896566034564,9.99981528244507,-2.118303447861308,5.745273954592676,2.740720368028178
0.484,-2.4677061901577417,7.925393650667047,5.9662874192242725,3.0467816752336603,10.258293713378407,-1.1489822854541671,4.274387656630552,0.24677000017254613
0.488,0.8518402045492621,8.358890141361144,8.651108039720611,5.51844890608163,11.59671617006643,0.5667937728494508,3.9031620444238797,-1.9767243169712856
0.492,4.099502144159942,9.358184885741139,11.326370477201863,9.74190895253264,13.228535441184931,2.4193935396810957,4.48174821857765,-3.5640205767376756
0.496,5.987054436439621,10.747090328321974,12.99495349904555,14.528435770706892,14.087650394355933,3.6653339540457637,5.251867640660066,-4.458214522502203
0.5,5.649072025702253,11.96483695965253,12.846226633172819,18.330930593326457,13.275697840883595,3.7387051134383,5.173195975900853,-5.013046170828602
0.504,3.0851543149940426,12.254300766766164,10.638946730685575,19.94901452646741,10.495137468333155,2.502179428179261,3.43331019974471,-5.854394207295854
0.508,-0.7904816696486705,11.034590888540833,6.885076758282366,19.066303035957844,6.242448324613633,0.3234259629289227,-0.09246746102098768,-7.536177333907062
0.512,-4.5658636681159805,8.246562084238576,2.7068811470448964,16.34354507117814,1.6396040116050017,-2.0642533553514113,-4.674741419028578,-10.160011156405972
0.516,-6.947966482786796,4.501510369125981,-0.5782711520014345,13.082100096121849,-1.9951440119715471,-3.839601183749437,-8.948620804000257,-13.162018886925807
0.52,-7.280067586173345,0.9122373917707591,-1.9704100865484406,10.635369530590879,-3.6356703308068745,-4.392672454566764,-11.447289561580646,-15.415849694179997
0.524,-5.700469932795386,-1.322897072707974,-1.1544263749898391,9.868825349779172,-2.8688284949147373,-3.535938959840678,-11.211211261110975,-15.668883662794315
0.528,-2.908885120163177,-1.4183901126914407,1.4095818614556492,10.888638342776403,0.036366501944257834,-1.5463797181796508,-8.207978531858316,-13.145497894744949
0.532,0.26549523462176694,0.6364637504324264,4.694811287347534,13.105594508967442,4.27808515210711,0.9570689771510388,-3.377371841557988,-8.026201568902025
0.536,3.2167979980931705,4.050711171050921,7.528550451177352,15.55646152047143,8.80452739202326,3.237028392627508,1.7339722549584167,-1.543451034695181
0.54,5.645499142670815,7.561254837233264,9.033453532360909,17.300712255237613,12.61190704350554,4.685155506241017,5.591410573051007,4.419212597670821
0.544,7.415308079440365,9.983643729356231,8.924446673655893,17.741957525295447,14.987405278559663,5.007444495314303,7.272336396670653,8.06655503078946
0.548,8.344215464213335,10.697065326336087,7.5354656922896766,16.76553020855954,15.643831500418514,4.288735148591286,6.781559601957952,8.429180738235118
0.552,8.146894603184364,9.830222781714838,5.585779818262381,14.694962816225598,14.739016731104243,2.9143983520386882,4.952452751811052,5.743163616820539
0.556,6.614531602439456,8.096638503114718,3.834108797906424,12.137150612102687,12.811350211760669,1.3867049626792323,3.0082134159968064,1.28428891695512
0.56,3.885501606001867,6.37679041310389,2.7720457775101295,9.763748140664575,10.620659245126035,0.10507316456551052,1.9865893270459765,-3.261399356540551
0.5640000000000001,0.6015558211115604,5.297041623935229,2.4988423957084933,8.103811049585147,8.927796136799088,-0.78969719968768,2.2948065897760443,-6.574193987408762
0.5680000000000001,-2.2416057901596105,4.9944544998708125,2.7886856096606607,7.381331008750294,8.244154157704656,-1.4427794497487412,3.5900654812462562,-8.226365781022878
0.5720000000000001,-3.7252158674051543,5.139076353933433,3.262008322218321,7.43873117369958,8.611726763546926,-2.1707890743439293,4.996729121070757,-8.715361808877105
0.5760000000000001,-3.486408393811189,5.190474796481681,3.57450789620259,7.797455641041324,9.546850460581254,-3.2493459103704936,5.541996512265769,-9.022437060234779
0.58,-1.940230206453407,4.739836077037808,3.538128580657826,7.856712482074954,10.218980398119356,-4.700562235703956,4.604638060635352,-9.95556307332322
0.584,-0.050418836695712343,3.781734421392798,3.1680229860580766,7.1885045581500435,9.846616985844662,-6.205093598520989,2.1802131593990453,-11.648229575932191
0.588,1.2404511381522525,2.7578412619487835,2.6446938813114684,5.7910197636751946,8.11910290099081,-7.200423663318588,-1.1496311451339807,-13.486978031859735
0.592,1.5480179786745794,2.317956623773398,2.207344285037493,4.131402724181271,5.395945623277953,-7.1431990226071775,-4.503945072978468,-14.49915044447448
0.596,1.2355681157549725,2.951025373149946,2.053923008571928,2.940430770468538,2.5746522362434234,-5.812533398108144,-7.08041983821704,-13.954484664842994
0.6,1.1274294625196717,4.683996418324682,2.287437544367549,2.8364556615556467,0.6736442266917493,-3.485176644297553,-8.43547657847148,-11.817788654924698
0.604,1.9238741461101654,7.025599135513744,2.922132620153093,3.985093242156381,0.3504267088235338,-0.8649751352654675,-8.546205308904973,-8.796038885171356
0.608,3.7016154097315166,9.186754070038205,3.9226730687660165,5.992721780687816,1.6078279914048608,1.2178502120962094,-7.671021158017766,-5.956095124771537
0.612,5.792999534018804,10.43452156044907,5.220658024354634,8.078990069158635,3.814305751285133,2.186844051404023,-6.134505287444199,-4.166237335811502
0.616,7.151694209279185,10.41954489389434,6.709030136025376,9.456903921069625,6.037249580452112,1.979563816597647,-4.177754976457209,-3.6756780881112263
0.62,6.983669386290444,9.30521979559137,8.208777983877553,9.703710761868251,7.4886669812399305,1.0390174830486103,-1.9680261920134399,-4.064399899961472
0.624,5.2497476055755214,7.658727863415834,9.451951764945306,8.921227537854179,7.852169524287433,0.03509552229252222,0.27001227345886036,-4.571860214485923
0.628,2.730048196523512,6.1644962750064,10.123546297146618,7.607788239172123,7.334707787392972,-0.5233200297968779,2.145108972631533,-4.56750635995877
0.632,0.5751313368265301,5.290538515754292,9.96482176572215,6.317551581711655,6.440103437498806,-0.562202830175238,3.1524836879464146,-3.8680657461652572
0.636,-0.3620456533445804,5.111235940131223,8.929983127497508,5.35133895915726,5.66210642683177,-0.4358501685094325,2.9220329584907176,-2.726816088139458
0.64,0.013132758748383822,5.370135014735183,7.317657871302913,4.676939933931067,5.293516553905988,-0.6385646636786078,1.5429828101946441,-1.5223883896469488
0.644,1.0620339016934395,5.732793230597849,5.784926745299913,4.1098430543898985,5.444618013199488,-1.4202819923602874,-0.27225857441635526,-0.39293373747750593
0.648,1.8661483083997155,6.021524601527517,5.137511547116105,3.5792190788693006,6.152705194698683,-2.5591915407280794,-1.3993835872554428,0.88506826390676
0.652,1.790828142993064,6.250921511617889,5.906755229881469,3.2398386762475866,7.4008997724639585,-3.4606701031552802,-0.8988930144523692,2.6458699318336585
0.656,0.8083664946635736,6.457162346596192,7.916977792957709,3.320431421085118,8.984359089907116,-3.5474045731089063,1.2801983632398333,4.864450282740563
0.66,-0.6185088804378438,6.442106463963796,10.084022605045902,3.779298110353807,10.299458419276789,-2.7021334204998766,3.912264623057581,6.799212844716749
0.664,-1.9818364909810953,5.6627251989445995,10.66738894801972,4.033634150968169,10.291568567691684,-1.4832252160654207,4.754169567851591,7.055973818945631
0.668,-3.1593878658486574,3.40656698596797,7.982690973332069,3.038284628419433,7.750481859722072,-0.9276762069380311,1.5045089907417832,4.174298538415314
0.672,-4.508073512990222,-0.7909033016135254,1.2920040136541502,-0.22774793218638933,1.9140060328117556,-2.006486604184147,-6.935702001506911,-2.5181073623975863
0.676,-6.533790337717846,-6.686256055831677,-8.545500647238555,-6.069482456855326,-6.8724432052875954,-5.0203948450616735,-19.535351537347765,-12.240712412075254
0.68,-9.354057290307992,-13.116913298285795,-19.068830999286092,-13.5852323516134,-16.852750990949232,-9.281093502161184,-33.09493109639561,-22.691697488708428
0.684,-12.341122202080442,-18.226973870165352,-26.979094385379426,-20.734612893451526,-25.209437657555725,-13.298198122875192,-43.27673691189784,-30.732750006476977
0.6880000000000001,-14.25716221676214,-20.12477207655388,-29.438300177284418,-25.060781707599972,-29.05902679253876,-15.409170391423004,-46.32919266236365,-33.578043261297125
0.6920000000000001,-13.886328339489069,-17.7181573451511,-25.33576349304161,-24.78816992614452,-26.703516670552972,-14.544083141665624,-40.71740824599078,-29.950312069047754
0.6960000000000001,-10.806119774501212,-11.299653001290949,-15.873783059382617,-19.733207950223118,-18.509034842957817,-10.735445343650099,-27.860341108290072,-20.65684167455845
0.7000000000000001,-5.813580489843503,-2.5669134980232116,-4.143299068029648,-11.526842909424431,-6.923568783991243,-5.094983765884081,-11.589870158982649,-8.28978396815046
0.704,-0.6941285362180452,5.99727469161985,6.18144087499013,-2.9688014283549364,4.466550744928838,0.7207933881168174,3.439687206051758,3.80983434287009
0.708,2.6055321147704262,12.122688968453303,12.416756976659428,3.197932907750328,12.425881479298937,5.269988323255802,13.62797882330483,12.8397239459822
0.712,2.963166869742338,14.645082485263458,13.924913758235789,5.47535123266789,15.373264554543368,7.9118616374835256,17.697221641692067,17.487096258078623
0.716,0.64773242274822,13.878318193988946,12.144708061793551,4.162228563226449,13.876625175077152,8.930108975874646,16.807591498190504,18.148605155062683
0.72,-2.859309121494391,11.310836837096701,9.611659031907038,1.0098386437641693,10.12540068887779,9.180411483239027,13.573676294233337,16.415150755387003
0.724,-5.680465976924893,8.82504844116562,8.529702774717464,-1.7858243129564926,6.716178930083288,9.498241068990637,10.596699067338022,14.156029519274739
0.728,-6.540115205234542,7.83295006873476,9.660571514159926,-2.696384059237289,5.397916100869509,10.22041045588469,9.304532719670874,12.688930679837767
0.732,-5.389204678183205,8.715818082653414,12.084816141463762,-1.5121775942583326,6.382197179946161,11.069388848050494,9.614205443934338,12.39079804803714
0.736,-3.2863060281187586,10.815301849187051,13.913709134322914,0.7777584982316057,8.509179622589784,11.425719300336823,10.44764215894827,12.84018447432436
0.74,-1.6720362008683196,12.896291876921111,13.48720403656165,2.7096390176060368,10.067328558893792,10.791452879483472,10.658531746072072,13.30504321507101
0.744,-1.4758870010628016,13.824599132011542,10.380731117608093,3.2276737103295545,9.784065016259888,9.14954131291563,9.776535913255884,13.256095005203065
0.748,-2.5789377707500876,13.102817430709251,5.662021681852536,2.223211022349801,7.448614580738024,7.0133379065268855,8.165707409748848,12.645827018593081
0.752,-3.947716885517025,11.014849923082352,1.2917649402473899,0.46149329822617347,3.8930441922850605,5.152826279783312,6.618056389709295,11.863128908059593
0.756,-4.316629484288967,8.388046696151036,-0.9305941042946984,-0.9737621627691624,0.4599284781019719,4.175784067808991,5.744218717566014,11.460193471990465
0.76,-3.005093485982229,6.132421020603601,-0.28351451471564815,-1.3562604529948885,-1.6906036237725743,4.210090580616452,5.586691343310349,11.846158339832982
0.764,-0.3592097512685086,4.838714871992636,2.6114636387335963,-0.6962978480311222,-2.035700558969552,4.870162576062512,5.687625931326352,13.106977322012881
0.768,2.4528256126531573,4.616613977789029,6.2603229463039725,0.3626827258782441,-0.7352568351560649,5.50894947009283,5.519921498167491,15.004082890126483
0.772,4.097535493077942,5.1544273257047735,9.147656775579435,0.980576603916802,1.6168673608380573,5.575422601905643,4.931033167779901,17.08535548587122
0.776,3.7832244475080756,5.926327361212543,10.464540154686858,0.592170110729171,4.306390919478531,4.876578962115218,4.263418944945215,18.8193243653144
0.78,1.6238652748101572,6.420632089419655,10.339165395934174,-0.8597371485572012,6.687389544605367,3.6232472780346825,4.082677398034434,19.71083067505606
0.784,-1.5066741894592042,6.316251866864832,9.547091070302372,-3.0088785408206604,8.235342425694682,2.2661156032077088,4.724602474571043,19.40635649795024
0.788,-4.479086197112565,5.573482109794952,8.953336840734949,-5.349720189377479,8.548788907764049,1.252350819989033,5.988857934084081,17.80605778567667
0.792,-6.429921611991517,4.426125669558985,9.046701475657187,-7.495480297808228,7.400092732583005,0.8464908601688421,7.200683415495291,15.168818710997243
0.796,-7.023833537906967,3.303067447005219,9.807487718037862,-9.251879755614254,4.860088783490141,1.0896879449001062,7.61026721453527,12.130636152451984
0.8,-6.354960208913724,2.6963527408997265,10.889562463975835,-10.503465762005249,1.391961197813373,1.8849073348878846,6.8709766620766,9.571313108672825
0.804,-4.659215532319763,2.9982991315128515,11.928652472304691,-11.060866175924218,-2.203227891700408,3.103800349723656,5.27887970945676,8.32489382628762
0.808,-2.1088066067821387,4.32700111298044,12.723121772188563,-10.650504055898352,-5.062701271169658,4.623689677694188,3.6024689501915645,8.817010202804568
0.812,1.1705253364454506,6.4093729502258725,13.190223648480583,-9.084164659682017,-6.661228582626904,6.2862183695593785,2.605017258898556,10.806042914619638
0.8160000000000001,4.913658245228248,8.611077911907955,13.211566653962905,-6.487717931860516,-7.088630140644341,7.841984058128332,2.576177208594231,13.406234107025966
0.8200000000000001,8.559944112981839,10.13687597619736,12.541605793352858,-3.4110198584788805,-7.017087473095444,8.960155528248379,3.171445880645706,15.434690820352216
0.8240000000000001,11.325108840138057,10.362453532846246,10.909532890349908,-0.687922130514039,-7.321504914769946,9.336871239132506,3.6546945528448305,15.941210616410217
0.8280000000000001,12.50751680494119,9.136974723484627,8.265951812835397,0.9089013705728917,-8.547861926285293,8.860559817409126,3.39015907068449,14.67302591304724
0.8320000000000001,11.848521933314544,6.882044432767032,4.98075565667358,1.0216699970843024,-10.546092948658782,7.722600342749274,2.271201199682082,12.226741555604576
0.836,9.688109945393876,4.411602271254594,1.8088706097402678,-0.14808729320401426,-12.502680963074624,6.373927269477576,0.8030442857403273,9.768666097830533
0.84,6.780227500958858,2.5332702289325084,-0.4108279672637991,-2.005819754498475,-13.378858440614067,5.323567593544794,-0.21384618053519944,8.461491271554223
0.844,3.885226495332404,1.664156630063303,-1.149311345850947,-3.9199891934140396,-12.491500253756612,4.880642064117183,-0.1802029849057476,8.895932631522214
0.848,1.3971303732550382,1.6647385130908674,-0.4362707702663897,-5.547046129022419,-9.902417651547069,4.984840981922844,0.9307304745785814,10.819844613860027
0.852,-0.7470340289859223,1.9764579276240966,1.1866946022135494,-6.9236779351724635,-6.3931348936097265,5.235340177819353,2.5516932202003204,13.30964162502903
0.856,-2.8365281247309895,1.9935403729958807,3.0014733558124362,-8.281910668357057,-3.039569919961707,5.107808650515608,3.8596210046862325,15.274919836857407
0.86,-5.007519708857103,1.4313503455815066,4.513456683124048,-9.743284320169039,-0.6616462903713796,4.242775184298466,4.248117980454936,16.007298346339383
0.864,-6.984397319072912,0.498985997507873,5.684543885977234,-11.104262297382604,0.5429918355692678,2.6494638889400903,3.6534386442720006,15.473696967433625
0.868,-8.171168049225798,-0.2396088092203854,6.83783636411647,-11.89126203359558,0.9614725452749155,0.7044673789204126,2.535360118112294,14.19985405659861
0.872,-8.060126151383542,-0.2512411110182313,8.28796419840856,-11.673224251331874,1.1585495023521446,-1.0512241154515323,1.533473878310872,12.827842881207118
0.876,-6.654342591316322,0.5866828692920194,9.958247170223416,-10.411352062965932,1.3945039496491631,-2.1916708344197673,1.0258033297577072,11.634334239042403
0.88,-4.596442580333331,1.8429836042829493,11.241322232983265,-8.606024313225475,1.3864176162042838,-2.5975728064726695,0.8687952926129583,10.322507099079758
0.884,-2.8450728274492576,2.7499605363514945,11.237254677100964,-7.095661062455122,0.4892530626839857,-2.458528452192411,0.47513074541012656,8.20897232354406
0.888,-2.104243725650065,2.6412467483512216,9.240343984506637,-6.618018989798998,-1.8244354152763265,-2.1113999153149052,-0.8189917950290919,4.702831618240225
0.892,-2.3778920482159833,1.3371334353512907,5.187720564494128,-7.403271239062349,-5.5038645488784255,-1.823257307881363,-3.326625464351366,-0.2212127138691926
0.896,-2.960430447278668,-0.7418317055604575,-0.18643093307608183,-9.05289084079692,-9.77764379779859,-1.6615658146051828,-6.772521483777098,-5.862302538688709
0.9,-2.928764372500723,-2.8276603257693296,-5.614544506035713,-10.80570936323312,-13.460578157379217,-1.5227094870319888,-10.394264444242538,-11.057162037451121
0.904,-1.8076069552422496,-4.241128010208058,-9.819165403754312,-12.01174909621301,-15.524084339644219,-1.274095266161794,-13.301457674336973,-14.734245314421742
0.908,0.0361286684130846,-4.750447908317597,-12.029474173783683,-12.529286080133431,-15.61077951697456,-0.9053713022572083,-14.8924415947929,-16.45453020104742
0.912,1.5581248451605916,-4.650796064403039,-12.238657539337169,-12.798824372114666,-14.20304362422246,-0.5782278847584621,-15.10121641972978,-16.616701576936748
0.916,1.7048643300379922,-4.516145261819474,-11.077802295952552,-13.535656037288504,-12.332699351289307,-0.5379905742042865,-14.343443143604077,-16.205524755981173
0.92,0.13904796261874708,-4.819858592738342,-9.437149055303053,-15.255267400578873,-11.03155916655004,-0.9471845609289176,-13.231060699486648,-16.222404757864865
0.924,-2.4476112496940914,-5.649780556793189,-8.041236501946287,-17.91660856424369,-10.81972674029629,-1.7576340733980942,-12.222093601522829,-17.10936330116442
0.928,-4.68776339305947,-6.692955622790578,-7.195393590199558,-20.910313633118676,-11.50829502453098,-2.7027783241946963,-11.405032466725288,-18.48456543881332
0.932,-5.378672181777688,-7.492698663310193,-6.808236737679238,-23.400220324127076,-12.414894304975292,-3.4284261836028236,-10.536278869625903,-19.341238854409312
0.936,-4.282915979342192,-7.7879665750482445,-6.615872088722483,-24.79232101141406,-12.826435480546195,-3.6885234366350232,-9.293371440294095,-18.608966837166008
0.9400000000000001,-2.3604741410366614,-7.705404919482248,-6.439538939633508,-25.04265442195242,-12.425603009353665,-3.484720210720752,-7.5668577384311675,-15.763518108904918
0.9440000000000001,-1.2024343187320028,-7.638575112717149,-6.303170799382997,-24.589578150961188,-11.415478486637085,-3.0587082740939877,-5.604755672912006,-11.157441905902033
0.9480000000000001,-2.002612398270003,-7.908197406922795,-6.371110855495431,-23.980625514090207,-10.30874696596186,-2.7419957514998714,-3.9187271476772594,-5.906986297597086
0.9520000000000001,-4.694318421199682,-8.445475494841844,-6.7714372497869135,-23.44654157768275,-9.545195760843285,-2.7565488740153796,-3.008129931156077,-1.4063656575860932
0.9560000000000001,-7.806104722203827,-8.718234984423816,-7.430301978226453,-22.698412015548,-9.179443488582933,-3.0833475774459203,-3.0576721536248215,1.2614881774647984
0.96,-9.199624800511515,-7.9977841831067735,-8.04185471836513,-21.105281232769585,-8.84491866476958,-3.4699067466210636,-3.7849177027037513,1.724861024864822
0.964,-7.295335325451106,-5.813669658272602,-8.179419825223476,-18.136763234801833,-7.991574761547213,-3.5756794163330596,-4.538574830572998,0.3613469524998436
0.968,-2.050180816429247,-2.3175151956065747,-7.488911970279787,-13.778697884774601,-6.241804777435618,-3.169813161250204,-4.610423245624133,-1.998987513148677
0.972,4.86743834446861,1.6570971003429804,-5.871939814015832,-8.671501549205232,-3.6628307428038624,-2.273786006111777,-3.6052583129089726,-4.520572402480184
0.976,10.834000831014919,4.912038663139583,-3.561470378308286,-3.861641068206154,-0.7854186141355513,-1.1652979020220755,-1.675861410642483,-6.718445757498557
0.98,13.5713382948245,6.432514106409826,-1.0551966589407584,-0.2917728167376481,1.637272620042495,-0.23205868325635493,0.5231899794050605,-8.550802535038201
0.984,12.265636749963733,5.880920811673832,1.059982277153381,1.670177735381003,2.9982234055886465,0.23685639477480436,2.1351723587622473,-10.255716808385614
0.988,7.915579771846751,3.780893915232923,2.3205048930007024,2.3909742528326206,3.137928769872815,0.2131373939673722,2.5166712055990956,-12.060297171469756
0.992,2.752938957980291,1.2906245864141965,2.539967853539906,2.7168897528858906,2.4135784740238932,-0.0388608520024718,1.5595364958151094,-13.951960658154576
0.996,-0.9003795460072297,-0.3105375719424046,1.854180983404376,3.4581921440781116,1.5186811471214696,-0.09031743384321089,-0.24514209425342415,-15.63825538631636
1.0,-1.7285169753042737,-0.19336716654402153,0.6225951606344324,4.8876181222528885,1.134060369024155,0.414327789806066,-2.0497330950963715,-16.69918055513017
1.004,0.08113478023255993,1.672351729225852,-0.7556281832454488,6.544588162312493,1.5983557611618835,1.5312692501247511,-3.070454434203157,-16.831438505232654
1.008,3.124906228227701,4.532641354482848,-2.0308205848407397,7.455178780682445,2.7481933139808916,2.928535404660579,-2.9720455755150397,-16.04027039373068
1.012,5.60649377572895,7.1793269470617815,-3.2138863898758245,6.645406636750977,3.9924888508988943,4.000314149563565,-2.0188939144004507,-14.662522326585758
1.016,6.22007238975425,8.446613314386468,-4.540727694086399,3.687242557287391,4.5960663616319835,4.142542812076499,-0.905929632886,-13.198479107639741
1.02,4.6570347346639664,7.650343001972487,-6.3165246245966955,-1.0081775477242445,4.016037819922758,3.0618861012471825,-0.3733425994432764,-12.056212577240103
1.024,1.5615409633999207,4.834415932780303,-8.694324099485584,-6.2889817163336375,2.16519553739397,0.9683377640371873,-0.795436363137469,-11.329382352766515
1.028,-1.902072072015244,0.7579732555418559,-11.4990890211252,-10.6839991482193,-0.5108356192157544,-1.4597754638871265,-1.9681619163714004,-10.729614217802009
1.032,-4.60258807325431,-3.3881657185979748,-14.220582090482822,-12.965959749860758,-3.20257989370225,-3.355496264073736,-3.2270023338830924,-9.733940790277302
1.036,-5.8398138460574955,-6.4064562639678115,-16.1797440068749,-12.595736432433114,-5.064285504351574,-4.061766470495968,-3.8197061860041686,-7.878433864523231
1.04,-5.475991900133977,-7.5284763034389925,-16.818926599362385,-9.879359450912943,-5.569126990810901,-3.4603350844981833,-3.3334547286603993,-5.057645015570415
1.044,-3.831464509853504,-6.688752642530517,-15.964358318840368,-5.794277614376824,-4.719719034320178,-2.053774996464199,-1.9431453271427017,-1.6822728265210571
1.048,-1.4695437372834022,-4.515344330009611,-13.91195250501687,-1.5841347509485786,-3.0130355595792935,-0.7350900679912229,-0.32819403839403094,1.4161718932291478
1.052,1.0079632334009148,-2.0482032086551953,-11.302305299885575,1.6878883184606366,-1.189831882122462,-0.3454110460497759,0.6979307921110376,3.31862518090702
1.056,3.101238680436836,-0.28490511832342236,-8.83082232592983,3.459782002407337,0.11282098252513606,-1.2404544348901254,0.6463519491785519,3.4448454148164274
1.06,4.495041601040384,0.23738397541728773,-6.956465112923297,3.7608778916965093,0.6232450039724426,-3.090593300672026,-0.3472721582484155,1.8793462474823173
1.064,5.107202835029966,-0.3496693297092861,-5.73889250484126,3.09145364191545,0.5091676468045989,-5.030002703731498,-1.556638894846401,-0.5776285868532796
1.068,5.09868723691352,-1.3490875744487312,-4.891167728411347,2.1767537119308145,0.23551286940642058,-6.0892631536275985,-2.027372434343306,-2.698122251811128
1.072,4.837440474953382,-1.8749172240770804,-4.008827460580278,1.7091619908619577,0.2924786914595643,-5.69325712929367,-1.0788436146158347,-3.3439418393800224
1.076,4.765184006905656,-1.321587218329796,-2.8357583611705195,2.148614949419425,0.946842576239078,-3.9632093607770003,1.3165263473129016,-1.984446288244726
1.08,5.1801372350662405,0.2929457713928514,-1.438069547239138,3.6056260128902977,2.124672899375355,-1.6661255160775,4.4689522843791565,1.0324129424388957
1.084,6.0736159605583,2.3231196415240447,-0.17649298809828906,5.840169726645399,3.4873597907294425,0.1754415534301188,7.2661100592254115,4.607903912495203
1.088,7.1020332984937795,3.827698541710106,0.5011175207152974,8.345499957125867,4.637877936222139,0.8144288304638394,8.690272692952021,7.39280219702232
1.092,7.716152387597049,4.041572721359671,0.3166884377133101,10.485412530184021,5.320524928744135,0.16423341056906793,8.29271685256208,8.427256200907323
1.096,7.399734293224128,2.7442860663995816,-0.6740962842825411,11.661275168695283,5.504769357470195,-1.1706258760013952,6.3812900490270295,7.5960362231071485
1.1,5.9239033828089305,0.32585909717090544,-2.1022204214939393,11.486715352406463,5.318825218026177,-2.2288095644853456,3.841583350752444,5.673932116706055
1.104,3.495688181658579,-2.456883482849207,-3.455768708284495,9.933164850022877,4.913060326564391,-2.2044825329744526,1.7026503850443078,3.9316035284791724
1.108,0.7178246771645718,-4.87905590864716,-4.304421365761982,7.390309302005335,4.349308248350326,-0.8684495117959159,0.6625553992594178,3.5010087396167364
1.112,-1.6375084198416516,-6.589603318073614,-4.476562474947059,4.584408756968514,3.5747273846368444,1.3196283166435023,0.8092508268264282,4.813519676837586
1.116,-2.9408794143664636,-7.698338557981515,-4.092977036350703,2.356382189346732,2.498381669192213,3.4602823837894903,1.6636267647600107,7.399633573945266
1.12,-2.962337325146109,-8.592108641531468,-3.469353358943863,1.3600161864333131,1.1013643101825892,4.68829750655641,2.4866000715742302,10.154313575549622
1.124,-1.9513933352664026,-9.594509715988352,-2.93708125233843,1.8104902024142575,-0.4792853663552705,4.611797754890176,2.6889510044384224,11.9145711606252
1.1280000000000001,-0.5025129279592875,-10.68558044256406,-2.682763460346905,3.404525997647397,-1.9503124411824047,3.485879180181655,2.1213498632196206,12.038490919112519
1.1320000000000001,0.7291288735791568,-11.465955994498927,-2.6919722242055286,5.459524068011888,-2.9539810797109567,2.037684520433686,1.099530440536455,10.683864574458312
1.1360000000000001,1.3275101481531237,-11.379807061936845,-2.805015611350427,7.222631853606799,-3.1950862385042456,1.0574570267290255,0.17902275288543024,8.64823570824501
1.1400000000000001,1.2792660915665692,-10.086569461367617,-2.856279128222468,8.198843291325375,-2.560191989834948,0.9909809832315659,-0.18181150694726966,6.879982618106624
1.1440000000000001,0.9331951191202279,-7.751739071877182,-2.8002813288139805,8.345605837927906,-1.1670248809664372,1.7394743803297388,0.11839498961126083,5.946551628893758
1.1480000000000001,0.793018342463256,-5.074425931130463,-2.7414952835451913,8.051619504186874,0.6732740944307807,2.76285914672917,0.7875178059184691,5.759409940242222
1.1520000000000001,1.2565896985288418,-3.01730333184787,-2.850956063124613,7.9190783172261945,2.559686621842502,3.4172400518027644,1.338595888357304,5.7079514425659
1.156,2.4256525998011966,-2.364158138957009,-3.2171324145397193,8.456421653143025,4.1288698382441,3.319530630582449,1.3835084640550122,5.087756288196033
1.16,4.082430311285407,-3.3409985293274076,-3.7268043837966616,9.83597711688617,5.1519619054120085,2.542470446893276,0.8474962338204932,3.5625153884284373
1.164,5.827080627494524,-5.478530722451069,-4.047778838188606,11.834029371138513,5.586435231131873,1.5404783645271891,-0.021045189413598564,1.3811121989201638
1.168,7.267968540998481,-7.801657936278843,-3.7610046936783874,13.945856427984381,5.560537866342656,0.8684930043455097,-0.8464482213466908,-0.7777789222354841
1.172,8.15255789782941,-9.264011771702371,-2.5945081100521747,15.593858755199562,5.289494423568158,0.8690165681346116,-1.4032439064349091,-2.2277311007183016
1.176,8.39128314219397,-9.203081332495458,-0.6246128004640923,16.33188063556554,4.969981018797171,1.5100826734460497,-1.7921303515058753,-2.695744184288742
1.18,7.992568983162073,-7.626505793204615,1.6517099578145462,15.945142566944014,4.66598805835747,2.4538301314569253,-2.394031301548239,-2.4922326661489933
1.184,6.999652636860901,-5.178906732297946,3.459319755870183,14.456582973471086,4.260109665146501,3.2969372002735327,-3.616773768809253,-2.3229500039233244
1.188,5.463271749892101,-2.826410239724737,4.058540406444081,12.060669053112179,3.5025623132714827,3.818174086491126,-5.592232048084952,-2.8638127784406606
1.192,3.482689408951501,-1.4296499022007083,3.077240548400823,9.039358774014545,2.137249053936557,4.08188862285715,-8.018919835698398,-4.349698201792307
1.196,1.2817109388079189,-1.3825762335504805,0.7140476587674129,5.711473386447324,0.06484102856529717,4.340117220039247,-10.244253085307719,-6.415951705544103
1.2,-0.7987021411913702,-2.511115098947357,-2.3267215135492734,2.3856918231849704,-2.563072581245706,4.80069979408654,-11.564678117177209,-8.288910112227313
1.204,-2.4010977454818203,-4.23363102843723,-5.137917804036988,-0.677994873805801,-5.355570875087324,5.430723778740685,-11.57078614580223,-9.200589122751808
1.208,-3.2995056859572287,-5.862938476522231,-6.993758387900925,-3.2937400455530224,-7.793373559191423,5.928231903954838,-10.334728464902582,-8.781645971279431
1.212,-3.491208055605057,-6.894839253063765,-7.632561002740658,-5.3550997427128095,-9.400402771301287,5.888426547745439,-8.337202594365408,-7.218066162812647
1.216,-3.161286937958721,-7.147707731902756,-7.288182244787549,-6.795016890568149,-9.883740288391436,5.049259127898949,-6.180547468068653,-5.106841925890876
1.22,-2.5433992771950216,-6.737918514672856,-6.493400518664657,-7.532133231831722,-9.209903034238778,3.458274223490662,-4.286580470677109,-3.136833607585686
1.224,-1.756288199114806,-5.919933557433978,-5.754066405028425,-7.429678327811416,-7.5747405027227614,1.4527124080614158,-2.742367612434464,-1.7861743321518588
1.228,-0.7422334438620055,-4.905091214694494,-5.270663463210894,-6.319959299660695,-5.289050620523085,-0.5434741009812569,-1.3777137026208948,-1.1941159943953608
1.232,0.6477299745529308,-3.7617534601390616,-4.860285770581868,-4.103820836800878,-2.651541604135673,-2.264798501999394,0.00448859613516106,-1.2415540673619034
1.236,2.487994352115493,-2.4155729685262486,-4.078040973999123,-0.8625660434845486,0.14530452592771326,-3.7211450219283506,1.4427688886780743,-1.722291752765159
1.24,4.650305088081041,-0.7469461757746103,-2.475932543332874,3.0802538860680215,3.020053743865901,-5.097813567314915,2.793507363236131,-2.466747175260025
1.244,6.82895495878256,1.2972158256948205,0.14311624051788385,7.206688312349797,5.932390424363803,-6.511280742549388,3.8695591156983937,-3.3571512074004204
1.248,8.719182315834132,3.640644999511551,3.599921695813464,10.94701388383237,8.785607325039564,-7.796719031553039,4.615302555215749,-4.259999620508097
1.252,10.222557748110376,6.068913158153919,7.356273939462881,13.838199557253574,11.339237184791273,-8.501324525439486,5.156545715932225,-4.978989827070109
1.256,11.522332049225042,8.279382643052031,10.656293966124395,15.620641899085967,13.1976395438287,-8.130309861893693,5.664952247951987,-5.313221590615285
1.26,12.944153017615463,9.957760443320694,12.720287804293548,16.220260265466095,13.89527404438877,-6.506100227801653,6.133119478448862,-5.18823759699535
1.264,14.6637442442252,10.863701130700065,12.9487798883315,15.654626512679897,13.073452742727113,-4.013118458449753,6.2555673617025604,-4.760051593659227
1.268,16.457715443780216,10.911746252962985,11.10925551064338,13.96063559495451,10.691877438197025,-1.5286543887541484,5.569985911018193,-4.3753291394532425
1.272,17.657945319429018,10.191216554877428,7.45194501220567,11.194737900172186,7.152379129325709,-0.03913732936052838,3.8196993451456365,-4.373739090397066
1.276,17.42828696864308,8.942941050367153,2.730207271861218,7.541476604833406,3.2645617323378247,-0.13136853412652272,1.3171140475742504,-4.837445966455562
1.28,15.202385766764564,7.446374866177393,-1.9540251789767353,3.4124080600322486,-0.009001952010748937,-1.6624221018591925,-0.9830159879638813,-5.47021430368477
1.284,11.045440703743225,5.876927507868459,-5.467385157008721,-0.5690915348477574,-1.933956543943168,-3.8235726178245386,-1.853644619121951,-5.729733786767611
1.288,5.737010981389176,4.2269813240236545,-7.024777772877314,-3.730932182093966,-2.329322287593186,-5.57766927396915,-0.4467000988424843,-5.150590466762878
1.292,0.5026090058972841,2.342427551153378,-6.477091089007445,-5.608131428080014,-1.6640072710879394,-6.225111149993609,3.1472007347883846,-3.6644291990214697
1.296,-3.4318146038749546,0.11925106717808376,-4.330303273683057,-6.116841515166016,-0.8023894926795947,-5.765157608941081,7.803858347931964,-1.6889518502048304
1.3,-5.268221271927359,-2.2728385573491323,-1.4856756881754336,-5.550963634608706,-0.520534453725304,-4.842363338322684,11.865368481168844,0.09696726322908944
1.304,-4.838441757685359,-4.284958960543008,1.1954847485339997,-4.383015641963539,-1.037078872024722,-4.314208860421786,13.996809035323167,1.1630877492716536
1.308,-2.5292943756130626,-5.121418423150317,3.2733626682183967,-3.0004082221421413,-1.8345626123227703,-4.709513641349986,13.90192909457437,1.448432259807305
1.312,0.9245284146809354,-4.140516366362135,4.807130507514557,-1.5841726195394585,-1.9500461505031126,-5.926844518786311,12.421435775924692,1.3351919087181159
1.316,4.642506087381662,-1.3317878218995247,6.078327412987164,-0.21445049752946943,-0.6159494591256589,-7.364050310281527,10.903151273480034,1.2391027024586947
1.32,7.717660329384671,2.395789716791114,7.120757046101062,0.8689805893327502,2.0857432748052815,-8.385621581626765,10.197291467549803,1.074026731585036
1.324,9.284882656153059,5.369246738137008,7.397994162706709,1.0711632794718753,4.979664512424279,-8.82167139880039,9.910284650459289,-0.022681362788716797
1.328,8.639818692828158,5.792425431884112,5.91233718273088,-0.46486127661592036,6.2009130118603935,-9.15805246398304,8.449822042230153,-3.414821766798923
1.332,5.462659403468933,2.6068606069484304,1.7599045337674397,-4.424799036426521,4.110845067833907,-10.256076658270104,3.9368081741376955,-10.183793492122277
1.336,0.08734201497918548,-3.837646964193482,-5.126039601645971,-10.736498239071807,-1.708568064087558,-12.750100929946711,-4.476299993621069,-20.22647625492391
1.34,-6.381752554119885,-11.717272304079415,-13.515184185064754,-18.216783593440596,-9.95761719453185,-16.49752310436088,-15.666888659912729,-31.791775889003475
1.344,-12.285846957615831,-18.38512497569718,-21.058195474925924,-24.758027403904634,-17.954820400050266,-20.440530558586033,-26.614320157414113,-41.833888265397036
1.348,-15.932148629867697,-21.454286424446764,-25.127085336989694,-28.065686684793036,-22.70563664317524,-22.99444298319213,-33.55898652734868,-47.12727172401355
1.352,-16.216952828340254,-19.809428153543195,-23.972752149861662,-26.64607636967412,-22.220144965880536,-22.780334085000504,-33.71318974010137,-45.6464278694948
1.356,-13.068135353690195,-14.04783242911435,-17.60987160006698,-20.543983186122205,-16.4192495397765,-19.303699969394074,-26.631002115129377,-37.515188702673186
1.36,-7.468933168269359,-6.154919593661361,-7.94699313185356,-11.425341646629022,-7.187574292926911,-13.209124859764415,-14.504935276119795,-25.012445795387976
1.364,-1.0470306908855491,1.4081960175217318,1.961588610380204,-1.913106485046228,2.457698732013341,-5.980516114408601,-1.2228333461243892,-11.60318300013023
1.368,4.559234433893835,6.7270138565327215,9.1950935186087,5.508742676647671,9.655287635221612,0.7326897628099687,9.327494116152593,-0.4757604700134834
1.372,8.23697605743655,9.066924275712154,12.152206939626922,9.467839572205776,12.806794004327458,5.788136015133205,14.836505205768844,6.689258213458743
1.3760000000000001,9.609308459344902,8.881473972209278,11.070670261254236,10.090563483585356,12.008053482285504,8.876320678600678,15.269037866153667,10.118811807320526
1.3800000000000001,8.891464699977405,7.285141463550644,7.652156639106579,8.654309039568034,8.674954657608396,10.381547404063895,12.421039075925364,11.393279630647157
1.3840000000000001,6.577031577247908,5.3825814959327545,4.075864550109145,6.773314540008869,4.686679424669819,10.93479539501277,8.713903517747895,12.328509043074519
1.3880000000000001,3.2220566604892156,3.8558862352638243,1.9574081661321543,5.618928765205055,1.5577935323799466,10.97918803072389,5.956189805217946,13.949566135228451
1.3920000000000001,-0.5848540099696038,2.9459644974322146,1.7739464020323794,5.561698928417172,0.01536052927349374,10.604715676370688,4.706651926700943,16.097734284026956
1.3960000000000001,-4.136043520994463,2.7129146515717366,2.9878760099472856,6.353918171775149,0.08688855797754513,9.69927749996532,4.453011456265813,17.8017975565308
1.4000000000000001,-6.590793345663769,3.2604922785048984,4.6556329499399,7.613182126173342,1.46544285867094,8.249046950411866,4.314088597091541,18.09178061260718
1.4040000000000001,-7.168515814432794,4.724058352801876,6.09349687320173,9.232505751957433,3.834612192699751,6.5466628430203855,3.746112286718926,16.71253826285283
1.408,-5.520821042870011,7.037901421476818,7.202769972943315,11.441205011280545,6.953376137451414,5.13942481399863,2.8189800252093846,14.309139986018636
1.412,-2.024759240016465,9.703465706925272,8.31308102233561,14.521263712877044,10.517230877007023,4.555499023899756,1.9797543116801535,12.025725657518706
1.416,2.2398859774693847,11.82289621316977,9.750152582746523,18.42035237966047,14.010620009145896,4.993341269022494,1.5747307372203068,10.801507162037524
1.42,5.863380617599432,12.441087162202166,11.445749692149548,22.530971746664363,16.72466085439919,6.174822258713903,1.5110427668550983,10.809717234291384
1.424,7.7066680635443845,11.0606635690865,12.885343671059672,25.822529137492893,18.004548579272523,7.46797454829175,1.3040059668201138,11.37581286140994
1.428,7.403301189313424,8.011007090906787,13.427050523235266,27.26516773237381,17.58937131839957,8.205114372698517,0.46218149134620035,11.403516405254777
1.432,5.4349296469090405,4.3681811996893884,12.736214421272962,26.26900962182299,15.783896731760251,7.9861481489751895,-1.0948964143663034,10.02610739605916
1.436,2.7574734678664754,1.4448159788908015,11.036143323435681,22.904308408564248,13.327448552944588,6.803628483685316,-2.889656138888313,7.085041689086211
1.44,0.1959409552937359,0.09730147949085222,8.979852480410045,17.793802664076793,10.994270193968987,4.946728905068085,-4.128154839712806,3.188643028426668
1.444,-2.022462544751761,0.2605675739578146,7.227908095776911,11.790236279923192,9.171904107276532,2.77422118101822,-4.173583987523671,-0.6354349102148262
1.448,-4.273341126584455,1.0305581439561138,6.026461906126315,5.67939802287583,7.702323083512965,0.5327957989247807,-2.929416396542365,-3.4448777400848485
1.452,-7.11301823102167,1.2333525689318776,5.052670040498924,0.04126073416409781,6.066916025380124,-1.673226566226731,-0.8955329230320785,-4.762092165663489
1.456,-10.707475108129984,0.15737203709250025,3.6531295872091505,-4.703032068031462,3.813929582514902,-3.7740370889041515,1.1283179438451043,-4.660614502883618
1.46,-14.511117769043267,-2.0084260520352473,1.3122849575775035,-8.19141028930062,0.9340145878059047,-5.603869166208824,2.4902623553607555,-3.5791353005261044
1.464,-17.433834700710577,-4.290012410639974,-1.951514109799973,-10.108316926409316,-2.0631436302555812,-6.8817259332736285,2.9852242563356413,-2.0525476245820755
1.468,-18.414139250271546,-5.51073367472145,-5.512066514434082,-10.290488954862667,-4.406821223950828,-7.330392776771987,2.8425581257852173,-0.5295654467608983
1.472,-17.05383192181762,-4.993894315992293,-8.450476026025171,-8.874022260004494,-5.501913239992973,-6.85785686514464,2.4411501945032796,0.6576061044361268
1.476,-13.911064293457457,-2.9490278310240683,-10.047579356010829,-6.327325804419161,-5.2515757356377435,-5.667058722510774,1.9690523340232176,1.2380582550940744
1.48,-10.2581511553999,-0.32738324718593503,-10.165750763207143,-3.3026239642622386,-4.079375898554645,-4.196469390439233,1.2645139521391684,0.9821346565258864
1.484,-7.432190044961317,1.7583398481683616,-9.270531566599857,-0.36370386555245204,-2.6278106342606407,-2.913418697320594,-0.04560065120494983,-0.21426055012852885
1.488,-6.16974386858783,2.686363494685793,-8.088886862686195,2.241987354884259,-1.3300217722417074,-2.0787880212592427,-2.2190123442233016,-2.1871083444711985
1.492,-6.296379707342567,2.64454306780317,-7.136648142137346,4.608751915522589,-0.14350186171213863,-1.6241566283752036,-5.105378744949121,-4.424499012751767
1.496,-6.933339013925433,2.443949757493101,-6.408588489328395,6.969281985262569,1.389970638460909,-1.2240344437523163,-8.087868039097884,-6.169145717860374
1.5,-7.092900498877498,2.9257869994617067,-5.459319244168,9.363125559862965,3.7604607955090614,-0.5269179342903954,-10.3288298555035,-6.7164837809614255
1.504,-6.295868520570366,4.348010175843228,-3.80087229871242,11.405332627315147,7.0386547041234735,0.5998029701513587,-11.161142711385764,-5.759578096189216
1.508,-4.831800722606204,6.1501761900944985,-1.345148130925736,12.335537273153022,10.656345277712717,1.9605258521987707,-10.40324151191453,-3.5884928795658197
1.512,-3.5418604246951872,7.215331546198286,1.3894897720765584,11.338028498754284,13.554362647845664,3.116448324642988,-8.428066631713591,-1.008206607088141
1.516,-3.2659624795924174,6.48690185101259,3.4694985116511816,7.978962688677711,14.645037121662426,3.6157260242616758,-5.962325846689055,0.9949686743493658
1.52,-4.3118794218607945,3.5594987101958395,4.022794392019932,2.5032411161155323,13.327925646746735,3.2334018345609365,-3.7520518229612208,1.6835144009528449
1.524,-6.261995368793578,-1.085674246045528,2.723221819207538,-4.172452170445467,9.788558090855986,2.086136251618882,-2.2802932419817807,0.8818889587601006
1.528,-8.194606047436537,-6.302600973855078,0.0013201577385189012,-10.75756664093933,4.939158927317294,0.5748857635699096,-1.669812363172241,-0.9831133277402841
1.532,-9.164165484380646,-10.809958890113194,-3.151729675482784,-16.01752214870794,0.04256837592674856,-0.7873118797360803,-1.767132146649601,-3.1021089396672323
1.536,-8.67064769846911,-13.712834386231407,-5.65011766776297,-19.12986121035101,-3.7598196161525266,-1.5668010510889872,-2.303063872594066,-4.630454437647131
1.54,-6.871884392490756,-14.767844799287559,-6.80147468990981,-19.842198184100198,-5.812268603489429,-1.538037331214582,-3.0216444634897925,-4.9931472688949725
1.544,-4.461934326451228,-14.296347505560334,-6.551627791171995,-18.422808535051445,-6.060931215743949,-0.7110363571373455,-3.7235576394687087,-4.034205573738291
1.548,-2.3354119093964982,-12.871628423084985,-5.383184451358829,-15.500532296373422,-4.924200762101464,0.7200140047389141,-4.251352474366286,-1.9979990912106587
1.552,-1.2039724677906634,-10.998666849183792,-3.974442803706552,-11.87458882741339,-3.035723450300793,2.459797607945802,-4.485200272200018,0.6084651877936267
1.556,-1.3333357260671619,-8.955565982325425,-2.8384916897866788,-8.334748015255173,-0.9982548502975988,4.185735003069567,-4.390646200776246,3.171688831953361
1.56,-2.511122085767056,-6.859253752996665,-2.1538176653557457,-5.508662471183925,0.7528409728693077,5.606760957158258,-4.083400945211906,5.10671772484784
1.564,-4.187942705302703,-4.81651783682355,-1.8193754135954805,-3.7135210458072834,1.9959419079632426,6.5116444774103,-3.8322163132143032,5.989973464824288
1.568,-5.69422480686444,-2.9957910878911207,-1.624956254463541,-2.8406877462366538,2.728834627373544,6.811680957594945,-3.9422385697835125,5.688528844850225
1.572,-6.482381790758154,-1.5866511232907214,-1.4046927677281928,-2.382582274511151,3.13398710986894,6.548653551049938,-4.556810166684954,4.4502360046390095
1.576,-6.3218739385774825,-0.6827971478833206,-1.0647201732717804,-1.6458282436360605,3.5053339464393503,5.854500304125395,-5.496137773938244,2.887100006773835
1.58,-5.401683769232477,-0.22600523434084607,-0.5299730725637346,-0.11863730112600024,4.105981722732395,4.8769264689181,-6.273190320662252,1.793702254883101
1.584,-4.282288690850692,-0.07407296245037287,0.2985003178437182,2.1831957180475,4.992739236313355,3.7093392326169123,-6.321152792064822,1.8182746214297367
1.588,-3.6869543314332986,-0.1507069894396409,1.4957794047822972,4.601430575410632,5.895177616403089,2.3724970780458534,-5.343571073222847,3.118429148962605
1.592,-4.164695891235169,-0.5598630801823674,2.9896376875312853,6.082714590895193,6.2510743096790975,0.8718236360109586,-3.576971626487648,5.199825376534136
1.596,-5.767829908397289,-1.5385192700150583,4.475247753836356,5.71286419133412,5.448423844226454,-0.7066603624571144,-1.7773287437248655,7.067106070250702
1.6,-7.949269311610806,-3.2623610774362533,5.4553312299381105,3.2394505373149514,3.173128558686585,-2.1310218138050914,-0.8981548133688193,7.659808990535566
1.604,-9.771650254206179,-5.606102281060885,5.45750225599113,-0.710344001179692,-0.2978009908429158,-3.0566600391648535,-1.586501231575312,6.379875131078734
1.608,-10.37332672904995,-8.02817847364713,4.325197493688393,-4.8755563215963775,-4.047787553232411,-3.168362118580262,-3.7718365692853695,3.422342826037493
1.612,-9.484263675665716,-9.727165707126915,2.3763365209342737,-7.984068492751248,-6.821285021695076,-2.3617407378224016,-6.600067446983303,-0.2835193331266055
1.616,-7.680968121170736,-10.012656972268815,0.31495334933060803,-9.409339504400123,-7.557530001387931,-0.857074035993719,-8.782628812266921,-3.5160888027894543
1.62,-6.164431158162188,-8.697636838222024,-1.0940881690748938,-9.47112564758936,-5.906830348469157,0.8544280746136792,-9.198031670624914,-5.337861558648001
1.624,-6.117290520509414,-6.26472230116633,-1.4081777080773463,-9.192401744430754,-2.4508336074868566,2.21985361476618,-7.437804438486637,-5.495844170975033
1.6280000000000001,-7.974134009931731,-3.6797483840418863,-0.725950281801488,-9.651537207975707,1.5207561261840965,2.879646492896427,-4.013445206179313,-4.433646403445891
1.6320000000000001,-11.036367148555655,-1.936803008606148,0.38449120488439803,-11.314872817423748,4.576845510765452,2.8244159562054847,-0.1214352930401219,-2.9369597971308394
1.6360000000000001,-13.718339662678773,-1.5784824889142328,1.221126505633947,-13.750862080250954,5.774306966664881,2.351910014080204,2.9092224510986853,-1.6522012147870555
1.6400000000000001,-14.352617632903275,-2.4670014964885922,1.33585306259738,-15.895762428132002,5.020331425315817,1.846321429595264,4.190566229724936,-0.7771327674454369
1.6440000000000001,-12.142184548001751,-3.929478059641042,0.7518929391444544,-16.699315198728073,2.996715335708359,1.5121116059053747,3.5869322112048394,-0.10435539740137756
1.6480000000000001,-7.71879739886208,-5.1782211735317105,-0.10257160276523791,-15.74931674688196,0.7254440967080882,1.2443906737826183,1.6454460801360256,0.6563009993988089
1.6520000000000001,-2.9285033238302276,-5.751580337442647,-0.6947797731445462,-13.48882338412659,-0.9680068796769774,0.7291022697427252,-0.7714014949160628,1.5387448111541744
1.6560000000000001,0.06706585865867964,-5.719411238052999,-0.7128740378502698,-10.907419913486592,-1.794644737867202,-0.28571341035785736,-2.9188294900195615,2.219779551251122
1.6600000000000001,-0.07927805588769843,-5.5514989754392445,-0.22527281183647574,-8.921509944369973,-1.9892931275899173,-1.7195213455997873,-4.438929393441867,2.2501302051568928
1.6640000000000001,-3.1511754716520954,-5.7420280736023415,0.41341285817361495,-7.838762636723914,-2.007147754999096,-3.079867838358041,-5.3652918883854,1.4470553290375392
1.668,-7.4251516282984085,-6.427209888610378,0.8339698456566111,-7.2395995768802095,-2.153689563633634,-3.650994066589192,-5.919076583009883,0.15479576154757524
1.672,-10.532772966331322,-7.248479436202615,0.9000083631890448,-6.352530676413153,-2.4009878217702862,-2.8666699197201524,-6.275835104024736,-0.8467373451530875
1.676,-10.667937118843838,-7.530979196641056,0.7773043454853905,-4.663680754343659,-2.48143682321097,-0.6651631282547896,-6.462139567736813,-0.7911184724071063
1.68,-7.506265197263929,-6.6827632156546315,0.7764846297595795,-2.3685439792279794,-2.180876829525914,2.3962636249125353,-6.416974132724135,0.543272855138639
1.684,-2.356150310015437,-4.5829902035075065,1.0736212721403717,-0.3610015611666313,-1.61620318129917,5.363749459822429,-6.1467325332450855,2.5807028211329452
1.688,2.503131896854029,-1.7345981869821117,1.5066620748821151,0.237455272115767,-1.2869575043278019,7.332801662530983,-5.84444747595262,4.177007265889188
1.692,4.936391387900585,0.9171781743916654,1.5948083525381662,-1.2848398169371649,-1.846073650001017,7.875047588826419,-5.864272190758129,4.246858763859564
1.696,3.9585888653400616,2.422080453552553,0.8030421178827964,-4.7885946082988085,-3.700457386069502,7.223636336169875,-6.542085430006409,2.4391320533595717
1.7,0.10448598814946308,2.2646933739597443,-1.1075208556158032,-9.320512267811864,-6.697864894891609,6.106372977254068,-7.9731522802485415,-0.5609623815216764
1.704,-4.953619491425343,0.5853663910529576,-3.8518847965551686,-13.596432421969439,-10.095719105311218,5.321162932490552,-9.891228222888458,-3.32406432618518
1.708,-9.277493584588228,-1.897460807900643,-6.649648116472235,-16.62826205285819,-12.831287984014125,5.307096665605059,-11.726437030429224,-4.421480221515594
1.712,-11.553368355609564,-4.216656766855522,-8.520214784899508,-18.13711411787881,-13.960244742325813,5.9412429533549584,-12.825402793801914,-3.202221034298418
1.716,-11.574159793821309,-5.5642214506760865,-8.706194734684686,-18.533872446740133,-13.035296328042023,6.658363508908224,-12.73057808744852,-0.16129965939035174
1.72,-10.134111709612625,-5.597496708052859,-7.030798092171608,-18.516961095769148,-10.256129023297035,6.8226730301812495,-11.386631131939794,3.3226026125921635
1.724,-8.463232888616403,-4.533296567563411,-4.020787380472939,-18.56133141868486,-6.351835677731287,6.120067851317799,-9.185938613405597,5.7218165227313875
1.728,-7.5283515614337375,-2.987267065708693,-0.7089926415555965,-18.596828568708588,-2.25844941811647,4.751636003686144,-6.8217171781434445,6.15555554367711
1.732,-7.537063504109028,-1.6561737806205201,1.7877159031013434,-18.045562419647467,1.2304568305116845,3.3377356469882216,-5.0110254011488,4.802283141985754
1.736,-7.869632015908792,-0.9900799342849496,2.7422556515430188,-16.171835857974656,3.6952362429874483,2.5901061234399094,-4.203517957779695,2.7084533606193872
1.74,-7.424954526040892,-0.9938022370406543,2.1402578192301007,-12.522636542473265,5.145385554867971,2.9494986137506203,-4.394377357883059,1.1482879351351585
1.744,-5.194152402094005,-1.250635327166492,0.6913779048545621,-7.213277059036045,5.908416457201383,4.382988356697751,-5.124658415063095,0.9165943555126432
1.748,-0.8032546984159126,-1.1506559797917362,-0.4761954916830291,-0.9303580898449582,6.429767599349361,6.4301314548974915,-5.6705827146670345,1.9411311388303147
1.752,5.2095520527800545,-0.23354097924493544,-0.3248116527138336,5.3027762011224695,7.057284299725325,8.450709637532782,-5.362357984780829,3.4053815773168026
1.756,11.498168692472063,1.5235390184525386,1.6105085585495544,10.46091173660534,7.884735878050378,9.92771364368491,-3.9040306431415956,4.258698403813469
1.76,16.38130212480155,3.6162567608953395,4.977659445980862,13.796819987181152,8.690368981517167,10.664045818133673,-1.5517147042992292,3.80314949383137
1.764,18.509565604208547,5.187226210116933,8.718543944691191,14.991100681436365,8.998167583557006,10.800242528241142,0.9452361555286188,2.038802025730547
1.768,17.44729105323404,5.421808932306703,11.515147808690926,14.174978892660874,8.263581974947556,10.671370670972465,2.6365975024091313,-0.3878450536285527
1.772,13.907614647720038,3.9732167810543615,12.362135154628959,11.850767697776973,6.112213729213181,10.600635601111208,2.7766236564602877,-2.5513232669909485
1.776,9.51143910126575,1.2138063299262285,11.010491536384507,8.766262873130472,2.553801258385647,10.744415507764643,1.1582196052622749,-3.6967450569609355
1.78,6.119304958012435,-1.8614985796630208,8.052453970653005,5.739634583165753,-1.950053410459077,11.058692371469078,-1.7827250537357031,-3.5342718581487134
1.784,4.989843128116263,-4.085513334423922,4.604648017197178,3.425531095110273,-6.627880860853111,11.355943474172818,-5.155684396780998,-2.2763026204738708
1.788,6.179933572382652,-4.688830643714027,1.7751441721447918,2.106428246366704,-10.68008724610445,11.419385075787432,-8.000826581323054,-0.4517382089943567
1.792,8.480360202671363,-3.707117839982857,0.17211442762982188,1.5914318586146692,-13.579253837601755,11.114699125111656,-9.668504502384167,1.3728473425289849
1.796,9.969609665644384,-1.97651727259381,-0.28024951168117695,1.308088143268833,-15.216257232613316,10.437222077132901,-10.010233886234346,2.8135436296997796
1.8,8.948676163196069,-0.7062237431009635,-0.16251354435462417,0.5871578102269268,-15.827250347014342,9.495889977039042,-9.30349156777811,3.759409305621375
1.804,4.801964690798741,-0.8436099095270038,-0.14717942616243818,-0.9794457900406996,-15.764172445677104,8.443641525669591,-7.989115782849694,4.325264445606081
1.808,-1.617424145325458,-2.531870116294158,-0.5843393564991857,-3.2702841772879765,-15.235681448240939,7.394751748041017,-6.3927728605267475,4.7327535730455565
1.812,-8.308250787082216,-4.98631431663307,-1.3417364863380499,-5.629165884438407,-14.201099403674561,6.373113789906711,-4.60846050222608,5.186638680574106
1.816,-12.996790474116096,-6.855137815876333,-1.9518389289596598,-7.148051725576806,-12.47253248047491,5.313909207001416,-2.598810812642114,5.78134932503599
1.82,-14.153032644606355,-6.897533716732141,-1.9656156222226855,-7.120081393562941,-9.963644331306568,4.121121220065106,-0.41487433365546167,6.462585282433793
1.824,-11.643847398509934,-4.632008810418483,-1.2774303201513248,-5.4192897384727985,-6.911912948624376,2.762102637319913,1.6456451240737806,7.056296906344869
1.828,-6.709403465565629,-0.5914701430492642,-0.19506491255560832,-2.579451444775259,-3.8894850912074617,1.34824695453608,3.0831105708184623,7.3581961070249235
1.832,-1.3453625686270243,3.906733912321215,0.7411950642326701,0.4421125511289574,-1.6029461762636856,0.13409829892952985,3.4207967383663345,7.226588433282814
1.836,2.5940742787424824,7.371172089246102,1.0758488267383655,2.713844833016992,-0.5743676358870289,-0.5722527062753215,2.4816244724370335,6.638706463218114
1.84,4.119560295824158,8.796084640765002,0.6766222673577431,3.7466124908696656,-0.9052392116391275,-0.5555935279517143,0.5343445685448387,5.68725102337703
1.844,3.30807978586472,8.012352989380815,-0.27193186264048563,3.6397401667491067,-2.2903809132239985,0.17061170050146757,-1.818580525874495,4.505058351909611
1.848,0.9874166403096751,5.611066158273388,-1.47436494772046,2.913368135140445,-4.248369807926792,1.3337130052204884,-3.9442000227045355,3.175392275543345
1.852,-1.8386567568313694,2.530133422113977,-2.77856635959688,2.145424527708201,-6.415898409952206,2.5153870347730845,-5.48179202355459,1.6968412026890292
1.856,-4.465058545362808,-0.4078674397460418,-4.257642724867765,1.653284190060731,-8.678179768701739,3.3748834680700384,-6.435522414614752,0.055388393708199146
1.86,-6.629789113082552,-2.7606804992228717,-6.060259535958721,1.3931430693692164,-11.053121359324905,3.8530686773519847,-7.000187990204722,-1.6343061768911866
1.864,-8.344009906875726,-4.451046856674111,-8.148678860032305,1.103754189911342,-13.437056536930868,4.219493854065149,-7.256413221895855,-3.037005518843216
1.868,-9.582970677910453,-5.524403614233961,-10.109617882495513,0.5861569864564444,-15.401503511364353,4.9200332882101065,-6.960852252441327,-3.655577695779357
1.872,-10.108521137882235,-5.905316529327138,-11.226463508468441,-0.09160841681023157,-16.24081861166451,6.2890803201262315,-5.607523357581158,-3.0522551135072717
1.8760000000000001,-9.56212416449307,-5.3272033080847905,-10.807155338322445,-0.5950282022595275,-15.280830978242193,8.283011438061294,-2.7627964448511193,-1.1306560582288512
1.8800000000000001,-7.75133782516059,-3.4861770385823547,-8.605212985430626,-0.5354894979755045,-12.292212709714477,10.407480253405083,1.523891713046396,1.69299640587451
1.8840000000000001,-4.91922260082174,-0.3135634119826136,-5.077371400678203,0.2445867357582756,-7.7440318808467055,11.91356972288122,6.513855053979569,4.584950005726569
1.8880000000000001,-1.785228617384746,3.846107349392696,-1.2709093740450044,1.5087236230056078,-2.6864548446928893,12.169923943605681,10.96551751941388,6.660627770055726
1.8920000000000001,0.7199883377052174,8.278661192268373,1.626333891143986,2.7039807768969695,1.7046006863884031,11.015363365902886,13.66318193290499,7.458321417410843
1.8960000000000001,1.8888557879408836,12.170492468303564,2.8514812346274994,3.250178056588993,4.691860253282357,8.883458072123176,14.01274293559436,7.242266344343079
1.9000000000000001,1.5801541081737014,14.943646231206003,2.426347770108805,2.8593626608862905,6.309961358419969,6.599615880759302,12.356747597403228,6.912571420672975
1.9040000000000001,0.2673057998663353,16.45430389608373,1.1000304325198158,1.7040587347828478,7.254845712151109,4.954600896211559,9.804909599211896,7.525701475755341
1.9080000000000001,-1.234488175234219,16.959116692846692,-0.08737471277345321,0.34089347892677324,8.396969372415242,4.301092803874781,7.657487635022335,9.667406705817484
1.9120000000000001,-2.2086336714328354,16.869706960999792,-0.3911516238749755,-0.5709207345798859,10.191408965583378,4.4095811362331006,6.737486523059488,13.046259278387879
1.9160000000000001,-2.4099599890832906,16.460077442678994,0.24777071049993538,-0.6001281343442315,12.344903997584424,4.670984865722858,7.013248794698484,16.56932470414904
1.92,-2.108647020351782,15.732666395253545,1.2293677353736712,0.2801669407454028,13.94984642721056,4.540881959366743,7.728680911355696,18.91038557389311
1.924,-1.8112027918205058,14.495224603958377,1.6916230105916839,1.7479862161944766,13.987095949946706,3.952044382078384,7.942184553628977,19.265343389852205
1.928,-1.8749767905273984,12.586304697912055,1.0430727227144416,3.3554989004478557,11.900913406283053,3.4274799000340863,7.136493194995637,17.845410614922002
1.932,-2.2587707983147993,10.08536566539351,-0.6968224365668902,4.766119443472235,7.899581788212799,3.7994876834218303,5.516819819267766,15.799553609036593
1.936,-2.546094317981442,7.3766565942014495,-2.9210235646119145,5.887543766816634,2.8365534113568174,5.686492973894929,3.8356961413574027,14.577786545858544
1.94,-2.251692191006441,5.002841644205546,-4.793033130026288,6.828165220203118,-2.234634301429651,9.022877506418808,2.8691481837386164,15.082574069497241
1.944,-1.2070602839585263,3.3955183879079414,-5.710586215357125,7.7313108600001215,-6.545047017631532,12.938093165641476,2.885501874239708,17.104548782086567
1.948,0.24603750166534155,2.674093936971076,-5.570917319385899,8.624025841291768,-9.818733821454316,16.085033504013154,3.476037974960491,19.407679904735232
1.952,1.4127927318927505,2.6408879578207234,-4.695266446842197,9.397549518243068,-12.113668565631087,17.27002855084993,3.874029213553513,20.446878877850395
1.956,1.6860595625394126,2.986584426488207,-3.47712431476657,9.930121836705439,-13.44363763282854,16.055973103577344,3.5591124555048737,19.302750193094653
1.96,0.9835894293946694,3.5539762320731825,-2.0262444271847926,10.240933954764841,-13.502587793180282,13.006755092919775,2.7349072070601324,16.27240662508848
1.964,-0.10075711075933214,4.466545664577552,-0.08384932603075868,10.545794112316798,-11.749216441403405,9.42072493644173,2.3171268644691736,12.725625846363982
1.968,-0.5749221849314381,6.030105703100617,2.7172476596956585,11.149167641388885,-7.836324598865303,6.677986928521932,3.367455551574494,10.267891741965286
1.972,0.3515048501499223,8.427119985733043,6.376702788077637,12.195511542664462,-2.1496219084328914,5.532041871799265,6.258883579228495,9.668612682249659
1.976,2.6813228340142814,11.401325737952448,10.165687706863537,13.435274689803009,3.9359844472655823,5.711415647675494,10.087049753424253,10.19273937703656
1.98,5.428700996601037,14.157725846292578,12.670895102662143,14.179000952000024,8.343246861584703,6.0475216437007475,12.755853139078681,9.795896878085841
1.984,6.969218371652914,15.572634302115603,12.305200903088462,13.51537238918445,9.066858670602414,5.069108843966205,11.809840445389455,6.153286873073739
1.988,5.821024947321348,14.672014165746077,8.08863885423034,10.736601400094514,5.101122558948646,1.7724856351405833,5.673385686790425,-1.984902528179191
1.992,1.4447749565842969,11.121753946086756,0.27751467795133067,5.748783324840588,-2.9753227992614484,-3.8079957271993408,-5.34139012660944,-13.841898141422462
1.996,-5.348804972826656,5.496611540540471,-9.502329485852442,-0.7267292782917139,-13.066120535881055,-10.497244590172158,-18.804788830769212,-26.611033008083723
2.0,-12.596519592157165,-0.8190260492483503,-18.74587788353938,-7.276255722283167,-22.288752832687805,-16.39243706057823,-30.911330997008918,-36.45746388193129
2.004,-17.951021430999845,-6.098769885828915,-24.998801900590024,-12.237127431053523,-28.060835433142984,-19.609120055100902,-37.90376482168995,-40.07625387877033
2.008,-19.634244995726476,-8.880224046979038,-26.781025437077915,-14.266357675312065,-29.020432233370684,-19.021225250135103,-37.52682136259773,-36.049112493015855
2.012,-17.118082041554317,-8.462087424200945,-24.089707413298584,-12.803632836647012,-25.398220515724915,-14.683140742962678,-29.85929077844048,-25.37105666248226
2.016,-11.238593946650326,-5.08270789089147,-18.25305686121783,-8.242919906338102,-18.712613313334714,-7.775987533013904,-17.16960221285899,-10.948318692190696
2.02,-3.764126103397757,0.23282922859061728,-11.263854449624887,-1.7746480632886232,-11.018491513136723,-0.12543793954955618,-2.9212712718981493,3.6293191371405555
2.024,3.335173979337924,6.041219387304864,-4.95509218607549,5.012774996256667,-4.1177960056193115,6.479670361537501,9.568638073225884,15.402228733548327
2.028,8.574776453221602,10.925955374288606,-0.3849462474508982,10.629052739924191,0.9514537102572831,10.873884736727632,18.219957490898196,22.86009115591969
2.032,11.299785123471338,13.849216135677125,2.318425012262196,14.088645382537834,3.990607094762254,12.791381680310224,22.605952401695504,25.99722901956102
2.036,11.6576303448428,14.366102354319082,3.7076102871205876,15.146253334152789,5.41023296384401,12.76630445120827,23.66290329898311,25.773942098598127
2.04,10.336365389704497,12.684616098877086,4.575258867404955,14.307180519797384,5.904861809999602,11.740921787501975,22.972236018052172,23.39322342543619
2.044,8.222677135129743,9.557972510971467,5.564203019843262,12.60105343692976,6.196027756921467,10.58335235299728,22.012761250237418,19.798379266938355
2.048,6.162125051126168,6.076204816653444,7.015590217057252,11.227268436823579,6.929119928325235,9.75074741890785,21.72131168322312,15.592741439155361
2.052,4.811177074964235,3.354454990607792,9.008478124741487,11.14429390651594,8.611850184100604,9.217036867540628,22.424507050252487,11.258539901885342
2.056,4.551987056146572,2.197319798623539,11.467857722051576,12.738459900326689,11.511480035782597,8.659315945778872,23.99835820240105,7.387954731982063
2.06,5.429140365695275,2.8326521887870513,14.212497344843996,15.68282721409878,15.494813329109775,7.762143547858614,26.065199565883177,4.6941754606277755
2.064,7.1228244548779,4.82130111331935,16.920461967611573,19.056999356072538,19.903307199026585,6.460689615136289,28.107747162596297,3.7615119602705818
2.068,9.028402621012447,7.227557318924482,19.111628359232782,21.720551854734822,23.628825096468518,4.993946902734024,29.52155634179462,4.712093236118562
2.072,10.473383902125988,8.99392609431834,20.22119087087549,22.79111846401338,25.441675547160457,3.764140490682621,29.692614030097502,7.035751543857259
2.076,10.994017607323258,9.374228414384561,19.798074211957555,22.017204549063536,24.478869556875225,3.096739338019688,28.176556810125476,9.722966597117193
2.08,10.544522644595872,8.224818261062865,17.734259889751,19.870211882404874,20.658777580530113,3.060921990494535,24.93641384638977,11.665305532459115
2.084,9.487953837576697,5.989191485397896,14.362238130747755,17.282902133237258,14.767687526439659,3.4572908775735414,20.475901109033202,12.101213485632343
2.088,8.355387218650776,3.4101120565333076,10.349116707221583,15.165019814275183,8.15565100970207,3.9729088959934415,15.745195973715454,10.874860452696339
2.092,7.501873409023119,1.11885088796339,6.406576828392872,13.92465808886709,2.1591342125934716,4.400156125446301,11.788755214255616,8.381792378719638
2.096,6.896729502536573,-0.6502723284329477,2.996187383290817,13.270326892630692,-2.4343455540642935,4.769844953103529,9.28845921001539,5.269414026396589
2.1,6.19026279349373,-2.0764786667996304,0.20981382782179026,12.406434567701126,-5.605583412541364,5.310322643763811,8.253958466902986,2.0985599250684572
2.104,5.016053229792533,-3.5284244241563556,-2.1231497148110066,10.504994234660444,-7.917957376049117,6.248008095650675,8.038074909786701,-0.8537496636522519
2.108,3.3520374216732307,-5.229591212994819,-4.1611061435478405,7.21481830529865,-10.029900809592618,7.579237753045618,7.7012377378846395,-3.574381792107488
2.112,1.6851443881787418,-7.0372176790926915,-5.800681249501622,2.927803833258622,-12.211987251069559,8.972359597825289,6.549704735108207,-6.1274284702426485
2.116,0.8147368079148691,-8.48035351323233,-6.628177205528345,-1.3551530770359932,-14.143734390175496,9.876960713982044,4.549231528883411,-8.46304899390907
2.12,1.381277262807771,-9.027125374292382,-6.123857850959666,-4.493761077204454,-15.089382628033036,9.798488144113435,2.3758249993479694,-10.356194469302864
2.124,3.410513678017196,-8.413116791022048,-3.997522103443771,-5.747259084791949,-14.330930140462215,8.5801783762995,1.0716493713680393,-11.497946108462202
2.128,6.1897987680872575,-6.806724524098172,-0.4294920264198936,-5.078894807856614,-11.58323640276717,6.522907343380666,1.4865992054742492,-11.67020466621716
2.132,8.58376806529327,-4.724113394006963,3.932513326912158,-3.086647830813945,-7.16693870990639,4.265853963286645,3.8024317995318597,-10.878303914980279
2.136,9.645268026149097,-2.7319929900709212,8.24009876693708,-0.6125268936093562,-1.855421991408548,2.4794665887329757,7.401767142910558,-9.364461197949822
2.14,9.17932214492771,-1.1236527732087325,11.81470380263113,1.7317687231620766,3.484659265624032,1.5439867201921516,11.139593973628507,-7.505295581415339
2.144,7.8773696149924035,0.20511750983405364,14.393203339746606,3.829003827183442,8.211854298409435,1.3911799573543249,13.85956037431879,-5.670439784403698
2.148,6.906529025816781,1.6084028990742354,16.105086933760504,5.9686417342536515,12.015508897383597,1.5858367466753407,14.871972850789007,-4.138743437369158
2.152,7.16824151657238,3.3501237307448264,17.202563033976276,8.47804466425464,14.778902933404197,1.6023790119543264,14.154109906157828,-3.0949320218096545
2.156,8.695879730516708,5.322966830699443,17.757038961192393,11.340995734014996,16.365585834586,1.122270785694127,12.220293540971852,-2.6670900330409495
2.16,10.555565143582044,7.002564091608747,17.522397166278097,14.046493686235635,16.506438961135473,0.17372327578686964,9.773665306874136,-2.950077464975948
2.164,11.340279835976162,7.669341406656258,16.05583699621434,15.776002701316656,14.882918752005708,-0.9419451102498897,7.360257399629518,-3.9719455689933056
2.168,9.988870154878441,6.7922063479200006,13.039300697271528,15.823506376630576,11.370009019426675,-1.8831173476064578,5.202298086510609,-5.630846348212799
2.172,6.437392852477842,4.328044373581179,8.581304946769706,13.984469204288871,6.258544914835738,-2.508466526794564,3.25830731697215,-7.657592994681181
2.176,1.7262789087230885,0.7776821795735032,3.317628471851549,10.699666867898031,0.30093960585827517,-2.965192005602148,1.426803428734729,-9.659620966875991
2.18,-2.5109049835850783,-3.0413305505683184,-1.7749246796431635,6.855993256991269,-5.487294580052435,-3.577139427732618,-0.2786184470587614,-11.254528524711986
2.184,-4.886553877733149,-6.375864584090095,-5.758914188042809,3.3629771189889652,-10.178944122602843,-4.6122409356530625,-1.697558964000109,-12.23192240284834
2.188,-4.919245613290059,-8.826314613356885,-8.087702147390928,0.7716995973034955,-13.229093172581543,-6.076173207457941,-2.626071026336831,-12.651984114496827
2.192,-3.1718326540026283,-10.41226048454132,-8.761230438588655,-0.869499549621878,-14.571069719071602,-7.671218514292605,-2.9726354433887536,-12.819639579783143
2.196,-0.7864997454197464,-11.378024736153748,-8.206742438362653,-1.8344816602036644,-14.462892745370482,-8.934480155085112,-2.8409196489710666,-13.131533522097243
2.2,1.2701541436701973,-11.884143355627543,-6.976903591073778,-2.3596455859849357,-13.198242461703785,-9.475267723393472,-2.4661998942251557,-13.862141157895167
2.204,2.75224412826924,-11.819579471528641,-5.456016338563586,-2.3702988664088025,-10.886492630185444,-9.184945222700662,-2.050221664053879,-15.002228195056887
2.208,4.177980214756872,-10.829394371329272,-3.720095282290572,-1.456966285932367,-7.423152756980585,-8.289203573929626,-1.6181643425434231,-16.230335838014753
2.212,6.360818946172003,-8.564491688011799,-1.6216099247508282,0.863684568770168,-2.6781118373839945,-7.221461899044698,-1.0016443685376544,-17.038228939404917
2.216,9.735863200460017,-4.9830510635813425,0.9963955473576789,4.753123379294266,3.2315283686859857,-6.401756456353496,0.027655450579459284,-16.958286075340766
2.22,13.923332057310517,-0.5157504972110019,4.0879260577168,9.767817701080276,9.75854736784163,-6.048498387606287,1.5482977448027668,-15.781315310448463
2.224,17.799251625777856,4.000033005765772,7.311729583970418,14.87317839656248,15.953080824958874,-6.1255965131636,3.343642244120929,-13.664126697550728
2.228,20.03858903700916,7.611148704765583,10.11851986949614,18.782130904946825,20.726897404028932,-6.429975850141545,4.9315543215993785,-11.082212756475656
2.232,19.817575115874433,9.6023810910458,11.95705818327258,20.46053530125323,23.224966145998224,-6.746493620097681,5.765768789462527,-8.646258774781472
2.236,17.26199518626686,9.742305694263905,12.500226608271191,19.555865122348223,23.133741247878334,-6.97078203411138,5.512201254223555,-6.868263777849279
2.24,13.39360806543118,8.311202319825952,11.772852143581872,16.52539592354651,20.778369758337703,-7.136795771712059,4.227631065786227,-5.991521686289843
2.244,9.610933630602858,5.89942104195211,10.114494346310835,12.396349789620558,16.94947591170086,-7.353453633165827,2.3158059174224945,-5.9603157472424755
2.248,7.009827165017555,3.1200782241344314,8.015961525495868,8.299345138044032,12.568904025524887,-7.703346924940888,0.3014464314279621,-6.525429459419229
2.2520000000000002,5.902592853659485,0.3777872034019083,5.893997458763806,4.987474942013932,8.335038778485966,-8.173824829331352,-1.450843482312166,-7.41257851670855
2.2560000000000002,5.803276613837966,-2.18074262396982,3.927618890322208,2.5992208203257405,4.521743212654997,-8.652311237378171,-2.898227626374137,-8.441688042833448
2.2600000000000002,5.819629471875601,-4.556289888899926,2.0235921343192445,0.7461959777490392,0.9985385655102164,-8.98361656798977,-4.253422219458798,-9.52782752891278
2.2640000000000002,5.198453446068925,-6.730603295625372,-0.08379707696872174,-1.155988721241556,-2.5718979604798733,-9.044309721766354,-5.736659542560801,-10.585654256673934
2.2680000000000002,3.727309855533065,-8.555947145331402,-2.631900571148776,-3.482791494182038,-6.456460369281331,-8.786869262943355,-7.309215906258487,-11.421874136061888
2.2720000000000002,1.7829530013246995,-9.790136067129197,-5.635752763744961,-6.14865862231477,-10.640037845081565,-8.233945965680391,-8.576541861597548,-11.718076594141962
2.2760000000000002,0.022950644144430044,-10.253572419064653,-8.805127908432098,-8.643286728199655,-14.770475204303011,-7.459060896608435,-8.958829171181605,-11.170162494718397
2.2800000000000002,-1.049368967355349,-9.997024676537762,-11.624072231920536,-10.313258100670055,-18.269597033769855,-6.56125596878519,-8.042729055985092,-9.722813967621505
2.2840000000000003,-1.3724673178268176,-9.353211887418752,-13.556010295152362,-10.717839779357803,-20.537273431062545,-5.640447381157969,-5.8901620113438184,-7.734215141425921
2.2880000000000003,-1.3203013475024932,-8.8021278972858,-14.26327518212804,-9.857789118985579,-21.13442253233802,-4.786241661092163,-3.0970062913427228,-5.926231305433021
2.2920000000000003,-1.4287220154911324,-8.70953727367737,-13.74015632440205,-8.164464440028041,-19.885907611054336,-4.068351833049633,-0.5322235911752955,-5.080751331123565
2.2960000000000003,-2.0046128093133575,-9.062762800031578,-12.278196547772609,-6.239379422132117,-16.880477334506992,-3.5206630785527295,1.1161251790726396,-5.60851869976409
2.3000000000000003,-2.8769837422262867,-9.383850732881854,-10.295341583840496,-4.508428883020713,-12.416241570827339,-3.1270700839293113,1.7195215525364915,-7.2291278990030605
2.3040000000000003,-3.4545858036160553,-8.920793909277393,-8.14091703892285,-3.008005266059172,-6.9585345431369205,-2.833217251869769,1.763718232154588,-8.990698554059065
2.308,-3.065397102990289,-7.045378430740243,-5.993168464486757,-1.4284708224801648,-1.124791538733092,-2.5975991326248504,2.0240601879385736,-9.676832973824617
2.312,-1.383184770165542,-3.668527987193272,-3.9136030520728013,0.6002429127377127,4.327318846069943,-2.447422085428798,3.038648131025411,-8.42502347508696
2.316,1.3110834571148757,0.5811251822464669,-1.9945970584761312,3.1595315668411104,8.580623971317664,-2.4991109046962947,4.712367142163657,-5.229297517661621
2.32,4.175482273598732,4.543138955717382,-0.47679419040491666,5.845879116914261,10.942456949881262,-2.914733725653832,6.304669676367439,-1.030161646506258
2.324,6.154602587749309,7.0048062903825326,0.2721590691709821,7.862125584190721,11.078242483921827,-3.8018351843829805,6.84184820860844,2.6954142712994553
2.328,6.471547884714653,7.262012253657474,-0.05905129185862279,8.376573360256657,9.18733036000043,-5.100245637572698,5.733565056743828,4.644434062192545
2.332,5.00980274439803,5.457880512494455,-1.4983083823539687,6.960415544341231,5.988176393584922,-6.5298784290122285,3.1997315252290264,4.327031849871219
2.336,2.388839966223543,2.5134923105922553,-3.6682520645613295,3.8664224325748364,2.4776139647298123,-7.648553103673066,0.2368338474155962,2.28161150857386
2.34,-0.31150476434936536,-0.3298862423175706,-5.89494784079568,-0.027665440716077683,-0.4620112615274934,-8.007757883910813,-1.9021833615465766,-0.24727203910708795
2.344,-2.034379719691117,-2.1246917129236067,-7.522539137896558,-3.6010197575913026,-2.4191212855534445,-7.352311362290379,-2.4134041984443684,-1.9749581214216505
2.348,-2.1995649105855364,-2.645422391014563,-8.252479504023313,-5.991361749520593,-3.563534531137691,-5.766615907942423,-1.4128045919085253,-2.209742005554631
2.352,-0.9302687019807081,-2.4293428998409468,-8.314367638906674,-6.973200074813235,-4.458389136089295,-3.6888630307705625,0.12124476812584817,-1.1051377515884724
2.356,1.0445164372137015,-2.4104836791729554,-8.333481039960361,-7.006696178478137,-5.661637957442906,-1.7729773163681557,0.9165356400288829,0.5680407379553571
2.36,2.7245385158378213,-3.3622299573660257,-8.942679641681138,-6.945485062079342,-7.340086863808381,-0.6518480156207715,0.17229156005009827,1.963250559410426
2.364,3.2768512488260058,-5.459434024088807,-10.364991924645494,-7.554350910064159,-9.133225716130937,-0.6873581432937499,-1.9427148371177054,2.65128781356168
2.368,2.3787867896006105,-8.17521216072754,-12.207572809080716,-9.085044027004756,-10.33238694221609,-1.8180925138399289,-4.358918634080055,2.7729195979562746
2.372,0.3077641609980333,-10.563779979709864,-13.619989472097473,-11.141267376153792,-10.282556081394887,-3.5762212416321972,-5.706826950290974,2.803804008298698
2.376,-2.1954657338020525,-11.72981897857261,-13.74213750439958,-12.865554023641039,-8.755110800717716,-5.262964443693704,-5.103517884986786,3.121155167487018
2.38,-4.220362860266846,-11.23312790419783,-12.19482469371161,-13.347440449982173,-6.072896397181637,-6.213018717029627,-2.660157974034064,3.680695165613429
2.384,-5.016006889541927,-9.249458638453405,-9.33898844937653,-12.044862620253639,-2.9325280854574203,-6.052201241883608,0.5743832832066573,4.015987745543384
2.388,-4.2491572137681715,-6.435654200108729,-6.136450696862028,-9.016619679921519,-0.03348763791490228,-4.843944575412024,3.1912556783627224,3.5508243611301396
2.392,-2.1143749471525553,-3.623768051489037,-3.68685453848974,-4.887681549739455,2.2393461836044253,-3.0650915750059085,4.17003069093289,2.0123253120081017
2.396,0.7362031346478943,-1.5049794496856066,-2.681842191346675,-0.5773329781158054,3.903105227654123,-1.41847383576237,3.37210928355546,-0.32828756515289115
2.4,3.415596561832217,-0.429452771059573,-3.066643413505062,3.0611454897737076,5.208608009370721,-0.5549280594811989,1.521377383389904,-2.7482940114705343
2.404,5.08842616286563,-0.3811352320202559,-4.107961015909723,5.50884686928373,6.338398901401604,-0.8116441028823829,-0.2852913883821202,-4.442584040955921
2.408,5.248102843137417,-1.0571852109426345,-4.807757208084013,6.678126716135239,7.207024831230683,-2.083614903966918,-1.207454782531272,-4.932323141816141
2.412,3.884015527420388,-1.9963206935871085,-4.444901223253282,6.820589867731201,7.489430897676357,-3.88030263595374,-1.0629797623003014,-4.275495455139435
2.416,1.4741347668505114,-2.714269809426469,-2.950877652269469,6.328799421146755,6.85374923148413,-5.541242520881724,-0.3082442109417798,-2.978282695114558
2.42,-1.2175550332406146,-2.853830282770332,-0.9410247949231234,5.523938099861539,5.21718003795678,-6.520673383010262,0.3323521656094499,-1.6966217190126827
2.424,-3.441817460056086,-2.3394613126329205,0.5894210083755524,4.5319335526057785,2.836991509500649,-6.608453444897123,0.31639406333306397,-0.9207903339902259
2.428,-4.737148955372277,-1.4603241347759877,0.7492900389194119,3.299937377585252,0.1851673787166419,-5.990969665025659,-0.46943793805576206,-0.8217294636538099
2.432,-5.053170751189668,-0.8183704411450208,-0.8349423573766899,1.7152312367602462,-2.3121223154465724,-5.1329394176405,-1.7742034027479576,-1.2985103352914393
2.436,-4.6734035092945305,-1.0937350285324783,-3.850162751039079,-0.23553317966616305,-4.470165429981876,-4.548393174787861,-3.242294108650867,-2.1292542078688257
2.44,-3.990877116370939,-2.691155203044218,-7.426808256529171,-2.3512378475719515,-6.33294045135176,-4.574744785259782,-4.6432126989670905,-3.0853555503415464
2.444,-3.2810987969816097,-5.448220918278139,-10.489945546651484,-4.222023108222402,-7.9674898736992645,-5.252546495936485,-5.905962183599286,-3.9314935532515847
2.448,-2.580124591715048,-8.570361614335638,-12.145271405770359,-5.348801321863903,-9.208713343381987,-6.35852441895463,-6.958949753835668,-4.365198052393907
2.452,-1.769088082950816,-10.9178747996001,-11.969718801437125,-5.353379333466592,-9.585285667162111,-7.553410221526065,-7.5444594277514625,-4.008114144496176
2.456,-0.760995175609537,-11.523597122720503,-10.102215894515894,-4.15591672843459,-8.513731663988096,-8.541787912166683,-7.196292765632052,-2.530131728625747
2.46,0.3507326336444976,-10.080539925309495,-7.130889080535212,-2.0189884914209415,-5.665043244226013,-9.167514824969658,-5.457390826773462,0.12333684294503655
2.464,1.2799437732943488,-7.143296611103324,-3.856851540968364,0.5595331292038281,-1.2859274978701478,-9.40821758651714,-2.2279689816807604,3.5489127294820264
2.468,1.7313939799772697,-3.8774716869939994,-1.010867506446516,3.078852441300114,3.7680613588462393,-9.3038387233114,2.002317799959883,6.908823333326609
2.472,1.6730509461170868,-1.4790990317048909,0.9653622187594237,5.268799933762239,8.344809245732563,-8.885466625151366,6.227103198134273,9.215033750049543
2.476,1.4899934205150203,-0.5718227979955373,2.020456969877614,7.188698377842684,11.510512256414813,-8.168240735686368,9.316598271298062,9.758798018311836
2.48,1.9006948161957098,-0.9066019638974012,2.457035456033168,9.147441658007438,12.98636512060034,-7.196634584760886,10.54938394182932,8.474912524091451
2.484,3.616340982457018,-1.5555737018806894,2.75913652482177,11.46585804045958,13.229925133216966,-6.101102109431622,9.974096272560473,6.01784748029695
2.488,6.88975419191479,-1.4893555449546056,3.3560585800634044,14.20108688231312,13.111200769337074,-5.122599115685716,8.38023711808114,3.467578485517379
2.492,11.222024113128668,-0.21094356663286362,4.417996472207051,16.999826986749213,13.37025797163551,-4.552964639433867,6.8855075177700655,1.8246055199281273
2.496,15.413706146862069,1.9204703003314307,5.772701107922558,19.172482897419513,14.170617451496355,-4.615158433372926,6.361744913853272,1.5501371667776311
2.5,18.002290542324886,3.874937410915095,6.9850242649478105,19.966142066455404,15.012353066677406,-5.34089468077309,7.012376800907987,2.39119365678971
2.504,17.901837782569373,4.523303881603965,7.559150620252581,18.8959240113727,15.04102946365822,-6.520509701560513,8.32116451103957,3.5746478942037356
2.508,14.924312400577492,3.272901970871544,7.177231662702866,15.961312731544467,13.569802011114234,-7.77218757404512,9.38372834878146,4.241905049113257
2.512,9.922758064797563,0.4086564937335879,5.856129096906898,11.647748212956685,10.506953031050216,-8.694574405582898,9.416074917807236,3.886286394654462
2.516,4.471495226455431,-3.033771857797092,3.952657814943791,6.730271956523438,6.453527331029932,-9.02600061050407,8.158511976800128,2.575500632377498
2.52,0.2106969113174273,-5.7831968291120575,2.0052327220817006,1.9832235976825814,2.4197728848082534,-8.74556157914094,5.963467024587544,0.8581157358387372
2.524,-1.832678052943379,-6.949800247620942,0.484029830843383,-2.0537321375768443,-0.6755695854839132,-8.062543787162213,3.551073830066116,-0.5568874826192314
2.528,-1.607411667075553,-6.3865859849673825,-0.40296604542641035,-5.133644701040112,-2.416317319030327,-7.30529377507446,1.6087852532152738,-1.1492900517062026
2.532,0.06523719562324004,-4.650657887642637,-0.7737434737587137,-7.209297013818059,-3.0117477989358576,-6.761494465336455,0.46375260060108303,-0.7895604774378171
2.536,1.9582700388363037,-2.6393955118428494,-0.9852825997101036,-8.309040756549393,-3.0970809299458324,-6.558154301863169,-0.024566397212765878,0.25844619041822625
2.54,3.04259148146366,-1.115181015900589,-1.4429256881040828,-8.46839807219635,-3.3411507168766548,-6.633046028554418,-0.32491973303353916,1.4867189991298346
2.544,2.924969138992765,-0.39108589131558347,-2.411415591449213,-7.762431050049599,-4.0944314846486805,-6.8021861768027065,-0.9466580405339755,2.3443763832713103
2.548,1.9253687523032568,-0.2947272215402563,-3.9041148446425495,-6.394404836778222,-5.2398415396882,-6.88643567686222,-2.1728020146329072,2.391498254101407
2.552,0.8071680715929688,-0.3799761173445404,-5.701961450340036,-4.746004226225523,-6.296985393297405,-6.824511431422252,-3.9360617715283297,1.3732969098539343
2.556,0.3574775581432732,-0.20338882065470898,-7.452882349530228,-3.291758658255958,-6.674644049692802,-6.705932834990563,-5.854642329399667,-0.7435740687706129
2.56,1.0282781233015612,0.4898165721615442,-8.789589202050365,-2.402678234718678,-5.922727852866501,-6.705736130445075,-7.385721812851216,-3.733657981244505
2.564,2.7715565782343674,1.7135589067881938,-9.441186261527491,-2.1734982974451214,-3.8962693185111448,-6.963395851833411,-8.02924808907892,-7.093477547765815
2.568,5.121796054827428,3.3174482760964565,-9.288462428489765,-2.372074237353445,-0.778174814751651,-7.470748379933411,-7.50655676676206,-10.08796829777907
2.572,7.403517307854372,5.064638335865766,-8.397239609859753,-2.5879080001466264,2.975226360672764,-8.05107297666791,-5.883365111712237,-11.911921416813584
2.576,8.932411492531855,6.6517343142900245,-7.035658277629864,-2.5154609686553613,6.716177624229886,-8.45470460239494,-3.604144017655017,-11.963412565758972
2.58,9.14866156266612,7.7023938462193655,-5.653058931664646,-2.1900341232735627,9.709912357466237,-8.513189771983889,-1.4030391941253129,-10.115497149294697
2.584,7.699963980425537,7.803519582201943,-4.790224950410675,-2.0046107034354463,11.282169989211638,-8.252272393258863,-0.07448997185792905,-6.828261207236665
2.588,4.536559324301379,6.654840933850437,-4.8989317153161664,-2.460954108336864,11.020032883464637,-7.885794269710004,-0.15391513411304913,-3.0210808528613597
2.592,0.021866860524596632,4.268356883590286,-6.141258793696352,-3.787952306047373,8.953356031213389,-7.675616503511719,-1.646743168321109,0.26774656018505993
2.596,-5.021799414789257,1.1040331731051083,-8.255435820557977,-5.664798287105441,5.626960005401088,-7.729794178323118,-3.9532023865831434,2.2841964304716385
2.6,-9.407798347354401,-1.9649755283010109,-10.585052079313982,-7.245984872470444,1.9841122723855733,-7.875010113635199,-6.070935763788611,2.826313095322348
2.604,-11.88904455482816,-3.9159106387974134,-12.314961587250764,-7.527411127957748,-0.9493198531588405,-7.7160652669581395,-7.031938201867888,2.2470984383135146
2.608,-11.637079647230621,-3.980028183897957,-12.822598761255676,-5.893382412232313,-2.4531462457744055,-6.875647523961106,-6.3829214893398785,1.1990208269148752
2.612,-8.66058655155507,-1.9912090253556016,-11.97742135939734,-2.527365550650302,-2.3885364604022925,-5.278494501410478,-4.432684059397616,0.2956326321177585
2.616,-3.9425875473068572,1.5072036566978113,-10.210897986083864,1.5653116214680267,-1.2067039296346138,-3.301421390349333,-2.097394952679224,-0.12357990207283365
2.62,0.8408737871418452,5.480791530758552,-8.282334159620405,4.978340351142606,0.3415113311218647,-1.6512258311859114,-0.38861901460404624,-0.007966325981669797
2.624,3.9863581118479487,8.850466154909327,-6.850778616810885,6.582158997694478,1.6401210373624053,-0.9819390214120176,0.19520689149976533,0.5799480382656839
2.628,4.510163821807964,10.947930045342446,-6.086516960594736,6.093258778503923,2.5476906434644206,-1.4699573458869963,0.005311832620009227,1.6456999676729538
2.632,2.587736232434736,11.729481208572906,-5.583688704096176,4.198592086215058,3.417993023969302,-2.6137204458150336,0.05385906949732089,3.2767001835914016
2.636,-0.5463415904728208,11.65469269446612,-4.646099981884845,2.164496576765032,4.782398891062485,-3.4400070723927456,1.349220162283018,5.454191065287432
2.64,-3.214178330001687,11.311766419089054,-2.809513036663475,1.13856356244969,6.870463736797774,-3.054516546396826,4.095539889588963,7.785743726614783
2.644,-4.138905967760138,10.994635077661997,-0.31219157106079365,1.5110145689791352,9.245873255555807,-1.2444849638382038,7.246774662247844,9.385397480579286
2.648,-3.0855323933994896,10.492966695999257,1.8225557609634961,2.6879716947632915,10.827681160632665,1.2203834694932993,8.763982917057092,9.074274123532177
2.652,-0.9488717743558936,9.214539633144796,2.186689494868233,3.405713804111201,10.328630841749145,2.8376777414769094,6.533187609490142,5.884766071542344
2.656,0.7546654010106977,6.577645073753729,-0.29080081588790563,2.4167276845050765,6.91852813919877,2.1019208249508665,-0.4649054409387645,-0.36270619178594643
2.66,0.7132063511185152,2.458527578363828,-5.6720111067584185,-0.8361310799346029,0.7786837652372469,-1.6492475468335215,-11.345624218653938,-8.736052157867562
2.664,-1.462131594786797,-2.561510760112924,-12.774261600357931,-5.904278351451012,-6.7677358228881985,-7.729251502283205,-23.349415608047366,-17.343539237908317
2.668,-4.992384393200155,-7.28482803527686,-19.51905897205802,-11.509592403394436,-13.635020045590409,-14.252757264328466,-32.77035115847366,-23.94831397124881
2.672,-8.310167411212433,-10.325578284013318,-23.748795741335925,-16.12096101748739,-17.729461491473785,-18.913385019354337,-36.400083554843604,-26.785779975176865
2.676,-9.835927443858054,-10.671137945978444,-24.11009508019788,-18.59962929399444,-17.736429091239188,-20.00381522903308,-32.81728572234806,-25.198424355987754
2.68,-8.753827913966461,-8.11397142604801,-20.57693686564653,-18.595626271307992,-13.590563668265759,-17.159010044686056,-22.920563353389753,-19.78642937442146
2.684,-5.400730105891171,-3.371462252120864,-14.390234104419278,-16.552995137411017,-6.453443771157254,-11.449044794428119,-9.490895888513023,-12.04139613249572
2.688,-1.0675957825865225,2.1859820692591256,-7.457298979710458,-13.368481082080052,1.780121752911782,-4.8018214388262095,3.9760477743070624,-3.6804177007788894
2.692,2.6527623768004105,7.059428103319533,-1.5476848876223812,-9.938487311240806,9.193279955598882,0.9070951225621684,14.592530209472898,3.9750301377998767
2.696,4.623447407510639,10.164130867713311,2.3198274567891985,-6.840798275247835,14.468551764914764,4.612507840381113,20.95856149730662,10.285109915639168
2.7,4.678322076247241,11.186517790234348,4.066188923621439,-4.245971783049754,17.207819651145655,6.313005093605625,23.290359332037042,15.18543789182604
2.704,3.63520093589068,10.599296273597702,4.303742044461842,-2.047393783719599,17.866296607003505,6.765798563133103,22.87203271636099,18.848003531881204
2.708,2.8221345600404675,9.365705686150477,3.8707468247487213,-0.07945753935382527,17.398433159356955,6.870573930244973,21.21560342869452,21.35882389964354
2.712,3.368894820941705,8.462167269659858,3.4085454706603286,1.7145349072043246,16.7812270126733,7.145214426888288,19.372218793939737,22.605819374392468
2.716,5.615619552885619,8.439474375914187,3.175468719777882,3.2410200373310545,16.621493077263494,7.571031325545846,17.676730011431573,22.41542995298323
2.72,8.927033251797639,9.224798384987707,3.1161246039353045,4.32501124933151,16.986113462744697,7.817701005832532,15.930440472980536,20.801669916027095
2.724,11.986412561868292,10.226433220357876,3.0500110611471882,4.816296083233738,17.46843117415233,7.6242821597079455,13.789784717243037,18.12897316821727
2.728,13.449858752481077,10.711427630923936,2.8577144305222646,4.7006914059129485,17.466669091828862,7.065260488986496,11.112665671253126,15.08207406370093
2.732,12.621457965531818,10.246666133147528,2.558798533621257,4.155221276070279,16.534355417478537,6.5224694844682745,8.0821560661675,12.456352358919958
2.736,9.80903872411659,8.97439979521073,2.277205350071881,3.525474112875827,14.640589561872503,6.4122693922618055,5.1061970480436685,10.875524586100255
2.74,6.177626818029239,7.570960454767601,2.1538766118028434,3.2185418449610097,12.21641846626585,6.880225810794855,2.6108310120062015,10.584706223504327
2.744,3.1549045638664666,6.874875142820883,2.2610086140321073,3.524129292921998,9.944204831004754,7.681428741501804,0.8523156465821558,11.398189488126718
2.748,1.6849335885710843,7.38582586071243,2.572084839180434,4.429571130270915,8.40175420756259,8.32452372122907,-0.1589781130674055,12.802219706001779
2.7520000000000002,1.7241780420943087,8.899273406884276,2.9721425882485164,5.514215707092262,7.734085852373937,8.380253847910353,-0.6255759145174125,14.155572899715935
2.7560000000000002,2.266259147066876,10.50023613098574,3.290477817536839,6.017229969689424,7.536774638344241,7.735928846067054,-0.8806889734873948,14.889160216955133
2.7600000000000002,1.911887574926368,10.974104371659678,3.3567124815367606,5.119943693964387,7.049174163539874,6.643533828061663,-1.2914556713462844,14.646778612726393
2.7640000000000002,-0.3219683807385536,9.430884245882908,3.0677514311150844,2.3519568933211303,5.57533925931034,5.5486079587476524,-2.1715629170357715,13.355112930981704
2.7680000000000002,-4.365959739042182,5.845080004360852,2.474236493576427,-2.041531760178259,2.9397716885057434,4.827808302445646,-3.682758543096952,11.223951142038004
2.7720000000000002,-9.03537152391391,1.1757676317572532,1.8145630295189221,-7.0183031460233,-0.31318921246406717,4.607751299375195,-5.738752690462661,8.676424154124106
2.7760000000000002,-12.595197531978556,-3.0186587412533754,1.4649793072167085,-11.041635420150214,-3.1022753742809073,4.771077009476812,-7.95994325042966,6.225995871946907
2.7800000000000002,-13.646287227142011,-5.279959713201151,1.8111024986358188,-12.66390560140735,-4.293796331152635,5.114637858744572,-9.727939463598432,4.331700283770715
2.7840000000000003,-11.86760320343933,-4.931475938577478,3.061960839168478,-11.152155559196217,-3.269705021004029,5.521542765242884,-10.378824062269814,3.2698227817013503
2.7880000000000003,-8.17446082293145,-2.3609288441257377,5.120482822650274,-6.8271628873794725,-0.2536862368265247,6.01330514535357,-9.473009688998445,3.0746319900335948
2.7920000000000003,-4.2089854357952845,1.2182579716832151,7.577287015570164,-0.9449684409719339,3.7755131372882715,6.651338561868215,-7.030359469546511,3.568530985988673
2.7960000000000003,-1.4666021189048024,4.371784642498142,9.84377931964741,4.824258459894736,7.529513926638401,7.3727743773133625,-3.6116045323738035,4.453393868441708
2.8000000000000003,-0.5657641638431414,6.075800653346505,11.363527134523338,9.050947548211298,9.973165153279524,7.897595640614782,-0.18757178139958341,5.409930356836412
2.8040000000000003,-1.0815375594022498,6.031831449380434,11.785081302161416,11.006616581606067,10.690163489343377,7.810820110508303,2.174022158687876,6.1601232450730095
2.8080000000000003,-1.9913192321162114,4.560909827097021,11.026394166270393,10.750545340982399,9.890223133112386,6.800355899758415,2.684015697870109,6.48262274419676
2.8120000000000003,-2.437614666958325,2.2029123898719263,9.212395998513557,8.855643234188165,8.092329763331236,4.906101370466331,1.102579163127757,6.206744989391609
2.816,-2.3007783464026943,-0.6625953502980337,6.567312100107074,6.00383217776789,5.728310862994931,2.5993352508207863,-2.1947518237484474,5.23614124991218
2.82,-2.1923277994892487,-3.9049224714149204,3.358480839603544,2.7217036560471115,2.9398927657980494,0.6185892401554156,-6.366885870194892,3.619311657853814
2.824,-2.9055788278708405,-7.4301393242960785,-0.08361596683812422,-0.6411258596115204,-0.33046453394331365,-0.36336485879201064,-10.402945978372372,1.6199315740318525
2.828,-4.693499639395895,-10.85632890439797,-3.3020555650521146,-3.7579706849965078,-4.032316431594381,-0.075425938661283,-13.44465722853056,-0.2899072887453258
2.832,-6.87893610481683,-13.394642371852797,-5.7294183836097545,-6.210594611949773,-7.753452526807678,1.206938370865828,-15.01493743189576,-1.5665454248874084
2.836,-8.10746277347448,-14.106184402805184,-6.83992604298578,-7.573251149888165,-10.738324544319084,2.795475129157694,-15.087413135652696,-1.832566073794169
2.84,-7.123803696360255,-12.42475228563444,-6.384811708176585,-7.6666541991380655,-12.201784057525515,3.9303315330425903,-14.001787985228702,-1.093070089417779
2.844,-3.6020119738083736,-8.63699673996939,-4.585900413959109,-6.801012327159924,-11.774303238320044,4.13758718273175,-12.280432738284503,0.20811176342135695
2.848,1.4922677103760407,-3.9662391500046397,-2.119178728449242,-5.7823080589344045,-9.783326869737323,3.409203196110184,-10.418359159117585,1.3471649889793298
2.852,6.257208181819578,-0.1425399966326495,0.13660721051496694,-5.609469667955409,-7.17882689393582,2.1183019319837513,-8.730497521119105,1.6456892542812511
2.856,8.775743720432502,1.3834096333328034,1.49756530880245,-6.981352036100361,-5.100471573544269,0.7389610000673201,-7.305175165559831,0.7974060000001373
2.86,8.084897404273306,0.16707961733345655,1.8013483693549688,-9.899364070201045,-4.32105152886345,-0.44976360439204655,-6.07777208597463,-0.991141110109993
2.864,4.61865657825615,-3.0033463347127736,1.445024846203978,-13.64217116031432,-4.901204440230117,-1.5016021705741878,-4.980025727277507,-3.124590626893678
2.868,-0.07544635147473855,-6.4963981354302405,1.109431114979543,-17.13028092086438,-6.231452216548519,-2.7096230931717855,-4.072426597302865,-4.934229599237369
2.872,-4.185094031094877,-8.66777991369122,1.3051911278956823,-19.49304476071393,-7.4489284502991495,-4.348687998163996,-3.593375644393973,-6.0036911244501425
2.876,-6.541804274902006,-8.675418815522903,2.026384738270849,-20.493767922418783,-7.965930705781602,-6.428106844618014,-3.8795324960478865,-6.3284562080038995
2.88,-7.077513753375456,-6.824215520583834,2.7421397697581824,-20.543146206809524,-7.78331607307814,-8.602867223029762,-5.176145238994877,-6.2252882406658046
2.884,-6.6209926273211295,-4.283907341730469,2.7353518159220584,-20.303238773144813,-7.420950562492635,-10.306350278227,-7.433735794219274,-6.070106024513279
2.888,-6.218660747168769,-2.354379508373313,1.6102097786759941,-20.13586728954897,-7.50178121892759,-11.026202875516901,-10.201987020852584,-6.040619738241048
2.892,-6.434729293057558,-1.7278503804749334,-0.3593459896666218,-19.777041792184946,-8.273679211792683,-10.561930726728633,-12.711677606357398,-6.016939698247825
2.896,-7.056479132412051,-2.1706311804887264,-2.2740835032589075,-18.473362717755663,-9.377105949428596,-9.127970665862449,-14.136871487388362,-5.697377493443128
2.9,-7.322757863169954,-2.762104354525036,-3.043730798891147,-15.506066428564964,-9.996783140019602,-7.234767061915363,-13.918928602900223,-4.8230864130584905
2.904,-6.49861425638835,-2.53505497942308,-1.9848739423150619,-10.790270486083045,-9.330167121045747,-5.4308875467331745,-11.99815904231923,-3.357967268977518
2.908,-4.41548595529116,-1.1106852931836784,0.7634696298823656,-5.156549464075624,-7.093002971146234,-4.065847173998463,-8.846276095998519,-1.5222750735442787
2.912,-1.6243516114681142,1.046557822513023,4.250564809948742,-0.0996511393768742,-3.761197778291262,-3.180142343885109,-5.264528858265976,0.34935117370287117
2.916,0.8950916012012158,2.8908387187914286,7.162077263988522,2.891639763857711,-0.39313146851282,-2.573962402510915,-2.043461182913461,2.010032593957021
2.92,2.257214992080094,3.4028612573855526,8.455745215198476,3.0546234051480496,1.8751024379110959,-2.003171242096869,0.33820914833677307,3.414771769583922
2.924,2.1259511927841004,2.1798030201982783,7.831042722622215,0.7195596813921838,2.381313215979617,-1.358598699434424,1.8412766281642234,4.67826096693193
2.928,0.8577787518036075,-0.3056188102134456,5.806613825318436,-2.8681306854498416,1.2529983473724542,-0.721689553838587,2.7774480517316533,5.908548633503187
2.932,-0.7372117832121603,-2.9373235074708646,3.371788143502954,-6.180221150673901,-0.6957615369417454,-0.28586146679162994,3.5663060768915784,7.040478348245642
2.936,-1.8393787188430224,-4.528816773265476,1.4441314080635266,-8.130574760802574,-2.41247427962287,-0.20687305019646374,4.484144180263684,7.787225415692319
2.94,-1.9948620410372087,-4.401900524968141,0.4525255388067535,-8.498831434689464,-3.1376909567761686,-0.49218381460468663,5.547544404446171,7.767443556474063
2.944,-1.2544733607466014,-2.691274088389946,0.23679143436527283,-7.868382965456476,-2.756538909758774,-0.9923668048811578,6.574728023153966,6.744983553593784
2.948,-0.04142359094362291,-0.2218270075984492,0.2877466476692234,-7.163457647224277,-1.7884721186184152,-1.5016955946894086,7.35250871437654,4.826917377515883
2.952,1.1158018151295437,1.922751899754985,0.11855970469753174,-7.103995598450865,-1.067307564819771,-1.8918575179257004,7.781207998663604,2.492044691991623
2.956,1.8213309819025199,2.9000225075566277,-0.4607336373449016,-7.883243924582985,-1.2900624820183566,-2.179613526437379,7.904200078731037,0.4253272199644016
2.96,1.9255111220481922,2.4462234422891243,-1.3033399690016267,-9.197145338738437,-2.6651379077343336,-2.4825035825326722,7.812006750610976,-0.7635889340983795
2.964,1.4664449837131315,0.8779905610772403,-2.1231621841864126,-10.564124386296726,-4.850833249662514,-2.891824278949798,7.4955181470913885,-0.7963074637832506
2.968,0.5451631622336208,-1.161679843253296,-2.739229803896592,-11.672565802746362,-7.163665486814978,-3.351028764020157,6.777745977364361,0.17798695150372623
2.972,-0.7630715268198855,-3.0466852819013184,-3.1974525543749905,-12.531526700752693,-8.934425822450521,-3.6267097477297057,5.395394335264655,1.6949673088913642
2.976,-2.4242793974502774,-4.428984855164458,-3.6948139986018873,-13.361254834118427,-9.824857767174251,-3.4091805586122064,3.2032678291973298,3.219583006748735
2.98,-4.401920690002044,-5.308040925333728,-4.37447460444838,-14.343031336412423,-9.953026161037542,-2.493879627779961,0.3629133052239695,4.383228077926333
2.984,-6.594131041078015,-5.929476611020618,-5.161765365190263,-15.422200382535152,-9.80293512444996,-0.9282291834490479,-2.6246905369871456,5.098299073434873
2.988,-8.800706025867044,-6.591499994573667,-5.7553339370368235,-16.296689164015675,-9.9700005829244,0.9695089354255515,-5.078925356989998,5.496238779517853
2.992,-10.74458236985447,-7.482677212123576,-5.795759028990233,-16.5976655015686,-10.877956832112773,2.7332103780980788,-6.4395368494257355,5.748317607509193
2.996,-12.133899632827024,-8.617971649995923,-5.099773254236027,-16.12641729007521,-12.591201673651199,3.953810837430865,-6.543400427393408,5.88374516282272
3.0,-12.737429876246892,-9.853668934465702,-3.7857906672318222,-14.975649442065333,-14.772151626001005,4.45236241962175,-5.696304083766222,5.727348263169347
3.004,-12.44480697142393,-10.953812981078443,-2.220630854584897,-13.453913970882013,-16.79752852762124,4.331478489631763,-4.495342255799187,5.006850847229316
3.008,-11.287203742638667,-11.644408035589663,-0.8052878314924214,-11.861317985770029,-17.967439380399128,3.88595809611445,-3.4840204031610256,3.566980925189114
3.012,-9.428951784951948,-11.665195721675161,0.24472534043877658,-10.285119673185932,-17.753470747156882,3.430279831932694,-2.8486124153331502,1.5515654616498296
3.016,-7.129217627161609,-10.83299670534251,0.9798928196737506,-8.557964594643693,-16.00795110479828,3.1452527113098085,-2.3425430292224974,-0.5692321821520636
