Timestamp,O1,Oz,O2,PO3,PO4,TP7,TP8,Fz
0.0,3.922195901395753e-12,4.206412995699793e-12,-6.821210263296962e-13,1.1937117960769683e-12,3.0127011996228248e-12,-2.1600499167107046e-12,-3.410605131648481e-13,3.296918293926865e-12
0.004,11.933391953379157,32.84554598387632,27.66023745843006,17.99114669802293,29.82087626070893,-3.0716843930517825,8.208226843450234,-1.0944678043856584
0.008,18.789065983695764,54.799557654836065,45.44051164829233,29.135703607701714,48.494537406384836,-6.223189407798486,11.493977646676626,-4.2407578147712
0.012,17.931457788657895,59.89913324135961,47.97975889705799,29.59903378574279,50.004213997779345,-9.708519643901809,7.229590618310681,-10.328040924765673
0.016,10.341601765847201,49.56545777416261,36.683429197615794,20.126384589915858,36.015911370276285,-13.883346884554612,-3.7210777197294647,-18.524848233381135
0.02,-0.04333195240729992,31.434612421058716,18.643941251914384,5.4604500751664204,14.650905645939474,-18.856197989386374,-17.46412213869303,-26.603223790890183
0.024,-8.414184928594807,15.293090558340907,2.9082154438846146,-8.018642600477847,-3.7596528867931056,-24.105556801984108,-28.907348435686515,-31.954919335122668
0.028,-11.429469759654864,8.365115381009218,-3.8483572576653273,-15.173748812901351,-11.600332982881184,-28.395941464727343,-34.01652238005636,-32.7706726288377
0.032,-8.57026184834234,12.400328626461771,0.003595889428765986,-14.07636299141609,-7.027160049941585,-30.180941092362104,-31.39201861231834,-28.788605050551496
0.036000000000000004,-1.889657713137126,23.859594727377328,11.19891368064691,-6.214767631532538,6.200895133099209,-28.36450067916826,-22.483375357117097,-21.274233117475433
0.04,5.53745870690102,36.72079394676359,24.12197001109604,4.903796028061663,21.6306297668728,-22.98823627884576,-10.494286143203794,-12.310268199196798
0.044,11.419371389027447,46.00502539252642,34.025273016268045,15.76418324502663,33.808420375846,-15.401986337766175,1.2929737548054732,-3.831243981413195
0.048,15.26801003996502,50.045235291359404,39.12669754708844,24.3427759021082,40.69040758695357,-7.759201205438899,10.860468473030096,3.076344928117237
0.052000000000000005,18.161423323013025,50.48684875351529,40.66942281832286,30.433040443565346,43.69539328077701,-2.074597940006015,17.854139981562412,8.3097751435065
0.056,21.543741898557357,50.40716835373212,41.283756542365836,34.877750007484906,45.78203390412378,0.6346813264675575,23.012911186924384,12.345189686708864
0.06,25.93569080086843,51.9785615522633,42.9234939441925,38.416053972299096,49.03016990323539,0.652342783823201,27.142046312048706,15.638607259270316
0.064,30.35732615410768,55.08757583532369,45.642545042640336,40.91640278230079,53.2248995846052,-0.8280065812930388,30.328818673549335,18.24124524079423
0.068,32.831810408183856,57.63967477715141,47.82659790397429,41.45708993525295,56.193897052512625,-2.492920197518231,31.870036160496227,19.843600129779702
0.07200000000000001,31.605890837985953,57.155665421657346,47.52336738639303,39.09500278524433,55.4748603732684,-3.6060572230391017,30.864887390821877,20.135130574360346
0.076,26.30576690570416,52.54748483515459,43.911217280081445,33.74088961779529,50.137147779636365,-4.22159168785214,27.043020903019112,19.174864678208223
0.08,18.33566878008341,44.95436087416101,37.94662499775862,26.537019201519172,41.58147012143499,-4.852167664393335,21.252194036256867,17.48740137037879
0.084,10.240016270374781,37.111714946040934,31.797471939285572,19.433160904108092,32.80506430871128,-5.892521924452126,15.241872408531435,15.77446965772316
0.088,4.411009045391722,31.75565170710979,27.530119487349907,14.22863197801388,26.692133862368024,-7.232408913464894,10.863929486254904,14.431554361293934
0.092,1.9207611881345485,30.114086540125868,25.93944663783975,11.688265478228061,24.4463296388397,-8.32751992007195,9.153317903482673,13.193854214281771
0.096,2.1257647494877006,31.385504071087382,26.24538282009331,11.272242470858657,25.11162863135158,-8.651782014519881,9.825094041287059,11.188397181868254
0.1,3.2336021930731818,33.4488882513933,26.772843649172643,11.623014000112846,26.399814830020546,-8.168493297058319,11.47021997706247,7.421944725827416
0.10400000000000001,3.4187529968326373,34.218241495310025,26.0614381857514,11.454314828548661,26.179574087364955,-7.448545536531526,12.32064355835871,1.4439800740487954
0.108,1.8338116641841395,32.815297509422265,23.715366914557336,10.306896005797682,23.71059430468702,-7.3113863674682875,11.154887999488608,-6.203652336764321
0.112,-1.0239367488551636,29.925040192878953,20.53908026922349,8.747054997503795,19.949761561500054,-8.229083495414727,7.860527433941343,-14.050058962694209
0.116,-3.722156678254578,27.24019424242573,17.982260866102138,7.949952077928373,16.86866579660051,-9.912745699156176,3.403642377291874,-20.263390082700425
0.12,-4.788520652586897,26.402760627390848,17.294313434293286,8.936197632375581,16.27923915845244,-11.40440480727051,-0.7293056732115133,-23.443888129506092
0.124,-3.5842565451320922,28.01765340194359,18.84965459893661,11.890313634521902,18.821061374479285,-11.667259219035088,-3.2955559094338582,-23.22258753010715
0.128,-0.6516353315208789,31.313756297787876,22.019795743000685,15.978835744049718,23.68088653463073,-10.306368133198362,-3.835985947723543,-20.338090172898944
0.132,2.604887896398651,34.586020166541005,25.57784802716256,19.726252554053303,29.101049427269515,-7.959363304672991,-2.7541291142106274,-16.203525838597443
0.136,4.658520826239396,36.09722127492745,28.3238408983529,21.698911478455898,33.27574523413159,-6.093451033728229,-0.9895492643022976,-12.242784169873005
0.14,4.58210752250281,34.92702368164257,29.57357433423374,21.1175619938644,35.10193436262642,-6.268927521438172,0.4973344343658823,-9.351060316247924
0.14400000000000002,2.359083911285211,31.280165435812762,29.240422495047994,18.055802429814605,34.363085116192764,-9.270126489556617,1.1323690726493396,-7.744427665988383
0.148,-1.30180122667565,26.203821183809623,27.607216921779013,13.213111531230311,31.41985892647446,-14.610884153278562,0.8590598651620667,-7.1808262123430495
0.152,-5.449359608644613,20.99442133405347,25.060334862879245,7.489524735554426,26.779967714986356,-20.704707250235344,0.016500338603805176,-7.333562610284048
0.156,-9.336190286393332,16.663262680158653,21.985746188261146,1.6551114148614374,20.892078648657645,-25.59862396845358,-0.9181514791536642,-8.035133940146977
0.16,-12.582871132630316,13.719269643323457,18.843403377188054,-3.7167090196945765,14.268783441080643,-27.85910933190155,-1.5659098285112236,-9.235707737519192
0.164,-15.070390780573746,12.225792823988968,16.224589415573234,-8.133447275665162,7.701321274615907,-27.157027902901973,-1.769137863519461,-10.775257240274527
0.168,-16.69962014115322,12.017734910989304,14.76206232871516,-11.041001836766725,2.313198180496471,-24.269861668985413,-1.5900574526440892,-12.174830595554113
0.17200000000000001,-17.22652212865512,12.911417640219327,14.883764823887986,-11.817246672380804,-0.6963030968839803,-20.577212183222287,-1.2350674104910695,-12.69449907097487
0.176,-16.32527816150963,14.771813411686026,16.5340305988654,-9.976995636087736,-0.5542351960681344,-17.393840304094397,-0.9699000781844234,-11.723621850213135
0.18,-13.843906107563384,17.444232824704898,19.06703706680679,-5.4797792298668355,2.6336744888745898,-15.478895353907546,-1.0501616746554419,-9.280251074091893
0.184,-10.078352478261024,20.61310926502557,21.41033278099269,1.061846122601196,7.754022838626895,-14.886976937885947,-1.663735700085681,-6.265832685544979
0.188,-5.82889670106897,23.757417883020764,22.489298460511577,8.452474449058741,13.047635221778592,-15.135645503390037,-2.892268581124654,-4.2355530094732785
0.192,-2.1336667722328,26.309733834261408,21.74512423907737,15.293616848140573,16.857733745822202,-15.52263756379898,-4.676666535508389,-4.731549096477352
0.196,0.20392894364732683,27.944627058304377,19.4739163131635,20.512209456663754,18.397327757216544,-15.397662012431397,-6.8054987163059195,-8.488496702926682
0.2,1.0373040331181755,28.805223765087874,16.76557500235117,23.754238421097853,18.117868975617114,-14.302368287467402,-8.946076255076036,-14.914458240819727
0.20400000000000001,0.9536090733494689,29.41881975471665,14.972705516960332,25.38276047994964,17.3859863258549,-12.054412945464037,-10.739974200211577,-22.196962393299714
0.20800000000000002,0.9357879336154724,30.333840033430306,14.985590628952195,26.09490453964952,17.64942659133601,-8.80258555795126,-11.931268826062137,-28.027692371683088
0.212,1.7773299507333604,31.69202844307148,16.72656589448053,26.383749822345862,19.574975874353584,-5.060453159482563,-12.463184148698474,-30.61804964719613
0.216,3.5801917600024353,33.01159382930774,19.158218024944972,26.168508938416608,22.6448616745688,-1.6650359899454088,-12.500587385606764,-29.510399052531625
0.22,5.634815000821391,33.364602758415856,20.82940576568251,24.821555765882522,25.445855816676215,0.42906514687115305,-12.354602821849426,-25.741389694378995
0.224,6.745221739404428,31.837046447247758,20.633180205369968,21.55642218838875,26.439011644852087,0.5042261227481504,-12.331889346346657,-21.271745023659832
0.228,5.855242385626639,28.068152129892155,18.384792194329975,15.97803787693374,24.803444556848035,-1.5605046901707738,-12.567658878854104,-17.97946443380249
0.232,2.654021831572095,22.582415216714708,14.91516873519896,8.49654525162839,20.900854000333425,-5.1311175187688605,-12.932722716539615,-16.734564974173395
0.23600000000000002,-2.21066957839912,16.632659948900823,11.579225165213984,0.3125143796117982,16.040958271779118,-9.024538257568565,-13.076570089071652,-17.04750879579251
0.24,-7.417495359454165,11.641023080448008,9.488834695464448,-7.012199426983329,11.72288640326633,-12.017694421280567,-12.597646907502849,-17.449049333175935
0.244,-11.589429637215062,8.53211482297877,8.899690211965094,-12.173969458893453,8.791823694036452,-13.41364256978568,-11.293690472628214,-16.38920948211853
0.248,-13.900043240169794,7.313722363120519,9.097242753221963,-14.619941698623848,6.986686771587358,-13.349834876494924,-9.3592046005042,-13.1512205975705
0.252,-14.357029772393503,7.123510763819127,8.83120777141744,-14.671151148935223,5.12552018949259,-12.664271418984754,-7.411531166560849,-8.275559338481571
0.256,-13.62232629900268,6.742928466280432,7.0676314455105285,-13.217765456492884,1.845046173238302,-12.382188359398697,-6.281076640890433,-3.277659601229516
0.26,-12.485198162837719,5.354948900058162,3.681100058834886,-11.146215358763811,-3.4577423182869325,-13.107656035999526,-6.607786787265354,0.15884932882318026
0.264,-11.325030088877611,3.117093911858433,-0.3102946338582342,-8.825922605748588,-10.011998583562217,-14.657302495662861,-8.440002903388176,1.0573952436200216
0.268,-9.904065016300706,1.1969020075027856,-3.130425336713074,-5.947211066199884,-15.763836452608416,-16.158040697756633,-11.05597576462742,-0.3773394699385335
0.272,-7.596127192623612,1.214261696523863,-3.074300903622202,-1.7940469852575234,-18.180165245011267,-16.5453051038769,-13.140240455930325,-2.902703535831506
0.276,-3.889579301542426,4.3999792313725266,0.6812593742624813,4.223919910408881,-15.360288271150466,-15.148131426697773,-13.27563231667159,-4.870408208334993
0.28,1.1582906552673649,10.950072930027659,7.71807469275825,12.096579288017438,-6.885504116081734,-12.04915494289412,-10.558281423213202,-5.004090305646287
0.28400000000000003,6.802870514300707,19.886914747055584,16.60811604989317,21.03448413763317,5.969332186384236,-8.03608942780329,-5.043447247974882,-2.9323811397903228
0.28800000000000003,11.89907281785986,29.455049281168954,25.561630598923443,29.672159484599206,20.711610950123486,-4.1937689790674995,2.2074011435265675,0.7846209062456637
0.292,15.400803656535231,37.7869707708569,33.09348823691255,36.518316876661174,34.5049130842674,-1.3792649793022065,9.515139679450158,5.090861076063447
0.296,16.765911929164986,43.48921825631214,38.376139460947684,40.39902809684918,45.024849553748254,0.10698443593719276,15.224423189538811,9.001345572741684
0.3,16.076817239180855,45.95662748457926,41.22177945888973,40.744390480197126,51.009656015217615,0.5115921140070441,18.312960837368564,11.979391905387956
0.304,13.851914131046783,45.35703441197711,41.823232085631275,37.64987240306414,52.37080504840412,0.35322574666633955,18.686044328882417,13.981556816294415
0.308,10.704710735418303,42.38652672829767,40.48230483602981,31.759517431008135,49.92715219401589,0.10021428124696286,17.058732630323675,15.257407355061105
0.312,7.065532272227188,37.94696067376776,37.47747868933902,24.0550514307306,44.92755337306244,-0.00572598116559675,14.527937622980517,16.086252281616225
0.316,3.126573661693101,32.902992531905625,33.10774970256011,15.650148247775405,38.59229622325779,0.09391219512576754,12.077442406936598,16.6522415262948
0.32,-0.9784788439725389,28.009794770925964,27.83918327335607,7.652536726041717,31.86301459589947,0.42437569070534664,10.270424662245205,17.103972055361282
0.324,-4.970130826810532,23.902927724717415,22.359994275855456,1.0357243180194473,25.341276031007965,1.0496549125371075,9.215318002684853,17.657749354607404
0.328,-8.390417598049567,21.025992658301334,17.41321430848666,-3.530373560570979,19.31026196773462,1.9947218936865738,8.724710860320556,18.591706417041223
0.332,-10.77230714109237,19.476526893500022,13.478523739481375,-5.8481792955703895,13.775382836522226,3.1048582601961243,8.521205982589663,20.089739770582582
0.336,-11.919173698445547,18.877585674348666,10.524803179013134,-6.2604949866017705,8.533575496189542,3.9793140799170033,8.35664111095366,22.025171099067848
0.34,-12.04621806849002,18.481261424995182,8.069000747702944,-5.499500626256349,3.3488739047681975,4.098127979712672,8.02539880148106,23.85241463148668
0.34400000000000003,-11.62702510383167,17.547625788363575,5.57233157452572,-4.314340423769181,-1.7683476118618273,3.127874045867884,7.361084069183562,24.76026415124329
0.34800000000000003,-11.036059914525254,15.81226886110187,2.939796005305311,-3.0385304164335594,-6.32082114415789,1.229657993083947,6.294502626861004,24.067001044879817
0.352,-10.237264677784538,13.742865755343473,0.7684471838452964,-1.3648176507412018,-9.314411455189543,-0.8584771071411978,4.965930575378252,21.64235254688583
0.356,-8.758947836145467,12.387279485915315,0.13753025521816653,1.4951701611073531,-9.569136368023237,-2.0943917191636956,3.7940443007646536,18.073552329868335
0.36,-5.995339749812274,12.883663277345704,2.050134926969804,6.333201319760292,-6.221456038578253,-1.6574122659781096,3.409938278508889,14.431511611693622
0.364,-1.6790816451750743,15.857604514990499,6.810665304174336,13.378297470227835,0.7953580463687331,0.5579497941635054,4.422727725780533,11.745678251731078
0.368,3.763093153089244,21.009952619672617,13.686152677270798,21.941409112387873,10.526215622811492,3.777350301550996,7.089550755463506,10.47578803171109
0.372,9.235352894432253,27.127773039011004,21.075316389976706,30.50131384791507,21.17572046959151,6.662320179942526,11.070058111735534,10.305096385737215
0.376,13.426164052774993,32.55527596971092,27.155766017572773,37.244235756083526,30.6777253431693,7.960838883011547,15.45903729614588,10.409088993061914
0.38,15.460236862784313,35.930222354628086,30.705019401185837,40.8131520937859,37.4442146340391,7.133310711100421,19.125685754521328,10.038754634647603
0.384,15.355787398033044,36.79108431530881,31.64941766741981,40.87262479974629,40.93379921986002,4.610113566630616,21.2108603081615,9.050034117311498
0.388,13.972585088673895,35.69480287880435,31.00770183225518,38.164147807201516,41.73167858745637,1.5353674101218076,21.511669032558302,8.037087550195338
0.392,12.452601219256849,33.770963756261835,30.22745351794174,34.009843651324445,41.078178545280366,-0.8497718731316581,20.52971122976487,7.971772011389021
0.396,11.493508070162079,31.99326808371893,30.28904528664316,29.557360252392755,40.107653644912375,-1.8230701647667047,19.15538660571383,9.566336916685032
0.4,10.890864641981125,30.61825111848475,31.114165817630465,25.20449518587884,39.23208104329194,-1.4596569287728016,18.162030236087503,12.748275879804169
0.404,9.660532608332005,29.115488444359357,31.606675524143384,20.528091651446402,37.98207469626527,-0.4472275798530063,17.79130886332223,16.57907746829278
0.40800000000000003,6.711449632151471,26.62365127409737,30.307549656360152,14.762062336071267,35.375207570982184,0.42951411168587583,17.67182106600353,19.714903090380176
0.41200000000000003,1.6345602769795278,22.601084918228594,26.265557538132725,7.501742590606682,30.559976167890227,0.789844545021424,17.096941379936652,21.14238093694894
0.41600000000000004,-4.88078336635067,17.265135420896513,19.61655881902493,-0.7972673168831079,23.355982089231816,0.8385996252118275,15.481471170521672,20.731265259464635
0.42,-11.258840082014558,11.597086388254183,11.58594881038971,-8.807691891158811,14.442896546633847,1.1392168536140161,12.728856555650964,19.26803288250494
0.424,-15.762114501841324,6.925032645528972,3.9525633065607053,-14.816823985347355,5.143941701157928,2.1494665129757777,9.324647087431913,17.951342461222794
0.428,-17.33827967805928,4.307275396174191,-1.7347016653234277,-17.47002779430659,-3.0686644759206274,3.8333540844005256,6.103375031770611,17.632968723420618
0.432,-16.11413805999291,4.052964945960412,-4.757691961762703,-16.378187388349033,-9.079236499407898,5.613577032667308,3.8448273335955037,18.283242216031795
0.436,-13.244511074000911,5.656069528157786,-5.326484966695034,-12.260806622071414,-12.380952795858548,6.694699981710983,2.958003647675696,19.01413166119164
0.44,-10.22249700039606,8.176022549356958,-4.164723947852508,-6.565095218275246,-12.988688218722928,6.540194391426667,3.397429463955632,18.634171681446787
0.444,-8.080812862687026,10.792420998791386,-1.9160949744357367,-0.8081054734293502,-11.177661110353483,5.200634854612872,4.797379465300992,16.387869622419203
0.448,-6.94786445426962,13.182492944203432,1.218555191097721,3.9965340438575367,-7.282272790602747,3.301003210636736,6.704416006488373,12.442011158513196
0.452,-6.1788435021644545,15.4971285685358,5.369904922865999,7.556791052895505,-1.710207412827799,1.6940698564353625,8.743301847706334,7.836953059217194
0.456,-4.918083949616857,18.008500405935365,10.539025934799156,10.137383519763489,4.903733949291791,1.0031035674142004,10.647486318643132,3.945754927947746
0.46,-2.668996964285725,20.76529254477032,16.20109442320222,12.228669068869749,11.6591169151734,1.343293138230365,12.233354540715027,1.791408952697111
0.464,0.47219308207104405,23.501313980565556,21.306518162294196,14.259823349681255,17.600037052425932,2.361777219898613,13.408499481369063,1.6248783466353416
0.468,4.0383229010383275,25.863358576999417,24.750353052730816,16.497045637789142,22.12988686263941,3.550009041297926,14.259579838121908,3.0041582765202293
0.47200000000000003,7.616316690635131,27.726534712399598,26.00851987547685,19.056397384905495,25.345410342322452,4.604655726414421,15.140980686634748,5.256040536858563
0.47600000000000003,11.10098995796261,29.306903688740476,25.492282297725524,21.886670145188873,27.992998289012007,5.586095706100423,16.62421397503249,7.967540566845855
0.48,14.587473483370331,30.971292401103938,24.356278758998087,24.676643961622858,30.99318850223426,6.776825357191683,19.242053058678266,11.155544080257187
0.484,17.969541937488657,32.814716743404915,23.790675351184973,26.737660406146915,34.71580605959025,8.353078047957752,23.09808537353115,15.004834725551518
0.488,20.573838879049617,34.30429834129609,24.206450890678752,27.029801070609665,38.44101327725707,10.112853586642359,27.57488087592037,19.403289800507082
0.492,21.17301302722808,34.282179610522235,24.82053179100285,24.44628154048769,40.384986649304096,11.46344884049222,31.37052950905195,23.635141212769668
0.496,18.51662934609226,31.45406757922342,23.97917608953435,18.33534523179037,38.42775059451435,11.721126096105763,32.96831522774892,26.53671562081354
0.5,12.147615129776113,25.199722607891772,20.142411275143786,9.054868212688234,31.287545481014035,10.544328505836802,31.38529582659112,27.09594265163605
0.504,3.003885901345484,16.237171514080956,12.985550123032226,-1.7868692941090103,19.529665972759403,8.21582147189929,26.805869891218435,25.14464463719196
0.508,-6.638470380522222,6.6777342107660616,3.9389137406835744,-11.654661104145134,5.79064593869623,5.576492750065427,20.711553737344502,21.67620104159323
0.512,-13.992204728487422,-0.7064525427269928,-4.251224737231723,-17.952805913261955,-6.0550067569184876,3.6299118240872303,15.350609023879315,18.51132738684555
0.516,-16.970827655866742,-3.6858453528872133,-8.760218895451544,-19.06265476651288,-12.448925796239678,3.035368545959045,12.765582427613253,17.428970396971863
0.52,-15.114714681003989,-1.5812087712131415,-8.033174479846934,-15.0158610302326,-11.634632360745513,3.7805224780358913,13.867673226783154,19.224428709235553
0.524,-9.722642107529055,4.457730207197301,-2.5150591086833174,-7.451169841421233,-4.343131174189807,5.22192050672561,18.053410788031897,23.22637699535835
0.528,-3.113320725792164,12.045948189404953,5.620752746629478,1.1335780059316676,6.6399548106830935,6.474332464796817,23.55002420443111,27.579149474711812
0.532,2.5603763708629685,18.69608804544623,13.57062936203431,8.454054716552491,17.76793260093484,6.921844718452576,28.308436460625444,30.177085481879658
0.536,6.271968038485056,22.865606001052015,19.179222419532948,13.283737057992084,26.189307885063727,6.541329584544883,30.93315261404632,29.733291165990067
0.54,8.362669605421388,24.416483200577204,21.742265491102785,15.700427408947462,30.68830299992726,5.863561927886167,31.16222076171539,26.38801894165772
0.544,9.972439903761938,24.305865947703523,21.96606139375649,16.686166782526016,31.741060680564715,5.602015453458989,29.71427922492626,21.54966807523715
0.548,12.066855590514024,23.768671928123695,21.204547042859076,17.36700827417053,30.79696145161904,6.182096307538359,27.65911133971531,17.06494176108481
0.552,14.68236469502483,23.51694338957134,20.519085831165057,18.348270400070987,29.30146924574865,7.467375967308271,25.755061389654884,14.22692869723096
0.556,16.86365053112945,23.42503565759091,20.14732756696651,19.49113092410562,28.026837991910725,8.846884292945106,24.15260499539545,13.183118179641724
0.56,17.319450259567134,22.864341456548118,19.660110359259193,20.20065951979518,27.025458433352014,9.622465537504922,22.593663439514785,13.043427137804201
0.5640000000000001,15.353901612208233,21.390908516095806,18.59836248238753,19.958365562200242,26.059909318158816,9.45721686704178,20.893286219326228,12.577932346233183
0.5680000000000001,11.464174115175751,19.266107116350554,17.060166089323957,18.71369932592279,25.07126184366757,8.606516240202382,19.29153688163342,11.061509545892022
0.5720000000000001,7.2079588767849145,17.42659615849925,15.779270605133206,16.899214997488116,24.30366585093509,7.80155034751192,18.403097158912942,8.771718015342458
0.5760000000000001,4.3845614743210035,16.887737439543343,15.605809449927506,15.083013402566166,23.986540231339177,7.849074667175955,18.79376288349181,6.8407433800496165
0.58,4.022066642150548,17.998244802235604,16.770991755032014,13.536646524570642,23.876005433739465,9.172819171114043,20.47154970881843,6.56531089220789
0.584,5.7668771093669875,20.034782783198352,18.456675112567268,12.022983688339764,23.042446938774788,11.554387130341638,22.66569759471281,8.585780276379637
0.588,8.034421699407972,21.42564082676438,19.016479813040405,9.941942304727945,20.144777013396492,14.221643027364962,24.085451462752644,12.389818257710886
0.592,8.84168748455545,20.511702755531246,16.786031336569977,6.746663496941437,14.108507114393547,16.22686998609811,23.540938905198573,16.425639883344274
0.596,6.856046744087621,16.429517107129982,11.037606453412991,2.3665364166524796,4.835961803800728,16.90214453100225,20.55712445296672,18.76360856762517
0.6,2.122461234764387,9.675149505995591,2.5708267399033957,-2.589947746721009,-6.428234043564203,16.15689049935122,15.640441671974486,17.980508896539277
0.604,-3.8971435210862637,2.04429710178556,-6.405707342896449,-6.95660268057668,-17.312055128405177,14.479325941981187,10.072980343166819,13.854868675520493
0.608,-8.979117386276243,-4.049189310819656,-13.089311361608338,-9.405693891299052,-25.069494326906124,12.662674054222862,5.3653209438209615,7.539276289410509
0.612,-11.127954337180768,-6.539223038183309,-15.193307009483533,-8.92610710261124,-27.537743739231473,11.427277546266623,2.702193901679493,1.1560269630131188
0.616,-9.40295345314621,-4.509459464666747,-11.837605640920742,-5.1831011020387905,-23.887203239442556,11.121310979670852,2.6414027439138863,-3.0104173885176806
0.62,-4.2430134834594355,1.5049767272452073,-3.8405346444927773,1.3474359603995936,-14.876129225015916,11.612905420858851,5.0997376909595005,-3.4269795497757514
0.624,2.7635144795950737,9.765210003763855,6.642657790440353,9.464151607131726,-2.5851260021509006,12.382627669320527,9.49405278127324,0.027368485589022384
0.628,9.508590753739327,17.95736549941512,16.889700772098877,17.4930532780121,10.198080191246504,12.742977004787917,14.853765159798513,5.89917555282841
0.632,14.072841537273916,23.89544049534595,24.417521556426323,23.62916573599898,20.680103596675963,12.080451491105805,19.83702458717812,11.581158551391127
0.636,15.241927107515949,26.047755090252167,27.55160567841017,26.309509342239494,26.65073481179627,10.030533294301222,22.77895280464236,14.189669413649654
0.64,12.725691405478301,23.819097437729056,25.6924100106055,24.585583276632065,26.90036482744415,6.551682314053323,21.963931099557612,11.602583056977437
0.644,7.100516104403823,17.592940823743447,19.31609780879819,18.421501035741812,21.444960681509087,1.9183390095679442,16.197252065567454,3.312863805880397
0.648,-0.41889428806268825,8.587599467393716,9.799855048808126,8.80957957325245,11.53213994952489,-3.3386049795547024,5.489810624977508,-9.237907248903412
0.652,-8.293501159162815,-1.4387921836081432,-0.8948914148896847,-2.3962967760577385,-0.6317538743366526,-8.51952117746805,-8.52626909370099,-23.00725001280489
0.656,-14.988411749099441,-10.580464230111147,-10.64695866960733,-12.919484511369546,-12.41730333526533,-12.86002592418231,-22.78193611756319,-34.26610173203653
0.66,-19.251371495473563,-17.174790597299648,-17.622477519964264,-20.62710471066407,-21.43207652275032,-15.644584792948535,-33.63044768824966,-39.764404831780894
0.664,-20.314638770385045,-20.11834634771128,-20.6565086775355,-24.03863443235889,-26.11447526902259,-16.32628882232143,-38.08240278259825,-37.7076944489304
0.668,-18.018868712102403,-19.05878765370676,-19.482059230513414,-22.63251539076805,-26.07510088575623,-14.638679650118547,-34.88093483315879,-28.23234107009216
0.672,-12.834029722736773,-14.430683910490416,-14.729841414090856,-16.880983586215166,-22.069062245406258,-10.670818519311524,-24.926455147220963,-13.246111431644294
0.676,-5.77348754631862,-7.3446584398514005,-7.7082085038682635,-8.054726309854232,-15.631821826220914,-4.8946378526106855,-10.868309803847751,4.250175625091742
0.68,1.8115183499414798,0.6626486873644808,-0.030814362761361735,2.1098178526656284,-8.525794500168217,1.8621570678214994,3.9179218440252725,21.0476424702224
0.684,8.522796677928113,7.968349073041054,6.7915554993819,11.783527907325151,-2.2114833761035015,8.517725819614043,16.484626333923984,34.51344824690625
0.6880000000000001,13.254777777173217,13.237786885529545,11.688868904256196,19.406255311892096,2.4842576340235496,13.924560587015776,25.104172127732227,43.0795888988888
0.6920000000000001,15.518939171846,15.763493034500527,14.238057063331723,24.006895696932702,5.4381445611386425,17.13727914850915,29.455105543655236,46.390657523656046
0.6960000000000001,15.603985738927008,15.653503350022675,14.69500807384145,25.41219133069285,7.076909227161536,17.686131363002687,30.2819816899314,45.1743613456091
0.7000000000000001,14.472239406861036,13.799347931839748,13.869537133445931,24.26242942340707,8.113024335046816,15.746800668227593,28.812422634839322,40.9086857744627
0.704,13.389429689045187,11.578761499298139,12.854085845018403,21.773503563077497,9.254966245351,12.121092747317562,26.237367969241177,35.35388335463995
0.708,13.388573677817021,10.346085662950259,12.645858731078363,19.266156519228275,10.956212973904371,7.987709967321962,23.41412872120668,30.04214411686985
0.712,14.792429759610627,10.879802517141172,13.755118208690533,17.62895334410507,13.244864579212049,4.498983233110835,20.793868292311686,25.85811969126769
0.716,17.043235662345126,13.032526432891132,15.95303276055796,16.967730596924525,15.679917236291999,2.391845300535806,18.491715644073906,22.859132909990535
0.72,18.970044702627945,15.817200930808895,18.337637040615277,16.655933034404143,17.505559198676565,1.784579998784352,16.41305064983578,20.450429204720308
0.724,19.378673268506418,17.92542506480845,19.74964754319535,15.783213177713947,17.987803603484792,2.248410791258266,14.39713260498604,17.873040716994183
0.728,17.68277480342607,18.435465637976222,19.364113255164625,13.774990449678512,16.799730313563998,3.122208804840511,12.36775423465292,14.78021129498336
0.732,14.229205086361617,17.31797442615016,17.146520727528525,10.811492888457224,14.235448800093309,3.893764520549439,10.443678100177635,11.587599898607095
0.736,10.098146766433956,15.411155005176113,13.875863689385028,7.757615818597856,11.077362932208075,4.435329535534379,8.916195061095436,9.351205315294692
0.74,6.477264482523253,13.870537997609802,10.693862746041646,5.616747670245445,8.150338409850633,4.979341757738098,8.082462815329109,9.177501596876596
0.744,3.973384111270491,13.390082383080994,8.400902457222912,4.8321896555273725,5.775276754240622,5.8656788692253485,7.991548150651397,11.47052431783834
0.748,2.2911999782269277,13.688360237551592,6.928439130854997,4.904240640324815,3.474672571742019,7.234268880388527,8.272488619324463,15.489165781972247
0.752,0.490839808699036,13.605829786361767,5.3284968760416405,4.608442854010718,0.17141123610531395,8.863404244298408,8.21162734012512,19.544540149304567
0.756,-2.3056373262191983,11.802778408303993,2.34290363647915,2.7503487814550454,-5.153046126955871,10.265805694783921,7.116607772232783,21.801083431941947
0.76,-6.178637430068591,7.700327257267247,-2.721624358313761,-0.9676963501550517,-12.637015591186753,10.970713078268204,4.792690562386497,21.26096519295197
0.764,-10.10648709919218,2.1043898454460646,-9.32548642861633,-5.510113527532894,-21.026200080684532,10.818178351543565,1.8333673053997472,18.3674714782602
0.768,-12.350367074892233,-2.9378720324259575,-15.688479843521236,-8.854086612781543,-27.87005184078714,10.059243434552513,-0.5306881679698563,14.807788406158124
0.772,-11.393184024390223,-5.07360248706874,-19.542070518530295,-9.020235567082977,-30.465913686824763,9.188903853959118,-1.042712715932339,12.56313350390053
0.776,-6.889858968419048,-2.897828963210486,-19.268842301185316,-5.231441819303882,-27.13056643893509,8.62986341980411,0.8197118646654644,12.735998553361924
0.78,-0.0621538567143034,3.1914461072083213,-14.780972921174168,1.482163629378249,-18.122343879152993,8.458137609708615,4.393678935024695,14.839201560278639
0.784,6.719818704954889,11.037985573538606,-7.629417128648356,8.616027445742588,-5.694839116856201,8.349432423212988,8.017917691735306,17.00468859286059
0.788,10.9989233765005,17.690458605547917,-0.2655155208281599,13.3302753819695,6.795292630858853,7.7851372556409615,9.828382283173823,17.00260691180233
0.792,11.38702827042323,20.779437843467463,5.1299771080297205,13.807390996354684,16.292283629973497,6.398255351658122,8.746150369253769,13.500386646307106
0.796,8.195180213726587,19.571055061866446,7.593313582522342,10.096588893007663,21.243965185633442,4.244168130904768,5.090330138266609,6.845995194454645
0.8,3.2273000630581805,15.183536889009929,7.627796899775774,4.009830994420952,22.027575587741012,1.8211772873913787,0.4354367922090887,-1.0817318378387881
0.804,-1.1403130157355008,9.879004735123033,6.654545379779904,-1.8511523290134733,20.413898583791365,-0.1687462336315093,-3.2424907343089444,-7.871964458939942
0.808,-3.0943453475672413,5.85884170427903,6.03353796099907,-5.39021245728452,18.417818637594735,-1.1737451173569298,-4.655621861377995,-11.842265777011903
0.812,-2.1727955115222244,4.215037838173998,6.244576081347873,-5.9582969037616635,17.189569567330636,-1.06468108418062,-3.8967467830777878,-12.82814779723924
0.8160000000000001,0.6388148256401109,4.544822981112418,6.672771575884951,-4.498255147682755,16.52247386404747,-0.17883469747346226,-2.3420623528872966,-12.09657477676842
0.8200000000000001,3.517097651746269,5.388267384069877,6.098510090611967,-2.86676873867367,15.221335358298006,0.8830887868869013,-1.8121444962093847,-11.47381385923461
0.8240000000000001,4.726655455338346,5.145979340054907,3.527270862178966,-2.7785824916713295,12.028924884597416,1.5590907724530325,-3.492487231329278,-12.237640908492722
0.8280000000000001,3.3930358292337814,2.9420384777570803,-1.1598463718551102,-4.954637167563078,6.528807956219339,1.5639313832081143,-7.253035527244606,-14.438748386010957
0.8320000000000001,-0.21028786974613922,-1.0174324834826507,-7.10019966701293,-8.878100607908209,-0.4965810594773643,0.9570713259470267,-11.742966217628577,-17.004834029791027
0.836,-4.916728168906218,-5.714625952974984,-12.923670597381488,-13.202928084925077,-7.450641809403123,0.04354698484473829,-15.188814295097359,-18.500733326527325
0.84,-9.247245111406585,-9.955365217610677,-17.472382678229906,-16.504891089685373,-12.770777888693601,-0.8055755989666977,-16.414647870209762,-18.04769452918788
0.844,-12.032396492675332,-12.979221775301653,-20.329944166409177,-17.960988216986266,-15.72323358857227,-1.3040505468336505,-15.479799004753431,-15.856087462710661
0.848,-12.819412222921414,-14.7247548205508,-21.879887709490504,-17.64600827215486,-16.690220833667155,-1.3272838226566819,-13.595826687695762,-13.105714160698312
0.852,-11.940478134608782,-15.67066110412128,-22.92231284875794,-16.367065828212162,-16.810111135014182,-0.9173410052746931,-12.402402725649267,-11.288444551402677
0.856,-10.286117338083784,-16.43547944130455,-24.135102763524912,-15.202566873440219,-17.22498380691073,-0.2574326094867274,-13.045728167980258,-11.446706018919599
0.86,-8.900195903482654,-17.377855464854974,-25.686188432695474,-14.99652065735961,-18.366974845127487,0.36318697995920957,-15.575190938017215,-13.736484186646749
0.864,-8.543225203986026,-18.406995075953148,-27.192327547560154,-16.016253881523483,-19.69320765590129,0.6113290208029412,-18.967805829604572,-17.483573778430582
0.868,-9.37765729872109,-19.064303667233332,-27.985946596011644,-17.886220128647608,-19.999599672883534,0.2028393709364309,-21.72800472349519,-21.632196518855494
0.872,-10.894428213462106,-18.796821674938542,-27.49891403954328,-19.790053448154424,-18.13408206428764,-0.9804122594562727,-22.697949058326458,-25.288828683070335
0.876,-12.143877999759837,-17.284729572731663,-25.56193314557305,-20.847022042118567,-13.719932019629454,-2.8035016585120616,-21.647073910682252,-28.050384120196668
0.88,-12.198294798035846,-14.646289828235808,-22.463271045502978,-20.505942541924355,-7.473235608879037,-4.890667664277544,-19.342922569594748,-29.992750169833982
0.884,-10.65949231203362,-11.444396455346265,-18.792355834389838,-18.820019923524512,-0.9652942115741041,-6.766648055455562,-17.109088648770353,-31.427991510638606
0.888,-7.967738908188977,-8.49994253122199,-15.191526770296036,-16.48447711784496,4.042667363120671,-8.081112661559473,-16.134763582264327,-32.6166254742825
0.892,-5.3062406065509435,-6.586940302958368,-12.13849257605915,-14.594581723259182,6.351753320427605,-8.779385015808543,-16.88693340605016,-33.58427400141443
0.896,-4.099968463245716,-6.139237284352362,-9.83971021581587,-14.19704563056132,5.7864460682195045,-9.110611229937263,-18.895096227940826,-34.09411298771954
0.9,-5.30603853986463,-7.066057292680171,-8.229581914325763,-15.795999290505563,3.1746789954476924,-9.450072493741118,-20.983092966409288,-33.75713867316176
0.904,-8.854397307410864,-8.759028910298753,-7.034916766830634,-19.043322304987726,-0.09825115890356528,-10.017663236525323,-21.801662301174304,-32.177811974134556
0.908,-13.54585694384059,-10.29383540027527,-5.870781344355805,-22.780621269062408,-2.7080381842620227,-10.672411092746984,-20.410777140076675,-29.086210910093314
0.912,-17.507749495290966,-10.772327313662345,-4.370553082942365,-25.45857252538508,-3.8976015464459124,-10.926934920634949,-16.673728226345247,-24.443508806405134
0.916,-19.029113233685166,-9.695349753042024,-2.345731581577411,-25.77968011503515,-3.6755299889201183,-10.20410229930576,-11.31040454393883,-18.515332768684175
0.92,-17.35461223992229,-7.191098211410292,0.08174786257291089,-23.26653083522433,-2.665174402122261,-8.201437777953288,-5.618609499915692,-11.897892457655985
0.924,-13.018571182710843,-3.9794441655712944,2.4581152650896456,-18.466264438081453,-1.7284294968596328,-5.140010558590689,-0.9656280037116858,-5.4420923035952455
0.928,-7.555703600886204,-1.079109370870981,4.130247734939246,-12.688307308292337,-1.5706364939945843,-1.7432463368238587,1.7369074994910534,-0.05635047546354599
0.932,-2.760850918387632,0.6011810923981784,4.4994658360793665,-7.419376162231174,-2.5084897674791478,1.0613577605193996,2.347281235068067,3.547170328956554
0.936,0.08080990361293061,0.5729418479937749,3.275196126218134,-3.731965096738577,-4.478791702125932,2.558772894422873,1.4644112652352987,5.055369459760868
0.9400000000000001,0.6393799885230464,-1.1097475838716946,0.6394481972859012,-1.9458529435833043,-7.182560920263882,2.559843843234603,0.09563218928849437,4.618556594975189
0.9440000000000001,-0.5032106154844769,-3.9330626800507957,-2.756772608357039,-1.6643411904765344,-10.229590360056704,1.450939283671687,-0.8198635234655285,2.7512087808207752
0.9480000000000001,-2.291567167707626,-7.137232809004445,-5.982576531064296,-2.10796573776679,-13.19763884145209,-0.03565162013251211,-0.8239056113227434,0.11354466946932007
0.9520000000000001,-3.7287633548057784,-9.939504832255693,-8.120568715963373,-2.5284528566443214,-15.60341311540975,-1.172995297001762,-0.09469623445829711,-2.701871407581166
0.9560000000000001,-4.237126225432348,-11.70900438979254,-8.562320528029886,-2.501144018161426,-16.89523798875649,-1.5209550090798984,0.7107112775631776,-5.281069710492147
0.96,-3.7125344635404645,-12.050033832880558,-7.177574263995666,-1.976950294540984,-16.52876621516964,-1.0139122305388355,0.8395012961746033,-7.373845300156063
0.964,-2.3680953112163934,-10.850366352706715,-4.32024456855288,-1.1562331444586107,-14.157234026035894,0.1430415394343072,-0.14981656253667097,-8.819860276397549
0.968,-0.5756174206245532,-8.328023451347235,-0.6905400926513039,-0.33380697766415324,-9.85647982456328,1.6397943047963963,-2.1657391305716374,-9.518669635288234
0.972,1.179671728840276,-5.0566165475083835,2.8806112694122703,0.1783077210832289,-4.251764001807942,3.167939298292822,-4.641003516995852,-9.482636758241824
0.976,2.2666264550421147,-1.9180699693356473,5.641913745326519,0.04477648392548872,1.5527075292181962,4.420269732276665,-6.819231194103395,-8.921057775594818
0.98,1.957592297154406,0.1082261570376204,7.092316880569683,-1.0862786265518025,6.2835279617692095,5.045555021464679,-8.116310966029687,-8.245712135821123
0.984,-0.32520348185505554,0.28748914980019435,7.075654351152707,-3.4870503705349165,8.923172126730833,4.6712476692682685,-8.376681772014308,-7.9389813190730365
0.988,-4.610039315843096,-1.5152122409692765,5.813400476594779,-7.139876415400067,9.094651802580756,3.0601281261899658,-7.869158980353404,-8.28768381367422
0.992,-10.085327220879435,-4.67830505599477,3.843067818334248,-11.550014950656532,7.21123445347223,0.3186807530760234,-7.06752153048501,-9.134868908415683
0.996,-15.208853261899549,-8.029308910867258,1.8325276994469277,-15.771741486820702,4.279072641718244,-2.997845414190351,-6.371113895583676,-9.85112894616077
1.0,-18.267660562300307,-10.336467353542844,0.34814508213605677,-18.693295685510293,1.4759092361532566,-5.989028347456724,-5.907857950939615,-9.573069615046279
1.004,-18.166938225892636,-10.862260991798848,-0.3426667221689286,-19.482704960624233,-0.3056338921093129,-7.736781361052408,-5.515197744881334,-7.625550395217488
1.008,-15.032303131564277,-9.681834160057292,-0.34105464384992956,-17.972234474056677,-0.7465983742517892,-7.695697646427561,-4.884780964949641,-3.90736097959757
1.012,-10.214818022358486,-7.569971589895886,-0.003212538024172318,-14.744915537958605,-0.10045246904292071,-5.930285266406827,-3.7612538650744227,0.998716291533583
1.016,-5.641427971979738,-5.536406990247542,0.27895444981925266,-10.859485857211439,1.034682860952671,-3.057614026151441,-2.0942851992285796,6.075993909004637
1.02,-2.8443267150003066,-4.266384350721296,0.2913818124725367,-7.351256982840823,2.0303497496715863,0.07731010010684258,-0.06619461106038216,10.342317121065207
1.024,-2.2142096221168686,-3.8025147217356334,0.08343450129405028,-4.794276549868755,2.4575938459514646,2.7886541628295163,1.9901684751703215,13.256911982973179
1.028,-2.9225713125701986,-3.6511853035958666,-0.1264497069657864,-3.1704144559109864,2.148563385087755,4.7697272001692,3.7089222473905465,14.838743559565955
1.032,-3.570151435129901,-3.233464530725314,-0.15782244060164885,-2.099227313199208,1.12748983366032,6.0401590179149025,4.786508875510663,15.446528182419115
1.036,-3.1314762999656978,-2.3754188655598227,-0.04026793806110618,-1.2503615955643,-0.48496593186678183,6.699463664176619,5.024416094312073,15.39492959762174
1.04,-1.5804158044020369,-1.4798469004254002,-0.00553616552542735,-0.6358828241245646,-2.484916384185226,6.712189758234672,4.351777149078771,14.683447306805647
1.044,0.19105050282450975,-1.2488168962545387,-0.28767869173816507,-0.5948354728479899,-4.509438135210075,5.903358802795083,2.8572537388358796,13.037055809828871
1.048,1.1225414764876405,-2.1059340747008264,-0.83549516209996,-1.4649442904533316,-5.944942510080409,4.186136000063925,0.8448989479893498,10.245633840772825
1.052,0.8802804199490311,-3.7147358012286986,-1.1583859174377267,-3.1830021209989354,-5.965041257521079,1.8492100694293185,-1.1449017148775056,6.545866016421769
1.056,0.23500300568889543,-4.978945002994124,-0.4779167608107855,-5.1417362329698335,-3.793380353186194,-0.36525883317654007,-2.423058937240512,2.7356880268439454
1.06,0.6187096845953874,-4.59011218448677,1.8437231553737092,-6.4419970435951655,0.8994954071786196,-1.5332002816826389,-2.3621888644111095,-0.11721228664737282
1.064,3.0811286151890727,-1.8659926155494304,5.791753391576776,-6.431582918014556,7.637411261440775,-1.0691973329576285,-0.6905231438445298,-1.2630275014153085
1.068,7.316184844914687,2.6299523051445703,10.430858633216758,-5.19969294815337,15.060582402798445,0.8161822612305514,2.2743519456757895,-0.7963437125781638
1.072,11.485981080131069,7.132863738003152,14.124009424235737,-3.656140070037509,21.273094281945987,3.065068032537056,5.621960898383804,0.2625611766598013
1.076,13.0844686713574,9.447641051632445,15.203413466346547,-3.0762754551565195,24.52577980346473,4.260529851065712,8.137798780832327,0.47393906073375547
1.08,10.399299098425217,8.085795656284972,12.808999089937288,-4.334495148175392,23.967528646681103,3.4220132590730827,8.804887259173483,-1.1605957022129587
1.084,3.70237988012218,3.1415543171415266,7.449940809617601,-7.268494278493108,20.096923538481633,0.659991947418348,7.294228434519937,-4.467157570262316
1.088,-4.601848995006776,-3.6001545977219394,0.9521887263156259,-10.577909502093462,14.661199075041623,-2.7307621228374046,4.18992239966019,-7.967651037021369
1.092,-11.056440842165784,-9.431593185368229,-4.253048466950531,-12.372632837201763,9.993367444910518,-4.861033847100316,0.7918617358532174,-9.500593586824834
1.096,-12.90644667564311,-12.006106802419708,-6.2071313560022645,-11.115341390569938,8.038771808861839,-4.237162842344787,-1.4447232991401506,-7.335570792181898
1.1,-9.53930820405958,-10.461106574624182,-4.339802122959554,-6.451253395064668,9.510770281457326,-0.6088299451239436,-1.566229650052719,-1.2016509897553078
1.104,-2.7618854002535045,-5.786310070677018,0.2511615901737514,0.5397713980601111,13.57508649383044,4.8289606185753655,0.4496177759042439,7.360189959532818
1.108,4.266800656821488,-0.2393309904941816,5.331304008366715,7.8328555706521,18.243330222621125,10.014213129818472,3.720321779659571,15.573805614455068
1.112,8.802026543376996,3.8429924440065406,8.60620236506793,13.417857528166678,21.295894483214397,13.065976305080767,6.9268785676899824,20.6705254909798
1.116,9.935945246671963,5.1733326451803805,8.791177410960472,16.19422626275491,21.287130539430564,13.221168714927444,8.975260177881864,21.15476937793437
1.12,8.865034835391725,4.001404268521583,6.147525593537466,16.336231289944408,18.16487019538863,11.129397044702273,9.494121625145453,17.45621130570953
1.124,7.889600345434701,1.7443086219368524,2.222686721935588,14.966765302803196,13.207504193290333,8.36493316679298,8.908482540071418,11.620310363027784
1.1280000000000001,8.830695249619566,0.06289056388254721,-1.0140564835442092,13.399022759113905,8.350331094150306,6.4814351464347055,8.080111124124414,6.229945446792044
1.1320000000000001,11.853874902614734,-0.052409974488000444,-2.152604593327851,12.407625598261802,5.263835544618587,6.163062661205913,7.7425150995482,3.1499834217729585
1.1360000000000001,15.426128529950802,1.310201872352991,-0.9302339156320159,11.940081610260677,4.6351888116607824,6.951798611496997,8.073708178073502,2.746261063361999
1.1400000000000001,17.397495148100916,3.2615122133443037,1.8552010383118613,11.395313345846716,6.007896613265075,7.680212583170942,8.650672966593902,3.9544277035283812
1.1440000000000001,16.464400931331056,4.8037886181245995,4.964626466197387,10.20459447283929,8.196266295792611,7.274730333310799,8.78611141158217,5.080041494506986
1.1480000000000001,13.076235302567511,5.470625638553429,7.466576907023864,8.309099499826516,10.006816623088525,5.4251796052149075,8.01518598947132,4.81111698982204
1.1520000000000001,9.197596613510996,5.525404364580481,9.172277977387239,6.222553562910889,10.860481661071844,2.7279661532093087,6.417449776455669,2.8826211729301576
1.156,7.080725804798476,5.633146999671226,10.528568256488143,4.66075500667921,10.977170966850736,0.26255722849873564,4.5938325874421935,0.07837072317306593
1.16,7.8498298514105045,6.29070990551827,12.107723365154015,4.017296668306699,11.077259204213988,-1.0933467788272537,3.3164738978148307,-2.35988032313071
1.164,10.77682335938107,7.41069509239378,14.048172301298564,4.040800446738558,11.805821926282988,-1.169025911506651,3.064976284388649,-3.518401199359687
1.168,13.692815959175277,8.345939739879668,15.831426575421574,3.9444491582689807,13.249105177696947,-0.5292668108850194,3.7289076211327483,-3.302072996941206
1.172,14.297764825588274,8.350756061904121,16.566971873457987,2.9094461389122444,14.85547125180301,-0.04912872908971622,4.675653902718295,-2.3537055457518363
1.176,11.549576820488255,7.133914984710827,15.573949814845946,0.6574833563090579,15.771149068638351,-0.32844084496719006,5.134821843310419,-1.509795209269214
1.18,6.276333558102124,5.126655973067955,12.890616286424574,-2.2785478442269778,15.389099061963407,-1.3203749944832452,4.658522398357491,-1.1685790786114012
1.184,0.6892844062972472,3.2808372191070703,9.376400302647198,-4.752138887752153,13.773249317689078,-2.382965828347551,3.4024228185171523,-0.9711266529629938
1.188,-2.860263241687335,2.525373414560363,6.334309550572925,-5.552263307411522,11.701281510305762,-2.6793959401820757,2.0704115216276477,-0.002372608946643595
1.192,-3.109409383157981,3.227370636331216,4.870437019078963,-3.987867344461847,10.29030656679788,-1.6649178189527447,1.552005619713782,2.6074331940180855
1.196,-0.41787066210417834,4.963508897002612,5.322177349177764,-0.21500592915253947,10.377788779355342,0.6217738710784033,2.4367562299539713,7.026098961080606
1.2,3.6558028621857375,6.76257929999656,7.10140241080444,4.866537771622461,12.017423608861918,3.6040713291813518,4.6772336150906995,12.408578164217033
1.204,7.361437858919544,7.641600016154371,9.007560091984487,10.03175526054929,14.349070421508259,6.460130235495853,7.5543626259532175,17.12040188208084
1.208,9.68798101882112,7.1233784755154375,9.837621808789663,14.219230449980387,15.952303049410602,8.468873693985188,9.967278470039673,19.414982484650864
1.212,10.687502482046511,5.448361496501093,8.967528812971523,16.84112940326031,15.522691696241509,9.226303965358966,10.92034706035156,18.232008074269288
1.216,11.09712619161246,3.3847190413898716,6.61502971564596,17.817268477450853,12.53572700150744,8.684761273083495,9.996797322944985,13.737192366847012
1.22,11.63578232728105,1.8114433183700385,3.7076638219123197,17.425089208523787,7.59569736355752,7.077472395559198,7.609873509338286,7.346166447263386
1.224,12.495741675586942,1.3297988973854444,1.45740341381088,16.114957753813542,2.2838573750859723,4.826664695014188,4.8970872595928086,1.1964700069811443
1.228,13.334061123275205,2.1107621519313398,0.8806103576621354,14.39855486331544,-1.4255344126654563,2.468251981132198,3.289909924988933,-2.6878213799909645
1.232,13.687688374109712,3.9902876441178705,2.4644612545894233,12.805976390420255,-1.9401216253982057,0.5617313578159155,3.912411766000332,-3.1939044323326016
1.236,13.425112105629069,6.6396490019187695,6.036352686093323,11.823956522487606,1.2883419113686614,-0.4398272668759091,7.051878624769415,-0.5485855790011556
1.24,12.871317791592901,9.674418135480664,10.83935868389517,11.765723021364465,7.50859540746751,-0.3527159837194631,11.955282379173696,3.825993393470526
1.244,12.499172497062773,12.637666526687099,15.752097461681842,12.596638874275413,14.925098218570838,0.6200131258701731,17.0870548795001,7.951138463432471
1.248,12.441728415181842,14.948637533981127,19.58221988292553,13.836762724795335,21.357782545582268,1.9234905616922333,20.7618547900056,10.137965442889254
1.252,12.236774317439085,15.967732681543112,21.38213129180167,14.670214569577183,25.0342993571403,2.870928688080312,21.858563955068348,9.65970130126425
1.256,11.042160211471128,15.219743624051262,20.7163868153566,14.260034191388513,25.17662413543121,2.9459384025540203,20.275193757284796,6.955331774003753
1.26,8.209818291131342,12.662465952193998,17.785097870642403,12.128900848922058,22.146082826158818,2.0102552673442915,16.862455098298597,3.269692483359904
1.264,3.831323173238161,8.797217953403106,13.322746976712097,8.397367896391188,17.104517949208457,0.2886422572428273,12.834007653644221,-0.10020723587058455
1.268,-1.1509918658430252,4.4970847343529385,8.28643358759382,3.7405431936349487,11.386613794209552,-1.8631879972326715,8.989279022049232,-2.545347830674473
1.272,-5.405733120663172,0.5870490925972263,3.4474164799730715,-0.9281314262543674,5.899021349702252,-4.246959312276886,5.197339527514487,-4.476908439541148
1.276,-7.9721555658743455,-2.6071983487117905,-0.9304253526665889,-4.8735168691946456,0.825203134325875,-6.948910413142585,0.4823364367302929,-7.070674211516234
1.28,-8.829233170680709,-5.424893489408987,-5.111220890060395,-7.799936735233132,-4.217050387516338,-10.186719690216705,-6.262027091323944,-11.512087359978977
1.284,-8.88186668628532,-8.609340952520142,-9.58161539131288,-9.815566737087465,-9.697300892729345,-13.958903344395367,-15.3144062074889,-18.15233264316521
1.288,-9.324716159530908,-12.713688378274128,-14.558186156473312,-11.134932288461641,-15.639732739912688,-17.738365708704805,-25.49026121046336,-26.04043194220867
1.292,-10.770295334406,-17.518887688347604,-19.588960189558748,-11.730332187116801,-21.346191028525027,-20.466548545738988,-34.26923297320991,-33.124434877508975
1.296,-12.721577652209817,-21.881695231525555,-23.546082417577963,-11.200330632127589,-25.57585203815779,-20.92923685272399,-38.73347003502022,-37.064949845113006
1.3,-13.758125105648105,-24.158002408204993,-25.061813488144253,-8.95812408385973,-27.082609593581765,-18.349671532903812,-36.881311844810625,-36.26579808431052
1.304,-12.367717873875335,-23.030430451238317,-23.213648038524298,-4.6601763579301405,-25.233363183768688,-12.86679668436227,-28.634856247514108,-30.60811721113896
1.308,-7.91183865977564,-18.261881377678947,-18.063833281825282,1.4130035920079536,-20.346787097285414,-5.599174224509625,-15.974128579105127,-21.48949560334404
1.312,-1.1364274431998638,-10.93127224061027,-10.741426031174342,8.272073671850194,-13.566795714936688,1.7610919306207506,-2.118620972226381,-11.176321210741662
1.316,6.095796204124781,-3.007809066990376,-3.017408196082215,14.501834113007135,-6.377028316766882,7.629391109332573,9.815669845494085,-1.84428422662495
1.32,11.722911389782894,3.5329661597279483,3.4244165707059437,18.803136427075515,-0.010243584427371388,11.123677722776847,17.984690475025673,5.197071801092534
1.324,14.485633328449694,7.541731369070476,7.613159405750594,20.486524648492377,4.916688819065712,12.26222766095998,22.221945515440893,9.72960546815193
1.328,14.43101931117144,9.037927196060082,9.502637332817358,19.66021163622554,8.376263407873012,11.705941477297529,23.566381721519065,12.26103505178071
1.332,12.65778889566809,8.91797890939597,9.709226138733356,17.046535814948584,10.6022544291327,10.25954521573476,23.29092283751379,13.38212075723277
1.336,10.484669946614304,8.225054360868853,8.962523956205587,13.53008274297008,11.691428681989237,8.439960001453073,22.045466331264834,13.277182039793843
1.34,8.590713981463523,7.471643441558626,7.64703097670008,9.715256492048866,11.432374633308427,6.365025839202644,19.618651759745262,11.688496508966637
1.344,6.684026754197475,6.426961075151667,5.704047512238503,5.751905550253468,9.477979543047695,3.978377399576857,15.407185238982493,8.319212320047882
1.348,3.8880960722590316,4.476669834841232,2.9246509955428337,1.499755715367428,5.748491362704954,1.39198240575206,9.22512985087269,3.356813259068076
1.352,-0.43250538477968803,1.2869571935789281,-0.6083868167688706,-3.1020923745300024,0.7798087526325617,-0.9371494846673158,1.8823419612472208,-2.2656998111051507
1.356,-5.949547997313857,-2.7001013664585116,-4.279940349149001,-7.714235037461549,-4.268045054095637,-2.3378011759195942,-4.877251981750305,-7.092037540127421
1.36,-11.25588438401519,-6.282354072047383,-7.088998457946218,-11.541494376382616,-7.998192980546264,-2.2965334596046887,-9.075660228805646,-9.741183216185163
1.364,-14.477148536519053,-8.058608758956325,-8.132856456775698,-13.606106054692646,-9.392464134823058,-0.824763040873222,-9.458377886854578,-9.552319072445243
1.368,-14.265479002032407,-7.203280806977091,-7.133183970123355,-13.20418316258656,-8.318313467394546,1.4347389326485427,-6.150271769754909,-6.90676117097064
1.372,-10.606134374346766,-3.9808337043696156,-4.6644046354240345,-10.299095439202574,-5.62469217182479,3.45232534398383,-0.6443658349126054,-3.0325363260308222
1.3760000000000001,-4.971879707358312,0.28622165088290785,-1.9634545249045914,-5.653006102749714,-2.788485896639031,4.283355672134348,4.83914411092519,0.5784261801909452
1.3800000000000001,0.27756713528469845,3.796251488793132,-0.40251916927263665,-0.6131006453397276,-1.280983442595243,3.511045040557292,8.284226040568683,2.8117519902298227
1.3840000000000001,2.9464118022187904,5.086355642710259,-0.9013158413499696,3.35726240560507,-1.973935434130908,1.4181925673874503,8.640853840948694,3.312768009955107
1.3880000000000001,1.9815482641160997,3.678887134271463,-3.559662485246008,5.211514729780902,-4.843952820202503,-1.1831102722826472,6.089577155638835,2.464948530516267
1.3920000000000001,-2.126357884142635,0.23038627219193586,-7.672198582877172,4.676014147324167,-9.079845702620332,-3.355901174218161,1.7661245013823645,1.036145516554825
1.3960000000000001,-7.6670217150203825,-3.857925379684275,-12.080317534991991,2.286453427233937,-13.493853969171141,-4.441660962704191,-2.83150396550991,-0.2469741720942693
1.4000000000000001,-12.54920173526989,-7.1131417136011805,-15.634652084326262,-0.8878087926859735,-16.98813370758853,-4.278240943578567,-6.4345319333133375,-0.9671987891415483
1.4040000000000001,-15.224784714068846,-8.607802374687708,-17.573173560856958,-3.711895859449214,-18.879083144092874,-3.1746513562120526,-8.361468906674418,-1.0539456688020437
1.408,-15.261111479530882,-8.251238316286617,-17.692341856860367,-5.442984156003149,-18.989487838229252,-1.7117020634868823,-8.577437966276193,-0.6570520711011341
1.412,-13.358816735970322,-6.667966524213625,-16.295869884513195,-5.981803749529718,-17.54239373571636,-0.5051306485511304,-7.530645868700958,-0.002540371404393227
1.416,-10.885097447761837,-4.808913160334669,-14.021561417384873,-5.831429361129267,-14.998766841842553,-0.028768678097549127,-5.888686737653188,0.6693950226836023
1.42,-9.19417160746616,-3.5171683176949955,-11.632584242730445,-5.786169350363707,-11.923375793355262,-0.5206607937634544,-4.288702378376911,1.094483868781026
1.424,-9.084751542370213,-3.2517667059591986,-9.830550710289572,-6.5153283746331,-8.913728511121008,-1.9630993817099807,-3.17479123242083,0.9744973064534861
1.428,-10.592136913202012,-4.025485134137853,-9.094150813934903,-8.231677696327097,-6.539255212213902,-4.100013560151638,-2.73791199246989,0.04200012637011241
1.432,-13.108055002480796,-5.495092975738771,-9.546097053021185,-10.573331320296347,-5.222300466834895,-6.47314829149218,-2.9354424989869585,-1.786453514781897
1.436,-15.725447289538351,-7.1394230905671066,-10.90462083224429,-12.753673052953673,-5.094356383783634,-8.506494669378299,-3.5734232053073356,-4.263021002891037
1.44,-17.616607861887132,-8.440937632973146,-12.582400141094695,-13.90721405009026,-5.919226196959244,-9.659412952520142,-4.4396858853342565,-6.803866019992711
1.444,-18.27584220191966,-9.027227935274823,-13.93295391238189,-13.452216124724146,-7.15532228079428,-9.610017308828901,-5.417943038846715,-8.672263389747968
1.448,-17.564530527331044,-8.747089471826257,-14.540729687201747,-11.298040275545645,-8.165296305585798,-8.388410966952506,-6.5168318959003955,-9.287200733931968
1.452,-15.610111399429115,-7.687456753274091,-14.419601817385228,-7.822883749793618,-8.50430855034665,-6.384506864151263,-7.81107626458288,-8.50710321734914
1.456,-12.66192298850001,-6.151388617408884,-14.017543214299621,-3.673427411900775,-8.157570298331848,-4.20106194274922,-9.336165591768804,-6.723915280908841
1.46,-8.9952808919561,-4.580782276244463,-13.98714405913779,0.49293426577787613,-7.574599022517759,-2.4221643100390793,-11.004082056129846,-4.70797907153792
1.464,-4.92538382373823,-3.4493320908168243,-14.843032857174876,4.169683310879918,-7.478658716730024,-1.3976101936023042,-12.624980283697369,-3.27582790361339
1.468,-0.8880564998853515,-3.1409550852695247,-16.680492525520094,7.005460661954203,-8.521125762383235,-1.161913954289048,-14.032946441433523,-2.9563348739757203
1.472,2.512077645673344,-3.8344264115212354,-19.100473948723447,8.701760687195929,-10.941294755184572,-1.5116306467389222,-15.225448733275698,-3.8188109921102296
1.476,4.550352315221971,-5.456301232752594,-21.406085882854313,8.908836216045529,-14.421219800857216,-2.173347189591368,-16.405907049214875,-5.5305175409521325
1.48,4.584608483079137,-7.69283134316629,-22.93663241771992,7.248016589695908,-18.186242557452715,-2.963009010278256,-17.862052040562048,-7.582239250430575
1.484,2.321809377051977,-10.079020372274499,-23.36480534164002,3.4715725828118593,-21.314636609289664,-3.8487918612954672,-19.735121684767364,-9.544828740294179
1.488,-1.975454299179546,-12.130911868162002,-22.803203883725473,-2.3153471741170506,-23.102931933761283,-4.9040464791251,-21.829554059204384,-11.234356698510965
1.492,-7.483855466945897,-13.494056947265562,-21.685690075628372,-9.517456567697081,-23.32212856393471,-6.201811749153421,-23.611199362390835,-12.709625195064291
1.496,-13.05362774630703,-14.073635915561681,-20.529492341869627,-17.10361251224458,-22.276065881392242,-7.717656659791828,-24.440155863365362,-14.134189568983857
1.5,-17.58303870839336,-14.059194504290645,-19.698807115294585,-23.842434603939182,-20.62682382789808,-9.29651052182453,-23.927003074446475,-15.591371426722617
1.504,-20.37347080235304,-13.83292328774587,-19.29739690230508,-28.639350543160617,-19.097025623719674,-10.69302978515043,-22.207659356397926,-16.972377404847066
1.508,-21.278796741682527,-13.759759112284883,-19.19706318871249,-30.810243249798077,-18.16650527370257,-11.645840453846176,-19.941672093853413,-17.990606592255062
1.512,-20.578484668283636,-13.93528794859958,-19.12601614574396,-30.177931842070393,-17.872086610501356,-11.946603851309192,-18.00064631078567,-18.29398826553006
1.516,-18.694374998258354,-14.062657834103447,-18.768270399874382,-27.009669359664258,-17.811656610158025,-11.486807903296722,-17.00801934102128,-17.632093634976627
1.52,-15.930351587448968,-13.545184943744971,-17.83266362552422,-21.866832269750375,-17.336193388240645,-10.282864039349079,-16.98714339637081,-15.99057832978724
1.524,-12.399321966368007,-11.805452922071709,-16.123765104917766,-15.473166467065312,-15.865567090279,-8.480846966329409,-17.332360821374095,-13.636984301076154
1.528,-8.16901639257594,-8.684507330559427,-13.633674845599671,-8.647408540211472,-13.200941932193018,-6.343398608325515,-17.137983843504117,-11.07286685357758
1.532,-3.5123620433696487,-4.705517815596977,-10.64552118759093,-2.276717409815319,-9.708822192791558,-4.206158439559658,-15.714843160272721,-8.905719991180376
1.536,0.9235235821652168,-1.0388151719507732,-7.798941478122288,2.728305663158608,-6.311596626868777,-2.404084886871715,-13.030877996883646,-7.677487986071355
1.54,4.207422989104089,0.9015218530948914,-5.997327290733665,5.568620041340182,-4.234547575724719,-1.183573058580805,-9.824536427167914,-7.708725725969998
1.544,5.464145870753782,0.06256489705447166,-6.127244800052722,5.766673875103152,-4.587929961667214,-0.6361278012045659,-7.310079371711254,-9.000950805973844
1.548,4.302077807740716,-3.7112975245890993,-8.655912453212295,3.372538817973691,-7.915149965630917,-0.6904446624648699,-6.613104010704774,-11.213200133610371
1.552,1.097657777794666,-9.478698631997759,-13.275228867642,-0.9472717395110521,-13.865641231939662,-1.1724005672986095,-8.211135980167455,-13.713610557206266
1.556,-3.075537826080108,-15.508874579918484,-18.840469905904683,-6.040111477450409,-21.185984094263404,-1.887965403344424,-11.662761259864055,-15.725059016938758
1.56,-6.859259654063862,-19.949659782852905,-23.67913851436242,-10.589121918144883,-28.04292516299938,-2.6689134658445255,-15.736087888522889,-16.524664497352205
1.564,-9.159174376069132,-21.56888965246617,-26.20887319340909,-13.529534685756516,-32.610492194731705,-3.376205057807965,-18.897693117573,-15.672046890824276
1.568,-9.559539064144701,-20.21113279830388,-25.581725557543905,-14.38056243381834,-33.69254892437584,-3.86900297068496,-19.944696105567346,-13.188496018021397
1.572,-8.391078242375443,-16.743630004737497,-22.024425499426798,-13.346224002711097,-31.114300024553813,-3.9843795150627557,-18.484076106191424,-9.605267539987835
1.576,-6.462782446706115,-12.581771377241239,-16.725958761126094,-11.176087807978547,-25.747361910816835,-3.589952344493213,-15.074499780406768,-5.839861091906641
1.58,-4.623004206780024,-9.03908097830572,-11.300493921036832,-8.839980872558954,-19.140888168782112,-2.6930435779649997,-10.968333598408208,-2.908472074501333
1.584,-3.3761398242641008,-6.818671621258545,-7.079609102158429,-7.144749266451981,-12.914731121754812,-1.5314665058722312,-7.556833076174371,-1.555170146333694
1.588,-2.7396335018693208,-5.86369857360296,-4.5806774982902425,-6.447787520275597,-8.176396357906924,-0.5452811746363295,-5.761645655664324,-1.9412668038421543
1.592,-2.3616641138651175,-5.566175336211927,-3.395451925006455,-6.570513373313588,-5.201042769770538,-0.20633361194450117,-5.646627226542478,-3.5600932925481175
1.596,-1.802269643758791,-5.196143591967484,-2.5464133477912583,-6.943696749018727,-3.514744906177839,-0.7670809899937012,-6.432753344442972,-5.43642567131883
1.6,-0.7934506313231395,-4.298538016673319,-1.08990200012704,-6.907582216255378,-2.3041814706202786,-2.063482831668807,-6.91805135686991,-6.5425104987352825
1.604,0.6530377995950403,-2.876672087722909,1.364666444114846,-6.031127469183048,-0.9346127534727202,-3.5102022798419057,-6.103305626733345,-6.257171388020652
1.608,2.2869727440047427,-1.3301548647359596,4.4657223821632215,-4.342071509952802,0.6742021420814126,-4.353321794496878,-3.7399325485966983,-4.6799946367500525
1.612,3.737130163463007,-0.22220417694188654,7.335653682755947,-2.3578826786942955,1.999836004244571,-4.05352870680872,-0.5099327009302215,-2.6103407754344516
1.616,4.635454514049343,-0.017570572445038124,9.049762837965318,-0.8837401808705181,2.2045551782539405,-2.5962983549470664,2.276328815460147,-1.170686167148233
1.62,4.717993486439809,-0.8883972489547887,9.116520252091505,-0.6444745101980516,0.6180473434269516,-0.524990881625854,3.335755781219632,-1.2371504220864153
1.624,3.8688994516433013,-2.6727459678550076,7.6842563926129515,-1.9335466991033172,-2.8603487674590724,1.3238186857488472,2.075237286677293,-2.9782114238078066
1.6280000000000001,2.141518335274668,-4.952641219353609,5.405764060198635,-4.435402212689951,-7.62792931767126,2.265692534700065,-1.0955022122179798,-5.742407162782911
1.6320000000000001,-0.21076681341401127,-7.183779564044016,3.084494087523126,-7.303848151675993,-12.56528154595344,2.1316782084722945,-4.96539637861315,-8.352525128942943
1.6360000000000001,-2.749194603165961,-8.871868838326918,1.285849343665177,-9.501361416709187,-16.484151640073833,1.3236615513924335,-8.152165723171493,-9.687551957304095
1.6400000000000001,-4.943173464132997,-9.728798477724922,0.13365738845459418,-10.245227341658392,-18.601806722170295,0.5368444538398762,-9.814276876983058,-9.246082634264894
1.6440000000000001,-6.328559258203313,-9.761356619686921,-0.6231556472448574,-9.347517082667764,-18.812705895747058,0.3126996367536776,-10.036653901312093,-7.3846383881354996
1.6480000000000001,-6.668654620523739,-9.250451408101071,-1.3499094728649652,-7.271946695667793,-17.631290699392594,0.7016718185332138,-9.685028768044504,-5.107159040097031
1.6520000000000001,-6.03591163537385,-8.605270937456226,-2.236053582701061,-4.871982904656761,-15.83797016382232,1.2497300033646752,-9.820489732708666,-3.510313363483874
1.6560000000000001,-4.754942407278577,-8.160342948873222,-3.1544467335806985,-2.954668599892102,-14.036344099180496,1.3156920967376209,-11.019912578081858,-3.1888974416324345
1.6600000000000001,-3.212559982908715,-7.980702648485021,-3.712854430603329,-1.8838428889066563,-12.329811794994384,0.5272123925897176,-13.000314681090458,-3.9252421646706352
1.6640000000000001,-1.6501946119988133,-7.798229362761049,-3.4628737135990377,-1.4340466230187303,-10.295886317980148,-0.9196369026140019,-14.77798109773721,-4.827841188769526
1.668,-0.06898711962458037,-7.148944224667503,-2.146398978347861,-0.9716889002775133,-7.279984413004968,-2.313610573120968,-15.262490164685005,-4.844494295321056
1.672,1.6948213319865317,-5.637256791449545,0.16716923234162095,0.14579721575864824,-2.8394510354019076,-2.813424656378629,-13.929092291165944,-3.3650629412732087
1.676,3.7450701590896642,-3.2148864778700954,3.0934579304030194,2.1564788919240527,2.874479289143892,-1.9491092256212141,-11.168088042782983,-0.5927465825479885
1.68,5.9158235594622965,-0.3018074855881423,6.078863045777325,4.705024493874589,9.009860616344668,0.07527655743615469,-8.110952679451657,2.5145420998887857
1.684,7.732433661702089,2.3378776057752475,8.590838758905193,6.978044904632043,14.243830907779738,2.4653063556033885,-6.043639181460094,4.699765286575712
1.688,8.59377560374378,3.9324015190195496,10.275770239943995,8.095605992004494,17.263186964611123,4.258514496486896,-5.729619521656787,5.019907422753022
1.692,8.10232946080032,4.096635270077968,11.04724568986967,7.551155543389541,17.295567527218736,4.839587314188975,-7.021602496670312,3.293533823592952
1.696,6.348206085462152,3.0586283932061633,11.086439136708577,5.467383250132116,14.438920716222128,4.263275844274176,-8.970507897896823,0.16630314512076438
1.7,3.9731744072487345,1.5974690821485638,10.776422607954373,2.551995331132275,9.64851419806564,3.186445398740034,-10.328954997890833,-3.21200670822509
1.704,1.9323093588609481,0.6819203127315632,10.566215658473993,-0.22462989090672636,4.373880520232888,2.473204277590412,-10.163245687472227,-5.703520639473936
1.708,1.0509530795297906,0.9802587210524507,10.795695744808654,-2.0577605955622857,0.00503427356852626,2.7007997852560948,-8.261095330579337,-6.638957280119939
1.712,1.6026623816669598,2.5144238544180553,11.545677456682824,-2.624941150941595,-2.6130013919155317,3.8487155603670544,-5.145580725898981,-6.0078196739450505
1.716,3.1333665846977965,4.61920799127256,12.554644228932375,-2.1642634601048485,-3.418831564104039,5.322456955549569,-1.7776009095614427,-4.347517241527385
1.72,4.651455342189365,6.233902002049945,13.27004641045096,-1.2896365625274484,-3.0389001598668983,6.290722839246882,0.8649509010829206,-2.4325253107472236
1.724,5.083574672589748,6.3697388342552586,13.042429255104253,-0.6711289409849996,-2.437636897547236,6.123037359226146,2.1097815852917847,-0.9384364088546135
1.728,3.7741305786203156,4.529824559705958,11.411597863283532,-0.7389692611668579,-2.4863881726523687,4.693595968692534,1.718521600116219,-0.234579084233701
1.732,0.8147631837182416,0.9252117877422279,8.39179319133018,-1.5229943820577319,-3.6044010588375386,2.407614939067571,-0.1314657288694434,-0.3486015714042878
1.736,-2.9512948405308634,-3.603263966188024,4.59331415876477,-2.677944610662962,-5.6188805615138335,-0.025972276487664203,-2.9310533765419677,-1.0531047127969941
1.74,-6.26891861535114,-7.912794124878019,1.0665134762239177,-3.6699513642233796,-7.89178296775026,-1.9421614377024525,-5.958554158110928,-2.012007804320092
1.744,-7.984301328470792,-10.978718527171623,-1.1036039759710548,-4.026806347339516,-9.635455873654792,-2.987030810503711,-8.437703891602723,-2.915990445733769
1.748,-7.514125612850876,-12.242453857610599,-1.2851506995120872,-3.5510881960399274,-10.269126825867716,-3.193932077329009,-9.752525494239308,-3.561518032291133
1.752,-5.060031831101696,-11.745262503203776,0.3856224454320909,-2.404632371815751,-9.645654833893786,-2.8642490841502877,-9.691207287305588,-3.8780353053389263
1.756,-1.5030138438778522,-10.035802016673188,3.0310702719998517,-1.045944931136546,-8.075238593017275,-2.360176981825134,-8.605945767607409,-3.9121559931954835
1.76,1.970536436502698,-7.911418323876205,5.416703792850058,-0.04672700324590551,-6.152246843714238,-1.9205839490350627,-7.344865671580919,-3.7786476557448623
1.764,4.350763449446276,-6.105986742616551,6.524412984024821,0.145087595892619,-4.475760061831352,-1.5847480883203389,-6.911006099966471,-3.579340378037159
1.768,5.187590939940492,-5.048578894328784,6.024605699551103,-0.6054074348030554,-3.407650684958753,-1.2439626626037352,-7.957535008756167,-3.3303368113338365
1.772,4.7410512593514795,-4.752183551279813,4.417813698559257,-2.0496817792554793,-2.958821338515918,-0.7690475796589453,-10.362240797408958,-2.932052963617025
1.776,3.8383435623454716,-4.87339043630891,2.7557869552183547,-3.642889354532599,-2.8600327258418474,-0.1322964727805811,-13.155836323450785,-2.2253426392726396
1.78,3.472069672159705,-4.929576230521889,2.0708753097151202,-4.778383406623107,-2.781820364671148,0.5330007237917016,-14.919945291683689,-1.1323363672654523
1.784,4.318591372947594,-4.577377647540743,2.805597394171855,-5.070990829317452,-2.587124590701933,0.9754040871666803,-14.49179840220495,0.2017349613852275
1.788,6.401369109964435,-3.8143915237005785,4.5564498831427045,-4.540803343516018,-2.464203408101639,0.9501765422974131,-11.607899832088151,1.3706238228041911
1.792,9.064825398267203,-2.9827149472894234,6.287252348332004,-3.591998118115953,-2.8375246274990786,0.36956540314531594,-7.11044111900992,1.8465555871680408
1.796,11.28671711744937,-2.5678199002886686,6.887784397607902,-2.7870230431817618,-4.10444367731543,-0.6063127826055279,-2.571548654972503,1.2616041216970189
1.8,12.183286295899961,-2.8982403308109497,5.774031906314121,-2.5281719202066597,-6.336337954628107,-1.593391942915332,0.48222294575134583,-0.3161377428259584
1.804,11.467681715830622,-3.904389789688139,3.2156890500646114,-2.809841270922334,-9.110693462119343,-2.124232522204693,1.3286625372056733,-2.2837629907280643
1.808,9.611606264114016,-5.092279260081341,0.21168485098678502,-3.1890865699188,-11.600165219385417,-1.8643804667754011,0.3654776598450553,-3.6976866694531054
1.812,7.622348337714357,-5.754382104434626,-2.0025910077447406,-3.0053856547856412,-12.884135691295342,-0.7995986011701461,-1.191141980512839,-3.72037330929561
1.816,6.529799893064592,-5.326975331865469,-2.551743393369179,-1.7446061781320168,-12.345209508552216,0.7198924602744228,-2.0351830721701845,-2.0922947404815204
1.82,6.866296437870915,-3.6902334073784004,-1.2977176202848568,0.6638690201380086,-9.937370041004215,2.128141964243696,-1.50190435118202,0.6540135440300219
1.824,8.416251749683397,-1.2409335868305789,1.1817918981387265,3.7803111322682525,-6.188383758913915,2.9205907732430205,0.13006199733899848,3.401718627759692
1.828,10.366750985132967,1.30443323244981,3.962806142923,6.85268806874592,-1.9493420251710631,2.9166267055552453,1.9046289977377455,5.005719485539885
1.832,11.766641328286823,3.271696535769479,6.260179040243202,9.177141386831863,1.9775835825148533,2.3596579909935826,2.8100471012076014,4.9179583371878834
1.836,12.031495759948484,4.347098463321345,7.750780695024332,10.419184608931573,5.1266323291702065,1.7776629281870555,2.362664208663773,3.5270558711508784
1.84,11.19506969511076,4.658851801917081,8.572837893461838,10.713970131278984,7.426503100193258,1.6578202416276326,0.7966766696154082,1.9856901791972632
1.844,9.797310607591498,4.6070311972398486,9.069101447115827,10.524182601508073,9.053140873085795,2.138207845891884,-1.1990261614337214,1.6140120073432627
1.848,8.496632496078746,4.5647787831121605,9.47090770709292,10.355635317733686,10.201554352545827,2.9040992878217367,-2.975812777904139,3.1760927887680737
1.852,7.690523100020982,4.679913382765335,9.762539086431389,10.529482930828635,10.964836151629243,3.3820186253869906,-4.277163421704245,6.449638172685809
1.856,7.365503357021225,4.884959754530428,9.789767223185663,11.1223416290768,11.374407379351396,3.1234943820727494,-5.221823601919823,10.336020148874013
1.86,7.251654344402596,5.0863857086405915,9.508152009975674,12.069870477286713,11.53375445551319,2.145178812308586,-5.977094322417543,13.44786012698205
1.864,7.132163551203121,5.35013068801527,9.14759456214415,13.307744915296098,11.690221596229094,1.007247486488268,-6.407962226481686,14.840328183780002
1.868,7.037874809045206,5.892922543228451,9.122381450166358,14.796842096077853,12.121620071141479,0.5348237924081332,-6.018033388314507,14.457879480789416
1.872,7.203424614121104,6.887785729364623,9.749174452980697,16.421995688862808,12.910184990534617,1.3366824547283613,-4.2721365247016365,13.065428178944785
1.8760000000000001,7.80767174086759,8.209158723385372,10.950174788911681,17.851136382637378,13.758372511424568,3.412139057280001,-1.088365543004329,11.727983145592589
1.8800000000000001,8.722032711252723,9.35771290672983,12.19867504695685,18.53097642803459,14.044510538182294,6.101979045128246,2.8971868902808637,11.172562484613081
1.8840000000000001,9.493025881520225,9.678760221553603,12.786212805046489,17.901279716613317,13.152893943076378,8.43839299476349,6.529559792054897,11.421525268178812
1.8880000000000001,9.623640768292717,8.7926821839701,12.281414358973052,15.760336075932173,10.927618459821133,9.699267232066632,8.747454039017612,11.892586801925063
1.8920000000000001,8.937184144804633,6.938134821431049,10.865116094632867,12.525977915545809,7.935231106408082,9.81051396591829,9.210476662143265,11.821545145006894
1.8960000000000001,7.731229415703638,4.920308995358937,9.246451559604793,9.146981322958709,5.264350355836541,9.319204087059916,8.45407020476523,10.686589229959282
1.9000000000000001,6.554715183621738,3.6068213044518416,8.140150952410295,6.622992698305097,3.8927242269473936,8.934147356552785,7.400952897886782,8.352072596422659
1.9040000000000001,5.707056222244319,3.2381678610136078,7.60085275516667,5.357773041822838,3.955855229795816,8.91918562175124,6.500083822877059,4.884296381511376
1.9080000000000001,4.80980181754876,3.0198414385613432,6.68019669275418,4.749655099568372,4.396917906994986,8.747210714544053,5.086533858318944,0.24853645626353682
1.9120000000000001,2.842260680761683,1.391015734757275,3.7565612957241683,3.36673758703364,3.34760219063719,7.2945250825359835,1.4992297335602416,-5.796397541764236
1.9160000000000001,-1.236821526429594,-3.0433850653989793,-2.5112929311781045,-0.266832644072565,-0.8338489760781158,3.5366728117733146,-5.9269274661610325,-13.419000591444274
1.92,-7.592683097941517,-10.394729089817702,-12.090266655443429,-6.645397740345288,-8.38755484350213,-2.6408135503970698,-17.483005744412367,-22.185239559238653
1.924,-14.916372578718438,-18.896166508036004,-23.02359654960901,-14.620826242930889,-17.548981802370236,-10.030854884094879,-31.18169790133925,-30.666670477947264
1.928,-20.63562998985617,-25.33828556182607,-31.88272388583755,-21.580558337715047,-24.985753718642172,-16.41129044212721,-43.019540152165064,-36.57847776249673
1.932,-21.988683371258958,-26.45529942673602,-35.14423375313163,-24.495900041720233,-27.190778022036284,-19.48480125607057,-48.494593853330116,-37.55853698856572
1.936,-17.460461828510233,-20.6094524564769,-30.86191316498025,-21.369806106617943,-22.18540936953832,-17.98570336724879,-44.70234521383736,-32.26855993297431
1.94,-7.8026560148709905,-8.859449045789916,-19.76165954033604,-12.343257749954319,-10.65111313985608,-12.34784901520652,-31.915840928980288,-21.240687249111943
1.944,4.033542307641255,5.262994234379221,-5.12403711033221,0.1756414578658223,4.163146744633195,-4.543301249612341,-13.746714308635092,-6.931253668377394
1.948,14.123186360251111,17.234960349074754,8.557898958342776,12.467165720633602,17.761196167426533,2.8377087096187097,4.286965288914871,7.13881554175623
1.952,19.3756999794241,23.581213703274443,17.518209277240203,21.08596643113924,26.32841630049552,7.783781926120355,17.12491380301617,17.781718454422844
1.956,18.968924347162556,23.398614395599452,20.265771884153764,24.271370703252614,28.28702042078885,9.690331467095348,22.261169167411026,23.382247881718285
1.96,14.624720082756085,18.5781983879383,17.997171619489563,22.48938055385952,24.732279355016544,9.404885325815485,20.53757184468668,24.348879783682605
1.964,9.578414660682938,12.645999134485919,13.719065808392315,17.893779578046633,18.59897712946031,8.513662186956935,15.31135246449503,22.590560008111424
1.968,6.828621047499837,8.889743722961612,10.61203839703603,13.083282334705473,13.070750598491486,8.321635397375758,10.534367179343462,20.3523724799752
1.972,7.650073489882743,8.807989304826606,10.533801834420501,9.8778901841888,10.117296545721274,9.125492662557008,8.817686031110497,19.06354240320161
1.976,11.143665882743335,11.647763831042994,13.377908581307565,8.718161312858683,9.859296774566246,10.16667221750049,10.449765415332877,18.795631396451427
1.98,14.986076411310023,15.158648380983777,17.491101428487127,8.891909131130888,10.958307111198792,10.238444871144566,13.740192426274916,18.548083477907312
1.984,16.85994227608944,17.005362143166167,20.767713974825256,9.294591536695407,11.654303315287962,8.539052982038811,16.299544276623237,17.081058154180937
1.988,15.693803765609573,15.973665389636153,21.725633395628392,9.170955416863762,10.771587911945517,5.2428876573249,16.42093762674631,13.730233237627544
1.992,12.054921162380197,12.384950642162039,20.044081361793815,8.436425838303876,8.195063546770143,1.4670549966986073,13.836073339014547,8.764751310814972
1.996,7.585506744995655,7.6273057464181875,16.408055930221963,7.488560233928183,4.67521180757376,-1.323219439787863,9.55497482436931,3.166815540283096
2.0,3.929984638523365,3.2293974631083984,11.91835961902052,6.761422177595705,1.22693544573076,-2.09277261733223,5.055195572866069,-1.932489984366839
2.004,1.855530205497871,0.10370692621108901,7.518317689276955,6.400979421602642,-1.4239807035028207,-0.7419888727208672,1.440084857965303,-5.757092224224834
2.008,1.0606588956356973,-1.6558506306223535,3.738657083977614,6.266424670851848,-3.050166111348517,1.9205942941107423,-0.951039775096433,-8.057344323581674
2.012,0.6685729800146873,-2.4365963544305487,0.79228248786103,6.1909906511409645,-3.756799205964853,4.662578121983643,-2.3797642169165556,-8.93383486228322
2.016,-0.02079957308342273,-2.59429140809425,-1.194038881446886,6.231589606435591,-3.6775713743695633,6.453727833046287,-3.226133921919427,-8.53852520586679
2.02,-1.0647367417618625,-2.182422710336141,-2.0747521137650438,6.646257862961647,-2.817323479888728,6.8618521262542345,-3.5952459366308176,-6.949912223740284
2.024,-1.977317023467549,-1.0844429465532812,-1.8008537448095012,7.588194660132558,-1.1525413532704079,6.047543105198201,-3.289594700852831,-4.296617120141491
2.028,-2.251544133369407,0.6247029224755352,-0.6246172603587183,8.751741937856423,1.1291667178679745,4.442770168097013,-2.099583320383317,-0.9930588865181562
2.032,-1.866934038556792,2.445919396242516,0.8417006576373751,9.29357696066063,3.4998313452424554,2.3905300563210403,-0.13210954846272216,2.165375726588536
2.036,-1.4053033971285913,3.574773291079964,1.821430245234751,8.171022799563616,5.21630718601682,-0.009736104294461256,2.0942482713207937,4.218653814266872
2.04,-1.6777280119713396,3.3352257500841915,1.7428455230165127,4.756042517412425,5.662720862699189,-2.7812572642988016,3.872202588503569,4.496901022210295
2.044,-3.102994013885109,1.6485485044613597,0.5612399639917385,-0.6271377514112828,4.706257266643661,-5.79775374350811,4.706939912704911,3.063798404314184
2.048,-5.2888727932045185,-0.8077973869085326,-1.1949362219243085,-6.61651995498778,2.8205253165958766,-8.610701629217147,4.615239527133781,0.8268849390606192
2.052,-7.126095499426356,-2.8770254570854377,-2.6959302257555464,-11.295926125925234,0.8926861799629933,-10.53578346870745,4.1206646001046465,-0.8260316455516659
2.056,-7.353337651382844,-3.483713177368827,-3.2373268538885895,-13.022432517961988,-0.17615525385485853,-10.9613195565762,3.953216166925813,-0.6951709694230885
2.06,-5.254848628091622,-2.144243533793542,-2.564092493119915,-11.159533430608462,0.151728459107062,-9.703378679994785,4.637631526888072,1.606827332759167
2.064,-1.0762882214457932,0.8532221731779828,-0.9296116855339278,-6.336359916867423,1.8841097128890851,-7.176365074234127,6.207314239653442,5.4276581696358335
2.068,4.069742939513162,4.650858174313498,1.0950483886927032,-0.1306792072218741,4.574561106744568,-4.259721916225317,8.186610377531906,9.352006386581706
2.072,8.733753670491751,8.255812871659145,2.910205914229664,5.631038264073595,7.5554020283832415,-1.92032999541334,9.817683942686017,11.834242474124949
2.076,11.789191154365653,10.937377581760757,4.096045698234093,9.589266994651553,10.179556215847242,-0.7806064704145683,10.40539026764327,11.88915432352951
2.08,12.85122035495624,12.386784744499437,4.457141621238634,11.241642399217199,11.959613951918755,-0.8717511177651431,9.595951575335675,9.480874607490932
2.084,12.284528765194409,12.650162597104782,3.9702282738739996,10.901407624816784,12.616803758868173,-1.6803379896405204,7.500980325824003,5.465715059415743
2.088,10.873965890377349,11.962631960768931,2.742622581824662,9.34831119601995,12.09963545078972,-2.449333572589694,4.653317204831183,1.172815397910199
2.092,9.387715295174758,10.623975768496393,1.0378285012718607,7.4124723137042565,10.612079281860133,-2.57233067180141,1.8303732401027446,-2.1562278839978717
2.096,8.246448462241915,8.943807173366395,-0.7044458308762387,5.672354913272102,8.598130355616377,-1.8949171940967062,-0.20205787410395715,-3.8147734836461495
2.1,7.429610138497765,7.209326740722645,-1.9574264149673581,4.335369879810969,6.616110690015148,-0.7997781986359769,-0.9613523259422436,-3.813912192080352
2.104,6.586485509056956,5.5985748773159685,-2.3495021577596162,3.2480300653069207,5.089537687844086,-0.050769383788974665,-0.4574697979987832,-2.778659670104389
2.108,5.232040303195845,4.037510154161055,-1.9665550034301305,1.9686136439313486,4.030383492178544,-0.4717120310374412,0.7448203908516007,-1.6390869112610744
2.112,2.936617895253221,2.126905427839347,-1.48528979129037,-0.11086155973134737,2.9258703749119377,-2.5929658701470544,1.6856851869183629,-1.253411642984247
2.116,-0.5149034921328166,-0.7221880409338155,-1.9559752060674782,-3.5577956833781172,0.9402894663069219,-6.378432755635458,1.3957327259936392,-2.0742887176843396
2.12,-4.995427530762981,-4.930684015069573,-4.264437568903077,-8.612493194417311,-2.603802081377353,-11.138755974223386,-0.6271693648604924,-3.9755819511347
2.124,-9.956664243586147,-10.330503432507157,-8.530882174695762,-14.908594732135953,-7.691581144138354,-15.67993108334258,-4.066179705263494,-6.292890161262221
2.128,-14.466820764411068,-15.973077807508162,-13.83362160356296,-21.379074741319982,-13.37236469452796,-18.67681559349421,-7.808522284483388,-8.087924234489947
2.132,-17.422648390497443,-20.35285827209441,-18.489774833788488,-26.47519579305481,-18.017311626180344,-19.153766052651463,-10.393495374707982,-8.555534447058108
2.136,-17.927366761700796,-22.021907087163754,-20.811566347534153,-28.689461842205674,-20.013133722459088,-16.89336107473173,-10.696729527596744,-7.399001043220778
2.14,-15.701587225404637,-20.313779864331536,-19.95419743403818,-27.193191789568573,-18.563428458056933,-12.59710648136479,-8.531588109680342,-5.011471123709271
2.144,-11.329538692689312,-15.779347765582543,-16.385501492397225,-22.276414463110996,-14.159250761161275,-7.681068125737056,-4.833367248779723,-2.3532148610552213
2.148,-6.156970466029634,-10.055710167653615,-11.683432528081312,-15.321093314603331,-8.425615264068256,-3.742141245782932,-1.2785666652707732,-0.5504435714738065
2.152,-1.8325419678508297,-5.185218800455459,-7.743902811048429,-8.282458798724292,-3.3826368344971343,-1.9197190878749097,0.4991805120207573,-0.39705122748000576
2.156,0.3220329083010256,-2.728592754336205,-5.849437000107173,-2.9121629930245945,-0.5039313704685355,-2.4446774873840695,-0.3093578308744327,-2.0096320817588094
2.16,-0.17380307069925038,-3.1262263826017715,-6.1129761920242345,-0.09495293246823167,-0.07111009567552173,-4.594991925824161,-3.317642582279632,-4.817678897728001
2.164,-2.800338991009994,-5.6231045902072765,-7.5924293151947495,0.38583633846292287,-1.1641838699944174,-7.087652389498089,-7.181050113836136,-7.865926090061748
2.168,-6.324961181961953,-8.771759668955838,-8.978239325850154,-0.4389227249941996,-2.285119591752732,-8.71786705695331,-10.310697075198732,-10.26812645389873
2.172,-9.388660200999084,-11.199232511968148,-9.419441147277212,-1.3505159749786344,-2.2451387778980916,-8.922040985761669,-11.683440160193413,-11.578091683239109
2.176,-11.09631954351812,-12.214310519643618,-8.984606857365861,-1.5593961598281112,-0.8110756434452924,-7.960219091446561,-11.290273410530745,-11.878440178239543
2.18,-11.334112202133383,-11.963206181582564,-8.50386389831101,-1.0060867966449223,1.2374818299755361,-6.648217801147439,-9.999392269516875,-11.582153627516846
2.184,-10.696520968780533,-11.135493937333308,-8.948163650682773,-0.24767333497561594,2.62292643987837,-5.81747458697464,-8.953615877790526,-11.106623724583187
2.188,-10.108337034084798,-10.470638778037255,-10.753128653532826,-0.057190158019921,2.3309761812424767,-5.815003458460751,-8.856659694615246,-10.635637558161989
2.192,-10.329574810567124,-10.33970304231434,-13.482704161259335,-0.9619198948585108,0.20974920130061037,-6.319666504441557,-9.537936839274607,-10.076335694203635
2.196,-11.577765728095073,-10.616649120605643,-16.02729396133293,-2.961481090923826,-2.918605057738091,-6.568121695636137,-10.03039107317477,-9.187315739009136
2.2,-13.441962727284476,-10.849734952960034,-17.194947462800656,-5.540869736050354,-5.668916931333115,-5.84334892402876,-9.111925299955146,-7.775208151331299
2.204,-15.101301518365062,-10.57145927077977,-16.337321555802987,-7.921482272656704,-6.7785529843848735,-3.922182436785988,-5.992143116740181,-5.81593285204508
2.208,-15.721130456628202,-9.559551527051553,-13.66565901379272,-9.397211670429897,-5.6997442790027435,-1.2282122062101735,-0.7835324124885119,-3.4472049958171738
2.212,-14.835380807225647,-7.914561307723034,-10.104681620363408,-9.58932514107778,-2.798829565773076,1.396880358461658,5.469440862517558,-0.8796594817388268
2.216,-12.551140177277034,-5.9744442328337755,-6.818459085203131,-8.53693857232065,0.887139047440769,3.1606916240464216,11.217850835430454,1.6800745858317896
2.22,-9.497212495245094,-4.155327228305509,-4.685001776591889,-6.623010613415772,4.170986503397899,3.7329267717484527,15.056462557955001,4.0248923819906395
2.224,-6.543696029199168,-2.8016233789483067,-3.973492003676256,-4.386434830143571,6.238231751275521,3.3851070625346438,16.29052792932839,5.892611181120628
2.228,-4.414790241333208,-2.096564520414404,-4.341595031113002,-2.3084675874813456,6.918939195531038,2.781950176261944,15.174885436196746,6.948418441689228
2.232,-3.3715627317153576,-2.0110523353364442,-5.070827389158353,-0.6467005941146908,6.634977242938589,2.550632630675409,12.73753469358644,6.873698292465178
2.236,-3.1094169756518113,-2.289570473818685,-5.3883061885790084,0.6316852496587444,6.094483214180968,2.8943169334870618,10.30211899141409,5.538121243735532
2.24,-2.921553351394323,-2.484444953894922,-4.7284319853944226,1.792001461268228,5.922402551640744,3.4714588774093045,8.946761885006936,3.1581010945335493
2.244,-2.06262282886928,-2.0757642568255505,-2.881358437148947,3.1585228517831183,6.393673518659057,3.5978194007152524,9.115508831699117,0.3101328591305901
2.248,-0.14721177918841022,-0.6840993447841583,-0.02868107341691939,4.894878037692024,7.361456755397967,2.6627299998649505,10.5197530884451,-2.2562307064563356
2.2520000000000002,2.6114579702266383,1.7058269595523825,3.320571290699661,6.838840478940938,8.391428326852406,0.5182273730677025,12.356661313639961,-3.9228130345163663
2.2560000000000002,5.453385235093947,4.628186992072813,6.453834388413043,8.476898299923732,8.989627107190927,-2.377022772261512,13.707088101966406,-4.463061169612047
2.2600000000000002,7.396918488021356,7.231346891368673,8.636514982107826,9.097691593602917,8.813860136242283,-5.132678875803322,13.933378823698717,-4.101758541661752
2.2640000000000002,7.657920720026937,8.572623817970339,9.30739207841168,8.06615633964384,7.7715106852091935,-6.8320487835250105,12.91299451034024,-3.340910461639851
2.2680000000000002,5.983873276280178,8.010248526381645,8.239152324612519,5.112517847175695,5.986777453003128,-6.969341678366163,11.031207058407063,-2.6460939686580787
2.2720000000000002,2.752200263845623,5.521455712466604,5.611600952848107,0.5119414060059171,3.7023001866290315,-5.696817856176267,8.956922277541139,-2.174316113077566
2.2760000000000002,-1.2135918349466692,1.7442839600893194,1.9317194711167076,-4.951193026985948,1.1549479572931887,-3.7503127814767367,7.317778403615762,-1.7144460559132995
2.2800000000000002,-4.991224217329091,-2.2750855268914734,-2.144537484955947,-10.218133261333605,-1.4931747269075686,-2.0966565205326333,6.433109340745887,-0.8564480129717822
2.2840000000000003,-7.881363998095367,-5.504983702281038,-5.9991373546811815,-14.286248904864465,-4.142650019256962,-1.4718238758810003,6.220450940694263,0.7253365038736774
2.2880000000000003,-9.589834507374633,-7.346372297333289,-9.18256853114434,-16.52139144373541,-6.706949793265892,-2.049629904552262,6.292337180312188,3.0264200981232534
2.2920000000000003,-10.209643582719195,-7.8180258950844745,-11.429298124680656,-16.81415669097362,-9.051030559823062,-3.396614715253918,6.188773269180501,5.65822265208908
2.2960000000000003,-10.069466584310135,-7.453661320488322,-12.619430991319973,-15.552524360318614,-10.98666257817277,-4.727613061190823,5.605189053859078,7.987119712914591
2.3000000000000003,-9.540890444984313,-6.970821194795661,-12.733077849200527,-13.43070344762242,-12.315226303504431,-5.325409214960246,4.532297453688216,9.390514507813293
2.3040000000000003,-8.900433520371735,-6.898581235472108,-11.856196392180891,-11.182026268771892,-12.892546085387806,-4.9153586232846465,3.241530024007659,9.489406530217138
2.308,-8.282301752034869,-7.350618074974193,-10.225284151745143,-9.330252441437324,-12.67228446227557,-3.789276877267639,2.1441114235904024,8.254010804215568
2.312,-7.68156706995137,-8.011941052242094,-8.226525972760669,-8.034729465633689,-11.686728109573977,-2.6113677282469325,1.6064054846158342,5.941698720360364
2.316,-6.974854107227429,-8.31838781186417,-6.299634656989156,-7.0687089859900425,-9.979686839244494,-2.0153446032037436,1.800264560779226,2.9525613193701474
2.32,-5.954475333683206,-7.711913164093858,-4.754675299735368,-5.936503912386854,-7.544091945037849,-2.223877437130227,2.6394403274291562,-0.312662426625252
2.324,-4.4036501173721945,-5.857880088940249,-3.6034421574258886,-4.106046354971568,-4.327614294517218,-2.9060380019175227,3.8085582436624463,-3.527260385606496
2.328,-2.208304092628623,-2.7549744021291076,-2.5338940844334275,-1.2792581842451796,-0.3253561916299077,-3.3783010090453445,4.8661780320587695,-6.437169144138693
2.332,0.5377813129047126,1.2851354076374264,-1.074641615257974,2.4161945268572254,4.297596003284582,-3.025979647180179,5.38940363393624,-8.818381208303208
2.336,3.504378864564842,5.746439803734916,1.1194426600191605,6.40805184099338,9.140216562069497,-1.6924110552818092,5.135333912301235,-10.445594272041944
2.34,6.199119675844429,10.031690735098607,4.000866369056155,9.854374795307649,13.605448846064633,0.18181450099734775,4.14378855676614,-11.119020105684285
2.344,8.159250384277357,13.580508144133432,7.049145699510461,11.9682927557418,17.060551326191728,1.7829835570222485,2.743954456139818,-10.72697935410838
2.348,9.144829183112336,15.946953920507838,9.433162811437342,12.330924628310981,19.034681381306143,2.3860226899167856,1.451950321659865,-9.32238059022302
2.352,9.240156692303685,16.867736369455088,10.361564176008585,11.059541469635064,19.3674898505123,1.7851309714873196,0.7733634345363498,-7.158389295971915
2.356,8.782844908418156,16.312262599305996,9.437002034207637,8.732188596492051,18.224021883203648,0.42811558532764593,0.9880974159957532,-4.658414092655335
2.36,8.151175005551352,14.50842390073143,6.837690836250772,6.1040523240308175,15.985354803767848,-0.846771267960321,2.021039672213533,-2.3073505164479684
2.364,7.5470889467229085,11.925050686495979,3.2446859715867618,3.773358655365655,13.090106186547757,-1.3178813418335267,3.477431751124186,-0.4883108523503097
2.368,6.892029309210102,9.168713583583212,-0.4495605053332383,1.953874114300902,9.896405409579131,-0.8386306378649806,4.833228626005507,0.6511189882249937
2.372,5.920975980678975,6.826947220832665,-3.479777515546516,0.47854998779178004,6.647621704563562,0.04635177004070101,5.691622421714783,1.2366414043196983
2.376,4.420692841056734,5.287778348980055,-5.448682369013056,-0.984153733403673,3.515605307372425,0.42336450462994435,5.958665730902453,1.581774078382864
2.38,2.467311410115542,4.612197158583797,-6.369912565771301,-2.6350371111930144,0.6765321089370673,-0.4164923308169364,5.8528896569491735,2.0027582100968857
2.384,0.5105665388031184,4.533040167463355,-6.521978217128037,-4.348318593781869,-1.640112409442395,-2.4859729116714107,5.757673921318656,2.6210227419866214
2.388,-0.768024184468004,4.591323069048144,-6.228696083667614,-5.688767325621939,-3.1783627481598273,-4.996390658756013,6.000431057865171,3.26752399969007
2.392,-0.7170451819407617,4.3995934392939375,-5.648895981210046,-6.095737144376244,-3.7008444120291983,-6.7233221029893,6.711953198547008,3.5797376544936697
2.396,1.0219666464787451,3.8865039073263006,-4.686086411446979,-5.143977290919679,-3.0384656171754614,-6.660166683113857,7.831626266387161,3.2409235278854567
2.4,4.3693631626682645,3.389971863593928,-3.0463526345621403,-2.7408664130023226,-1.1197939088218618,-4.5969962360566115,9.22839488417992,2.2165698456987
2.404,8.844362792726201,3.5219831170849147,-0.41900210382362957,0.8309255073779696,2.0106512737534104,-1.2927445748516675,10.809138489100178,0.8262350662009794
2.408,13.724451847146042,4.830208476231064,3.2908869119646624,5.010578067012261,6.155517651337675,1.8549222373774228,12.524232195713353,-0.4227682632192682
2.412,18.23687696968068,7.431325724926069,7.788025217260724,9.123356721994583,10.919818375397483,3.471000372969911,14.247020417348608,-1.1661004435472933
2.416,21.713198001815044,10.819064438946043,12.359518880042856,12.530633728909834,15.69368495693044,2.8477516639777605,15.649751382453701,-1.479249008204306
2.42,23.69025434661171,13.9945549862407,16.04800403993829,14.736098966195641,19.731167226758714,0.24062874138621737,16.211399800312847,-1.9196337529119774
2.424,23.983142516286534,15.900579469625086,17.98585781362135,15.461557627459001,22.341841292465915,-3.309267631363582,15.423111536611032,-3.228466037326598
2.428,22.74234107836662,15.952578230753147,17.76044642574243,14.715172319752583,23.13664216888253,-6.484588760383076,13.114660757194315,-5.822545786604223
2.432,20.463428582928145,14.381417828805866,15.637288376691913,12.839532921513182,22.206702293805847,-8.254890674772696,9.692028191179588,-9.375716995125458
2.436,17.884541885713134,12.161490137593205,12.488537444907251,10.47663709654023,20.101572630646388,-8.220376355373446,6.088281718029407,-12.789337949836181
2.44,15.749727012544554,10.524405117111769,9.41477837768366,8.402773790176411,17.577831959887476,-6.611319972717411,3.3795183972977156,-14.624788247025208
2.444,14.506928719355301,10.29408627187263,7.212137752405511,7.240600861352846,15.2154011179922,-4.036331829531491,2.2193273086604677,-13.813820283015275
2.448,14.092447014828167,11.406497885061299,5.961429774229828,7.172384530487875,13.109569958923203,-1.161911022295726,2.4382517938593082,-10.250624666682143
2.452,13.945564472081742,12.909762961473461,4.98844991786018,7.816256875812087,10.840149342390646,1.4991647606586866,3.0870907836986134,-4.9107818481058985
2.456,13.288326990089786,13.461983579751063,3.2378712731854193,8.367398424539033,7.755555591112625,3.6280853889422815,2.933697910171759,0.6073113927668601
2.46,11.541321245003928,12.064959521070591,-0.10705724421200102,7.9745375215211425,3.4337616417374193,5.031519134585778,1.1765035608229937,4.872911871428187
2.464,8.667945037947334,8.641185523884133,-5.075624493487226,6.185974899363828,-1.9242606471950694,5.591049782885875,-2.017855830497183,7.30387027856591
2.468,5.249135629980287,4.1204174276959975,-10.743189384513244,3.2328572192806178,-7.4117617580399155,5.290620119212917,-5.48234660795697,8.34690378955952
2.472,2.2262464048754964,-0.01198584252767887,-15.563190101348368,-0.02492848236829559,-11.714117957538633,4.292543394705035,-7.599511738773572,9.049434416450595
2.476,0.4439489760231936,-2.4588302164942206,-18.04069074170036,-2.482577891574465,-13.651218305875886,2.9632032986478407,-7.150992779149874,10.289679958439365
2.48,0.23910732064769036,-2.7339367746185417,-17.397544169511548,-3.3068576766931983,-12.677370653107232,1.771715954545698,-3.996538227557494,12.138652048378617
2.484,1.2947262375843138,-1.3352677341180197,-13.90473264376908,-2.3144714136963103,-9.08879568364091,1.0936556985507195,0.7838933311220444,13.754550655166213
2.488,2.827369999421876,0.597378473015624,-8.728235843265225,-0.01640422891387061,-3.8522341955675756,1.0166227677011648,5.372469052747192,13.887579455784135
2.492,3.993009599566676,1.9296025049472973,-3.3892696682104315,2.6876410035140452,1.837842753971131,1.2676813791906625,8.068057903879662,11.692146321325254
2.496,4.260458726850061,2.100080225179113,0.8588215435499933,4.969706771289111,7.014427742973339,1.3465813077332314,8.061947377220577,7.362133346284736
2.5,3.6024901094783672,1.3342031437588275,3.448172096377789,6.450627949349837,11.197728551905243,0.8168909837247611,5.756198428332482,2.200813344476728
2.504,2.4429778100644626,0.42920806974007064,4.542891291887827,7.293154429628203,14.366370103346071,-0.40569361025359285,2.479233760309171,-1.9392251722554192
2.508,1.405699189160373,0.2576082802243036,4.746986176556334,7.973071751216139,16.706654556040235,-1.953437369283165,-0.22301775589380668,-3.556307392250801
2.512,1.0321520849116723,1.3002795750145424,4.692856120750889,8.9000162668749,18.34416561461296,-3.172924475531545,-1.3334527250133306,-2.250433693361856
2.516,1.598654880003437,3.4371490001633447,4.718845980678452,10.12155262301576,19.208401800723323,-3.4789971559000605,-0.7938445930665239,1.0742916051169686
2.52,3.0672885942351513,6.05806961220037,4.768701720116496,11.285417779891759,19.09217515674993,-2.6941685836675333,0.5713531670401153,4.6583166394184445
2.524,5.144700283524571,8.381577568885746,4.5101027036160986,11.875051406198963,17.83246327888037,-1.1585914652289375,1.5546069584042925,6.744514962706944
2.528,7.382484251533583,9.782942431122592,3.5597085008934073,11.553983082730383,15.470151764029879,0.4527634125215627,1.2069712649010853,6.394656819542433
2.532,9.308074807959088,10.005577269569358,1.7022044763267559,10.416751343141414,12.304805822157391,1.5233051504876585,-0.6831049722295575,3.881361451841258
2.536,10.55468091118371,9.183606441498,-0.9950244382721394,8.987479330000042,8.80846411123423,1.8811481165348596,-3.490350974525427,0.4975889780575926
2.54,10.96339694878634,7.7088027569616315,-4.196747394617887,7.957792882563126,5.446292054030664,1.91500452889818,-6.067244738156205,-2.0810687602884173
2.544,10.609081268854197,6.023758686117276,-7.439718017916107,7.793663277548603,2.482083253066776,2.3303328961580974,-7.328303104299266,-2.579433452098783
2.548,9.703706776379931,4.40530254743021,-10.352352814661913,8.411299791324154,-0.16066338879500108,3.6649331748753866,-6.8473863202500524,-0.7088692941770205
2.552,8.396388830134129,2.8127976500591103,-12.857640450292593,9.107006519674542,-2.908466701013026,5.8260407256188955,-5.175094831280376,2.6901581585982512
2.556,6.5789314379699135,0.8537383121948778,-15.26714139276362,8.786988375725514,-6.406542834380048,7.9401004426490545,-3.7138967049772873,5.971370990026344
2.56,3.8425906592478896,-2.08102171864914,-18.177755728287366,6.409405290092309,-11.25739233754814,8.651196824771432,-4.167205056091234,7.320428132691177
2.564,-0.31398455714384,-6.5044572302231245,-22.15364027074645,1.4554808317141124,-17.679458730636043,6.747854978061241,-7.751189723084053,5.471893167755752
2.568,-6.0616160911893076,-12.434452199844486,-27.297936142619278,-5.755186335076132,-25.208660330491398,1.8429118423805448,-14.49941307239078,0.23509092109588892
2.572,-12.826041244142289,-19.100151989389815,-32.93356861409916,-14.041439265706686,-32.59363944345773,-5.278468555057771,-23.024872936238125,-7.366200641451087
2.576,-19.17489133466529,-24.96945766138265,-37.61857144016335,-21.653979484435922,-38.02087555963567,-12.845609120404333,-30.89807392121793,-15.414191039632442
2.58,-23.174019208499658,-28.176619733253574,-39.56755141355029,-26.773225128028116,-39.65244400188021,-18.743854799080054,-35.518330012422894,-21.76699764340674
2.584,-23.14330617074097,-27.23515440771257,-37.35523151522057,-28.047682914387906,-36.30827872012935,-21.33861331189655,-35.13313567661089,-24.82042797308577
2.588,-18.481384269290402,-21.747568411650718,-30.603735597330115,-25.008078509347115,-28.024303377478304,-20.09427554280137,-29.543807424397755,-24.06728080155881
2.592,-10.113423239262602,-12.724213815298299,-20.28044071452905,-18.206488005186884,-16.183319678896396,-15.70685958548438,-20.154921495411827,-20.193777451017013
2.596,-0.27416082946569986,-2.305787270870269,-8.431350857507596,-9.049685040642771,-3.1198529102936163,-9.71755341808921,-9.35024006972867,-14.688010142673647
2.6,8.31705563136984,7.025665263473456,2.556862296373083,0.5982378267785862,8.667251524417907,-3.8314816865936336,0.4829843587945106,-9.162937066023005
2.604,13.536214238680714,13.408298598868214,10.834552333639294,8.931549937104137,17.365787818062927,0.7193961994780693,7.819569733821254,-4.699219023217211
2.608,14.661077250808148,16.25664187085681,15.6830487139066,14.663836591790187,22.36780124915026,3.4955585464049364,12.348413675622396,-1.5206065231291177
2.612,12.523610531043914,16.30491960929021,17.56365214041466,17.301619610802163,24.24440466701344,4.75596469328184,14.710666765548012,0.8627082066200273
2.616,8.96232373092289,15.034743407575434,17.63594654225608,17.14790896660611,24.219067034269074,5.077086815662824,15.849193234829272,3.1551449381636303
2.62,5.897295344472013,13.824356957416967,17.056484654696987,15.064417491744734,23.453867845951663,4.945033699124451,16.385461024327924,5.7383230352265855
2.624,4.495448622241838,13.278537041270965,16.43840355043767,12.088606102507356,22.523239071603484,4.5370585651171496,16.365769378838195,8.404304242174476
2.628,4.80437367802665,13.060421193496268,15.712705482785623,9.043117378237866,21.30580146479815,3.7730650138305464,15.455433381035618,10.49258935953867
2.632,5.9685855042198455,12.273459995894427,14.408550300706793,6.294826474671709,19.29623497306102,2.5511446386653915,13.40215920272476,11.337690354793722
2.636,6.804765046378861,10.105220143085717,12.106783774151381,3.7342563956228787,16.083764468895424,0.980486505191493,10.417159785770764,10.75000623502774
2.64,6.403317339052819,6.359453990026395,8.781931482457821,0.9817637989651757,11.704172698740194,-0.5489894098909645,7.219654692897166,9.238962674843151
2.644,4.474245728945789,1.5940842833015267,4.852370777414535,-2.28193454897405,6.675557762326662,-1.5027589990313572,4.723262280160725,7.843073119437577
2.648,1.3607485446125338,-3.1479660925476765,0.9827378583324844,-6.005001081423416,1.7622985786856589,-1.4552468507440608,3.5960367480224704,7.671363549252419
2.652,-2.17102193931737,-6.803359506383231,-2.180928274464577,-9.626877296236216,-2.33387882919601,-0.32936156778714576,3.9666796881092523,9.399010353009544
2.656,-5.201620527889418,-8.6790971601406,-4.182865111630235,-12.20072264556029,-5.166055577874886,1.5244620964158457,5.447035311952277,12.968643942224844
2.66,-6.892952418187633,-8.602652790848879,-4.783207278461077,-12.756836545591796,-6.542134065045275,3.4495384137740075,7.410896913687338,17.60841842678883
2.664,-6.683324893916961,-6.837746376279711,-3.907277592911896,-10.757336165927427,-6.399905658734724,4.744656730898441,9.31744206805979,22.118071273810983
2.668,-4.450509808639254,-3.8917243270004747,-1.6260354715286667,-6.414386400072999,-4.714813294740907,4.950818746724053,10.876017421825509,25.268569982759345
2.672,-0.6302495676929993,-0.3560939416815927,1.7814133256956666,-0.7069599593528437,-1.5422526420679787,4.018593296456402,11.97429101969874,26.14564977376085
2.676,3.7822330039812186,3.1629792644791905,5.743606787875478,4.9377346489704905,2.8331995170678965,2.2941683639487565,12.480702024884977,24.35521708033275
2.68,7.463434188243809,6.091531771390237,9.431788110665138,9.181528806947881,7.782386507968113,0.3461582947879833,12.138606726833586,20.0855709025509
2.684,9.22665951304225,8.0001960796601,11.99666784275746,11.290338225273445,12.410346572564777,-1.2803554460315354,10.673367604174928,14.07294907908863
2.688,8.56268300280908,8.780102419217883,12.931179066474215,11.39039386047807,15.849443857191773,-2.2846099728726585,8.063080357174385,7.485679055901528
2.692,5.952662254756433,8.76010490984413,12.357124828922224,10.33033901958379,17.62419935456228,-2.7072398479413096,4.758535261797078,1.6907149548796951
2.696,2.718642530342777,8.610018687011689,11.017085518414206,9.204159961953337,17.85983075681247,-2.866429215482185,1.640040551518723,-2.1007135297304558
2.7,0.42202645831252994,9.01437478568414,9.920335981075368,8.787977942680754,17.19099948975554,-3.170489952383832,-0.33929748549417127,-3.2248292378058068
2.704,0.09016983128299216,10.25652107516612,9.803038855590785,9.181062092186494,16.400160940540218,-3.8824391284697413,-0.6603189218740226,-1.8438401567468645
2.708,1.6618788662487987,11.942743211875495,10.69538687561203,9.817602002868625,15.976053790423975,-4.949374820965659,0.4165158578834962,1.0553341731470027
2.712,4.008584693194052,13.109309661836505,11.878068578130978,9.8510529438081,15.866016090287985,-5.992535567595496,1.9153539889593958,4.0136904636869986
2.716,5.556278026063865,12.71794683412486,12.274961564452042,8.694658285065998,15.563222518994735,-6.465425088678785,2.6306256619036503,5.718856782601506
2.72,5.169623932085187,10.297716599194246,11.084487236376845,6.423168738891036,14.478303143245967,-5.9117010814825335,1.8012698291040579,5.6228948427642536
2.724,2.7916269524737345,6.336496818677233,8.271456149119103,3.790193634161369,12.340767901773916,-4.215526681675328,-0.42395393089100253,4.22999976358733
2.728,-0.5391903419208575,2.147360002795267,4.622011454433277,1.8544683467998766,9.375990465116729,-1.7074670858169156,-3.030057754790505,2.891403204809194
2.732,-3.318559195905209,-0.7656501025617217,1.3249960553416713,1.417291980911159,6.158184640690024,0.9320987403793879,-4.6920382159364635,3.1374195362955106
2.736,-4.486843726089091,-1.5201514310313087,-0.6852450921383024,2.5694092274820832,3.23484576681426,2.939550051461083,-4.5397005200175045,5.854452267169108
2.74,-4.044299609158315,-0.347664554767789,-1.2149904435107146,4.625082945337681,0.8045502556653901,3.7893018807462795,-2.6756423117499253,10.75271889339956
2.744,-2.982178731089334,1.5618592955609074,-0.8300201916104015,6.485334942887903,-1.3182242897566994,3.412112720920959,-0.13141660391056575,16.404109234410953
2.748,-2.570481563554722,2.7906915611727072,-0.4079960322253555,7.228803606308929,-3.4366126888119197,2.2111522449363292,1.7303052470374496,20.862692931988477
2.7520000000000002,-3.448307393344976,2.5847115324215792,-0.510819458000924,6.596928761511435,-5.580874219999032,0.8650427688376112,2.0177575098327907,22.56077273880601
2.7560000000000002,-5.105817618581341,1.3436714425511127,-1.0004041909298849,5.083170495375043,-7.310171175375672,0.007391367297714169,0.832049713163542,21.015018460885585
2.7600000000000002,-6.115546898909088,0.3873090786328248,-1.1405420977566791,3.5813849617661617,-7.881333596237255,-0.04257660335633773,-0.8070578426004431,16.978706589702597
2.7640000000000002,-5.005505479957037,1.1164215775806952,-0.1273461160685656,2.801625782073188,-6.715102001293417,0.6094446342003721,-1.5994320403460733,11.980368662967066
2.7680000000000002,-1.270265032782845,4.055189073493921,2.281712521594727,2.7868665747207615,-3.8915222337222986,1.5086706436786699,-0.8022661644627078,7.503863338155043
2.7720000000000002,4.113944387818037,8.388818614271031,5.469329126381808,2.8424077002387094,-0.31324377022474437,2.068783626448294,1.2469664147674848,4.27361204037561
2.7760000000000002,9.045069066321048,12.31851422601676,8.20819295348042,1.94187455525298,2.6208809286110863,1.8361945431579443,3.262118532833483,2.0326803548778116
2.7800000000000002,11.363352545335147,14.066099580439186,9.348656878663178,-0.614621131285503,3.7000053384190323,0.6751993424290959,3.7419873095050207,-0.07860400482013574
2.7840000000000003,10.030761902559334,12.941666365274614,8.529366984070975,-4.677820534418061,2.561547557186941,-1.192176729662151,1.8764198595167727,-2.797275704901949
2.7880000000000003,5.7208067334070165,9.794209346406888,6.438379426947677,-9.205180346197949,-0.10470752341325351,-3.288883710384198,-1.9285558532983487,-6.13656930708612
2.7920000000000003,0.45951673017953,6.551040840201722,4.4435791272023835,-12.758744039934754,-2.9471443571371765,-5.0665608032745695,-6.241016797614975,-9.295902334792117
2.7960000000000003,-3.481458613596942,5.078715643205214,3.781675012392043,-14.282589884131085,-4.749775037867948,-6.103556111755552,-9.406642326393921,-11.148611099611571
2.8000000000000003,-4.810903824433808,6.03213951221278,4.792600474288065,-13.710064191745914,-5.1688984081033595,-6.244990817602229,-10.502010318420162,-11.008952973002124
2.8040000000000003,-3.850039650038525,8.405796165261108,6.672254420117724,-12.027876252349643,-4.959965922436822,-5.643830977488506,-9.856930819095396,-9.191062670116935
2.8080000000000003,-2.2221149946853984,10.068449712293841,7.907619051069105,-10.72902864147045,-5.54929113919934,-4.693466602794615,-8.820946339355487,-6.963355536533527
2.8120000000000003,-1.8266580252015956,8.991739361964164,7.1531321443283105,-10.954059755865728,-8.182140037440831,-3.8689109419242413,-8.90200714496359,-5.871645790747152
2.816,-3.7051003543842853,4.466167806646581,4.0247382941061005,-12.811460024947792,-13.153341499637463,-3.521771013311991,-10.786528762313083,-6.806568951044483
2.82,-7.475278556481953,-2.423118568910695,-0.6715431844816067,-15.287045004193715,-19.58110002087119,-3.7166297534831756,-13.85015572452403,-9.366125789540092
2.824,-11.646420468526003,-9.345360013294794,-5.414832157736555,-16.82381918844885,-25.855869128000677,-4.184684192782697,-16.468337052428296,-11.951544827223188
2.828,-14.565298395547188,-13.975683313601849,-8.851661519761592,-16.24800039668048,-30.492429175106167,-4.434616488862503,-16.950593717214133,-12.59115682873562
2.832,-15.380875789396441,-15.204335942535863,-10.526962534936047,-13.488824850794572,-32.85754693291585,-3.982358621853564,-14.552796164527535,-10.041918475176772
2.836,-14.416681831108008,-13.60576303097855,-11.014455663686249,-9.652903319215739,-33.34232218843272,-2.5905287169330222,-9.950872910533235,-4.538310978415666
2.84,-12.755461026971489,-10.928498868845736,-11.37006868736421,-6.391260494335938,-32.89113940225741,-0.4029695365484258,-4.8871565803588055,2.2599482191744755
2.844,-11.353029615583239,-8.948763827436721,-12.266932241484312,-4.922380518445038,-32.20846742686808,2.098069804951706,-1.2018439285294562,8.106839731164087
2.848,-10.281455730450944,-8.405767775787524,-13.390628879563678,-5.288576473935564,-31.17398840288979,4.311815303800245,0.1768316177098086,11.317932621505065
2.852,-8.626485435435825,-8.659032890584513,-13.510715500356582,-6.303307300486495,-28.86141108686411,5.804555554154376,-0.3175089576775463,11.56528955580552
2.856,-5.137840874154335,-8.254033319180621,-11.229691313729404,-6.248288275329969,-24.186324861111757,6.507469984554973,-1.2540740155384356,9.87146535584543
2.86,0.7965269629364684,-5.986210209347291,-5.960429359086106,-3.912111996911108,-16.780414860318388,6.714983061579005,-1.143822126851319,7.836055066851486
2.864,8.473538231507746,-1.7784882488451785,1.489903724435976,0.6444327944050201,-7.523911242124655,6.887800802629954,0.6359356275797836,6.60559256914712
2.868,15.96683123627895,3.1824181288187674,9.138662384648228,6.0600250204317945,1.6388126745792988,7.3806015933789695,3.505611361968022,6.2474250839770775
2.872,21.0128088075071,7.143852292924635,14.774829713245254,10.417026359538795,8.556272641516216,8.246924711467273,6.117307257051607,5.893858470194118
2.876,22.19489897708661,8.85873954467229,17.100453019508905,12.32120555612687,11.92002174681852,9.228587697542252,7.264056135190231,4.532001474837443
2.88,19.72003926425532,8.339725063463675,16.39553031166531,11.671999024205206,11.894625840520234,9.914052813360286,6.676794237585227,1.8879097659764739
2.884,15.322873656944921,6.821339602894682,14.2949982585842,9.663664623715931,9.94744744442346,10.001849256036166,5.192264869173869,-1.194241857793486
2.888,11.330149924653256,5.942668861957031,12.787488887071731,8.009931862529811,7.95787507604814,9.485642795067633,4.191546082373179,-3.1570583758862085
2.892,9.409706892473423,6.671810551581757,13.025207854007704,7.861870836041589,7.123288658218826,8.640743711495361,4.691331779013353,-2.6879630073071894
2.896,9.715084898114696,8.652919179924993,14.649680616900241,9.0895940285493,7.299959107369773,7.862494395799786,6.664428643938436,0.40536534050943374
2.9,10.914455323251104,10.39129533076084,16.033244445736727,10.369789941285944,7.1634689173279185,7.452038111806132,9.019575888669806,4.960811581648386
2.904,11.066873759186933,10.174247469580223,15.299417094349565,10.037922694696817,5.091945888799387,7.481413852409787,10.270483349202323,9.060552874147106
2.908,8.826905593251354,7.163550828537836,11.522943709571791,7.199187529842675,0.24643756384443805,7.812538835840314,9.47793837582799,11.122511178641162
2.912,4.288127154772383,1.989043747891401,5.3943764627299515,2.4208029425938093,-6.788933848931038,8.230900187217458,6.859608217969935,10.80670301462169
2.916,-1.0301497055487516,-3.5410128710120716,-1.0628592437292355,-2.4514421888761717,-14.200002159188102,8.590587559404412,3.678717444902304,9.165244045188274
2.92,-5.007794096298312,-7.425564340568485,-5.548132650631146,-5.263793740911069,-19.84135232228755,8.867847668810782,1.4860148188461153,7.9433764195125605
2.924,-6.085902084075201,-8.5694389673979,-6.711824568962129,-4.764870454470611,-22.31711334094325,9.094480239865334,1.188173388041605,8.451913546840615
2.928,-4.111101207871343,-7.347702098617219,-4.8560439763678005,-1.354506182386217,-21.629867621331982,9.251921908259874,2.529011236803626,10.698917912101706
2.932,-0.39386839593566947,-5.295601873316741,-1.707831012938982,3.0809107967479576,-19.02941444502335,9.222916161088506,4.306262728487127,13.311654145208195
2.936,3.0175584899291152,-4.141600490104338,0.5742615824008226,6.156972914191897,-16.197164438083746,8.848918851620965,5.165262271943448,14.291540504967088
2.94,4.403198282354538,-4.776792417252977,0.5867235605790029,6.251599666407174,-14.267330392629674,8.061768016171754,4.465074758381888,12.156583751093876
2.944,3.2037233942850207,-6.763326723876503,-1.6069052963238164,3.3412056760824953,-13.256915369338003,6.991821642831383,2.6769385210284327,6.8012518162531705
2.948,0.18084162407922122,-8.670315327129288,-4.624296890281812,-1.045393596146937,-12.231823491097146,5.9442495566047455,1.0563549125903364,-0.4240863824711596
2.952,-3.1289983115352697,-9.001461198062884,-6.638897326525466,-4.703012036636551,-10.064781185455729,5.236761111708574,0.8007337585612504,-7.427912060151584
2.956,-5.302969728610151,-7.124649871728366,-6.431386515457689,-5.9259177140256725,-6.278761385323321,4.997680930929846,2.2518909940829417,-12.424902844953067
2.96,-5.723064992384934,-3.6221860576561085,-3.992966511623422,-4.3040532160592875,-1.4241663596585568,5.0773491497275245,4.6727837382811686,-14.702234007274456
2.964,-4.719813051756205,0.12254215024796622,-0.3830071584353618,-0.7437968154536065,3.2305358392222843,5.152405807371679,6.741758959950062,-14.724857926226491
2.968,-3.170930536456467,2.807593988619942,3.0038986546335877,3.2167510611634498,6.4756984005061895,4.975639449646678,7.450061292554096,-13.593469100123457
2.972,-1.8602348313147559,4.004049422584444,5.279486287587247,6.332474246889433,7.9040799796947,4.599828086070829,6.817707482049968,-12.262984778819373
2.976,-1.0413175881864163,4.322047132249224,6.455621895156355,8.214410958046642,8.098760877820041,4.39526301244473,5.92042474974653,-11.046677964752917
2.98,-0.4800306140474504,4.85141183404312,7.173924919168087,9.221606667348283,8.127328292172535,4.810428956781266,6.1680654427932495,-9.675916775755127
2.984,0.11254921635241999,6.249277376416785,7.99429618755164,9.829376002244544,8.660620285518121,5.993166354393452,8.254667739314755,-7.800872661395147
2.988,0.5968209494554912,8.070620781487321,8.741801219296576,9.95262476277719,9.291098000973363,7.543060707923473,11.450588595506929,-5.5429111644912155
2.992,0.26928360484851055,8.843908504636033,8.405410716207143,8.749152659730271,8.566249933624704,8.611379137462677,13.755647347848253,-3.672748960233548
2.996,-1.7612585975734874,6.912218855345486,5.713291095245268,5.099877231495043,4.809918491940891,8.345782539235188,12.923885585911194,-3.2356523065901683
3.0,-5.86976142348135,1.5850323341758212,0.0720102344889142,-1.4912195704919213,-2.690830025189996,6.456246008015341,7.827235686044446,-4.838157228928253
3.004,-11.340148624562062,-6.100513552003292,-7.720905542673449,-10.16050602715552,-12.851116581100825,3.5376860722659558,-0.635688144169194,-8.053082126755044
3.008,-16.381966086896227,-13.553033525247429,-15.500854220320434,-18.662577074089654,-22.89292944557326,0.8766477430997384,-9.667251385604231,-11.358387385301853
3.012,-18.848790218953525,-17.733461812385144,-20.58203063441391,-24.198611500391507,-29.45259496685452,-0.20196913202596534,-15.761379093404003,-12.735768555075538
