Timestamp,O1,Oz,O2,PO3,PO4,TP7,TP8,Fz
0.0,-3.183231456205249e-12,5.684341886080801e-13,-1.3642420526593924e-12,3.467448550509289e-12,7.105427357601002e-13,3.979039320256561e-12,-3.979039320256561e-12,8.526512829121202e-14
0.004,8.595825135340988,21.299380766164518,-28.22605797484124,-13.079102692840422,4.950830959773043,-1.6161605083690347,-31.209919395866507,-10.541473929099084
0.008,14.566801542292978,36.709886306233614,-49.49684540462647,-23.731561177035246,7.925151370771431,-3.169070446335013,-54.70661856467467,-18.854755393093342
0.012,16.461644912914835,42.96305659913901,-59.959214768703134,-30.472854709397183,7.787062753917013,-4.610831425491256,-66.17438086349273,-23.793535098316056
0.016,14.59246745792916,40.6749784859509,-60.379166386502106,-33.21667557060786,4.670723764876101,-5.88877923808343,-66.35299563275032,-25.75905694759598
0.02,10.779643533346416,33.65071805537994,-55.37077465264218,-33.04205475270817,-0.2089328084202009,-6.904143517189652,-60.18930154010832,-26.31870594599306
0.024,7.394043917464387,26.682557413844393,-50.797469896587415,-31.44752054266442,-5.232690476842038,-7.481363580559503,-54.01649374538317,-27.202697314115113
0.028,6.216050502285384,23.11615581656997,-50.824682385450615,-29.571453018120593,-9.164987179156327,-7.401191887911864,-52.37183480747359,-29.284721716570516
0.032,7.6935363839669435,23.50602174607613,-56.19962508807782,-27.833523824183033,-11.642216199909313,-6.517982261763905,-56.14264271144344,-32.15166483992326
0.036000000000000004,10.903808016694029,25.948059186009743,-64.54347580167092,-26.15682209425097,-13.153696566059608,-4.918493319851564,-62.886860270846114,-34.49386300958827
0.04,14.159939402781902,27.69368356174695,-72.23483734700653,-24.51958303828087,-14.581272032827826,-3.0097516451049273,-68.85730808994862,-35.02317665529753
0.044,15.881857943647333,26.938934071364002,-76.5895475308767,-23.360541053055783,-16.595164566815612,-1.4546006679066181,-71.33135724448977,-33.336537620507045
0.048,15.278372758428759,23.74775049501187,-77.09919488001293,-23.516704909933594,-19.245180868441253,-0.943496647124789,-69.93811942237932,-30.21505718856187
0.052000000000000005,12.553770150113792,19.71280521399882,-75.2203583184276,-25.7278864597873,-21.941403968780605,-1.8882280393071937,-66.43913396942207,-27.20792596940612
0.056,8.650184187990135,16.763248365435885,-73.10731267295097,-30.050288236563034,-23.78361341499138,-4.203757118010856,-63.37133493446731,-25.800407679470254
0.06,4.762081267737813,15.982680457303701,-72.20355529421664,-35.58797892977378,-24.013073530290995,-7.294706260150463,-62.51453205002599,-26.649011646540487
0.064,1.863641252778507,17.106077188087966,-72.51305525763945,-40.75998107683205,-22.35405745694959,-10.278862827935598,-64.04290333371296,-29.303913826604514
0.068,0.4245469172886942,18.885295681145777,-72.90527950465167,-44.014357640882025,-19.1168857715827,-12.360855829364311,-66.73570843352871,-32.545721759910236
0.07200000000000001,0.3785862554155415,19.993409277291335,-72.11904939209063,-44.58113974523954,-15.035161496117098,-13.16826739273887,-68.92176959170922,-35.07617051413723
0.076,1.2605849255483008,19.82226706472565,-69.76159510811135,-42.842116310949564,-10.970601027239695,-12.89846477746977,-69.49670473469001,-36.1752836463894
0.08,2.410547421662386,18.692799614581503,-66.6673324411787,-40.10456838672155,-7.6467721557405355,-12.20283752663579,-68.42986252710688,-35.97904426071702
0.084,3.174967955862769,17.438012164794713,-64.3676183980507,-37.86558117983364,-5.490925820718644,-11.85267088688073,-66.52188661909457,-35.24574167073109
0.088,3.0702399127097806,16.725803743473136,-64.09617569404355,-37.00942447079433,-4.618358283245101,-12.361256295617636,-64.743705335026,-34.83773926842204
0.092,1.9115275856626681,16.633208519889138,-65.99418871578703,-37.39776167753598,-4.898259035970682,-13.744663363705342,-63.66682899880493,-35.246812399397754
0.096,-0.10601562264588438,16.747163655873123,-68.99900555326724,-38.06492466178997,-6.041742478099337,-15.53274379366934,-63.311969810732535,-36.42072961249431
0.1,-2.4341039181502993,16.638199016060412,-71.46496872192432,-37.876962993429856,-7.704796874030677,-17.01860741226642,-63.410804931489906,-37.93007229141463
0.10400000000000001,-4.372734765548614,16.276938327137145,-72.0538449486427,-36.227491577792534,-9.589405710209235,-17.619946675788242,-63.73469481547488,-39.28872442581732
0.108,-5.385270974287494,16.068280871525758,-70.39872893833683,-33.37528894716277,-11.527431923231944,-17.17372126929996,-64.24198401109436,-40.21110045004639
0.112,-5.367595481167086,16.499923409669634,-67.2306973763601,-30.26682174267944,-13.506646222698777,-16.023803068167126,-65.01691793852294,-40.67355586988923
0.116,-4.732241432084663,17.67342313409401,-63.987089906927594,-28.006641613250167,-15.627247572584025,-14.873370716251031,-66.13879362627415,-40.827096909700785
0.12,-4.233810643620245,19.076221654465826,-62.152085888958425,-27.300239764401,-18.0010811721436,-14.473749939925568,-67.63610157433715,-40.863286067418684
0.124,-4.615559786086806,19.75783777669497,-62.59898584402748,-28.15373870701478,-20.63256370441495,-15.291750112640159,-69.4991937707089,-40.91599832439438
0.128,-6.244989193079505,18.826855386585294,-65.23669453954449,-29.976135862677666,-23.361636008261883,-17.312173553799255,-71.6973250317289,-41.06320720187817
0.132,-8.940325984596996,15.972905752307383,-69.10973949288001,-31.998643055320258,-25.909971669224035,-20.068404604793784,-74.15133154922415,-41.40094956622748
0.136,-12.082058874026188,11.687570075614929,-72.88190317963117,-33.74582442143685,-28.025841492377964,-22.880518984721448,-76.66673672165649,-42.102943522081645
0.14,-14.947662455352202,7.041265902220999,-75.45880350502742,-35.287518103312834,-29.64341001051457,-25.17786871919941,-78.88948414769624,-43.38876993408772
0.14400000000000002,-17.1071290037184,3.1015067272055035,-76.41780576508381,-37.13020394896745,-30.961088911985883,-26.75050592617083,-80.3356311967679,-45.40329512380332
0.148,-18.631751770318147,0.3612213250335401,-76.08412061327317,-39.832872614036376,-32.37047511601102,-27.799986736744472,-80.56466114267289,-48.087684410003135
0.152,-19.978722890780432,-1.4477934586755339,-75.25670391540945,-43.57606513653377,-34.22839770297571,-28.757857078289703,-79.42554680865771,-51.11053999420545
0.156,-21.630470772569822,-3.064079129791395,-74.74622870729343,-47.9492423269628,-36.59204054772948,-29.9875400394464,-77.23349931693201,-53.93796103952758
0.16,-23.704297271114285,-5.127365178666821,-74.9483577480247,-52.07360681462694,-39.072794243900034,-31.53344834869563,-74.73356528385546,-56.022756068248015
0.164,-25.7988538341516,-7.720014742564587,-75.61443316095858,-54.967733455427094,-40.92397422544829,-33.05818150641505,-72.75938282182602,-56.99118775206492
0.168,-27.18989499789268,-10.295281061415665,-75.95935458065901,-55.97468374318299,-41.3420212317215,-34.0173120395296,-71.78274142094546,-56.750928074558914
0.17200000000000001,-27.268984688230148,-12.018615190299698,-75.11905921657649,-55.06169252736055,-39.85115065331928,-33.98355381746114,-71.6729652399327,-55.50867836969809
0.176,-25.948280948737647,-12.28696580585617,-72.73032254426573,-52.83829667476036,-36.565376121898794,-32.925819837575204,-71.81826736430884,-53.68584238802822
0.18,-23.782832170766824,-11.111384026447126,-69.2890501043014,-50.28196542264362,-32.19892103085394,-31.28074759099252,-71.5494570260712,-51.77635149320548
0.184,-21.714284344634507,-9.161850792776647,-65.99145176988515,-48.28171487561667,-27.82455709641647,-29.762161327706394,-70.55898527547686,-50.18929490358849
0.188,-20.571283128196228,-7.44473232998115,-64.11436298529486,-47.23225611121984,-24.494874505694213,-29.004724135971628,-69.05824127108065,-49.131436930386315
0.192,-20.631361093984765,-6.805367353006943,-64.31882338619312,-46.9089845596302,-22.917257801580035,-29.24684225332669,-67.64227540954568,-48.57770469122255
0.196,-21.505135159996144,-7.531768982741198,-66.3018385211953,-46.68798101359869,-23.311837104192193,-30.23053226912441,-66.97474987542171,-48.319002946305034
0.2,-22.43318425141524,-9.28129238949981,-69.01969495895696,-45.99042343167463,-25.478759942460044,-31.375499393406585,-67.48963016989421,-48.06250913665434
0.20400000000000001,-22.824684086567572,-11.370030664737783,-71.29333859908871,-44.66645759763912,-28.976104949474802,-32.12178502944653,-69.18840573673106,-47.51057945245245
0.20800000000000002,-22.692927155641996,-13.215889152435864,-72.46033774297604,-43.09858195703475,-33.2881052833942,-32.232014167827174,-71.63553566496728,-46.4149910554591
0.212,-22.694380082723114,-14.641733475286003,-72.7305740694452,-41.97736791051534,-37.903820766309195,-31.888725832641967,-74.14946404956117,-44.63440644339016
0.216,-23.714727467703483,-15.845032213079094,-73.01756229460216,-41.87290867228535,-42.290126713695145,-31.541477058648184,-76.04760331344073,-42.173878312266254
0.22,-26.235692165209116,-17.086888016669263,-74.34034232937961,-42.84756086688333,-45.85468336348447,-31.60195910948903,-76.84469962724359,-39.20102446565579
0.224,-29.902430649366806,-18.37317041460045,-77.11248793940422,-44.33184429434948,-48.007233438184755,-32.18040530441908,-76.31477575354074,-36.02091689406859
0.228,-33.597466883191714,-19.358916296217842,-80.78322564851794,-45.37567627899671,-48.34395161705737,-33.03354948780236,-74.49838928964357,-33.010325772146814
0.232,-36.01818347243102,-19.564570052804015,-84.08499722825195,-45.16653759051138,-46.878202886465374,-33.74241161878774,-71.73489479116108,-30.54613996169661
0.23600000000000002,-36.410448461369924,-18.75895498098663,-85.6692368709131,-43.477568850134276,-44.12838168415806,-33.99280056342582,-68.61743500074829,-28.908768372937175
0.24,-35.00185728060819,-17.21666537778441,-84.78320355748394,-40.784935205501085,-40.95945453983876,-33.77841844623913,-65.87364678111987,-28.199018288429045
0.244,-32.86708963016986,-15.641813928072281,-81.61834646900263,-37.994507671355564,-38.22260916463631,-33.406972087976555,-64.16980738440805,-28.318255499016686
0.248,-31.295922879647605,-14.777859347211916,-77.12258083954839,-35.91861935777047,-36.362818211920114,-33.32099477088423,-63.852055030556585,-29.018566788219914
0.252,-31.05225360767622,-14.958126678031874,-72.41740558386368,-34.813988677847135,-35.231218029075706,-33.85315565585074,-64.75015765384319,-30.006020102547836
0.256,-31.984188072672623,-15.892572680399326,-68.20932778277745,-34.270408559286125,-34.22865973323218,-35.0580698647251,-66.1842473248729,-31.046717224995064
0.26,-33.20958855852018,-16.823530664169766,-64.59852168828706,-33.54072749426234,-32.71137860773854,-36.719226243088315,-67.26801092339076,-32.04806965680905
0.264,-33.74305925104977,-16.98641709100218,-61.34490957907917,-32.10246716728568,-30.442810879392994,-38.49237050399756,-67.37694191331946,-33.086966565254386
0.268,-33.150744284446546,-16.10797357070578,-58.31033971369334,-30.06901477821725,-27.81743950687786,-40.074890179085514,-66.48411998643644,-34.35517684595351
0.272,-31.790035830878878,-14.617270144903728,-55.693626059457074,-28.154734849327497,-25.69774436564944,-41.2689941221563,-65.11857859412464,-36.0241141641643
0.276,-30.491635990459372,-13.414103706193487,-53.89316971475728,-27.2057342681926,-24.94354048431535,-41.93632924890608,-63.993101918312504,-38.10078967184012
0.28,-29.89743026757128,-13.29819500494159,-53.15581792922865,-27.60329271415685,-25.902356126009295,-41.92600083978482,-63.56768832575983,-40.36747966215415
0.28400000000000003,-29.933862013357157,-14.432711615567257,-53.29856743613175,-28.93558106706712,-28.18900652885702,-41.048939423006686,-63.80646613029205,-42.41693501819316
0.28800000000000003,-29.811567754001317,-16.21490845538142,-53.724344111162736,-30.16624945487149,-30.896276405695517,-39.18154374236292,-64.26354366562452,-43.762281978093824
0.292,-28.59883123244981,-17.680005881547572,-53.75475342177981,-30.225193404632478,-33.142337105503884,-36.430425771031196,-64.41925046185906,-43.986846729543345
0.296,-26.012002665026785,-18.19098688020597,-53.09927210219314,-28.688776842112134,-34.634404342257994,-33.23732486759445,-64.06084803866804,-42.89431116639025
0.3,-22.870051566285156,-17.936158435776633,-52.176933020967,-26.142072650199225,-35.87831353799504,-30.3191825513602,-63.48343909937398,-40.61670282138431
0.304,-20.842286950063,-17.877566522979123,-52.00886058919866,-23.961679584353305,-37.86541542431473,-28.41892143442351,-63.3485436683859,-37.62579881097395
0.308,-21.588553092500888,-19.17110667703423,-53.664508409954465,-23.603929869863464,-41.40607288826857,-27.986445665228302,-64.25143811599105,-34.62916537024239
0.312,-25.785360505164817,-22.41347566218053,-57.53061068465729,-25.781314061039666,-46.49211007946781,-28.961123001840633,-66.22803728247368,-32.34956750598337
0.316,-32.620254584917575,-27.186912863926977,-62.859851651413464,-30.010010441692202,-52.08918987234165,-30.789136192351634,-68.54848191692417,-31.260501573745614
0.32,-40.08379964299115,-32.18318290890693,-67.97069156799444,-34.8333417681506,-56.52388325187235,-32.68701766500817,-69.99780880294225,-31.406089669116113
0.324,-45.919047857048554,-35.858011920948,-71.03636648958377,-38.599384273779265,-58.29864944064673,-34.01497864930684,-69.51358138477985,-32.396709677033755
0.328,-48.704049160530985,-37.248807669679195,-71.01756129036039,-40.333711667564785,-56.88828283042551,-34.56189698632966,-66.79848617494258,-33.588191827464016
0.332,-48.472838052724455,-36.479014395119975,-68.19396176565374,-40.201460097755216,-53.0610188013012,-34.59163583322129,-62.513830152533046,-34.36604187338389
0.336,-46.53642796883287,-34.63845757569493,-63.99670615696982,-39.29266239635717,-48.52512098937018,-34.637584830086325,-57.9396002479923,-34.404394200629554
0.34,-44.63746390594679,-33.08285715544105,-60.27235108471075,-38.89067125356735,-45.05831577730066,-35.16726427783033,-54.31026172575662,-33.78324470741575
0.34400000000000003,-43.937787172610115,-32.56957963810203,-58.370061928755604,-39.64305512797148,-43.58191303026649,-36.30068991481858,-52.20400509749538,-32.88774518763785
0.34800000000000003,-44.433481736783506,-32.78130354552076,-58.518181912264254,-41.123977644671584,-43.698112159326115,-37.73322482925346,-51.291413111010115,-32.15928058936214
0.352,-45.09197560025086,-32.53695141111206,-59.77621665148126,-42.031821274183926,-43.950779183801444,-38.881776950412586,-50.56369656071274,-31.817096782199997
0.356,-44.561345169980314,-30.543960099877722,-60.55340667848918,-40.890171240016116,-42.66542870995693,-39.17015543999082,-48.914768882350245,-31.712248262392563
0.36,-42.00966907197267,-26.23163872937357,-59.45544400318772,-36.902285161974305,-38.93161150954563,-38.308867919767636,-45.79882806071305,-31.449564302705085
0.364,-37.583779385448,-20.158665015960537,-55.9936687814652,-30.454349078343967,-33.180852131754705,-36.41705029881791,-41.59503694811201,-30.669367118170953
0.368,-32.30583305859864,-13.798131533147284,-50.80647295675931,-23.013157983020506,-27.06345194853145,-33.95968238017508,-37.47362548526394,-29.31996120791416
0.372,-27.52457372786671,-8.842359182661767,-45.3101485295972,-16.478179679096456,-22.69920729269461,-31.53833730932456,-34.8116253809535,-27.737856374921193
0.376,-24.268980961953957,-6.426482322427546,-41.01076558336467,-12.341187241354078,-21.691330632083464,-29.639791265014082,-34.50030979408348,-26.458044001403323
0.38,-22.83343720083144,-6.655924516259688,-38.87521742349372,-11.105308556589762,-24.394054049526403,-28.45361902754985,-36.50194316146735,-25.88764302620723
0.384,-22.767609926395153,-8.66116273872251,-39.05109706031635,-12.22787852641386,-29.777007328136506,-27.831000093168996,-39.892526172417774,-26.04160850954497
0.388,-23.196315975484595,-11.095613110239242,-40.96284999458976,-14.529866810541535,-35.91536873609243,-27.384514214713818,-43.29017536504648,-26.51162964418245
0.392,-23.264152593423205,-12.79112666178662,-43.645585254083926,-16.80912041398608,-40.83764085602695,-26.681906183644287,-45.42026336078584,-26.68511095161739
0.396,-22.490320818090368,-13.243743470354389,-46.13332776072912,-18.33605683693304,-43.31996944144646,-25.467891464280683,-45.55727555084286,-26.111310917042147
0.4,-20.901700473493747,-12.691245614649688,-47.78276626783327,-19.039723576782194,-43.265586930597465,-23.82216583498507,-43.71798355648207,-24.798395147139786
0.404,-18.956006800631485,-11.828266561797022,-48.439075262866936,-19.362807747882357,-41.555474358845686,-22.166198523241746,-40.56791744461293,-23.23998158907591
0.40800000000000003,-17.355011252118857,-11.395874530059473,-48.40984387681806,-19.92845809368157,-39.524077961109015,-21.121858260264162,-37.12345092169517,-22.168756966166598
0.41200000000000003,-16.804299241185845,-11.849420268312201,-48.23930912749893,-21.181916408657457,-38.31033393375196,-21.2183543527683,-34.34794770977669,-22.130832135657784
0.41600000000000004,-17.769094847152246,-13.230912303194145,-48.398336856303104,-23.182505484684953,-38.40378316662179,-22.595521980379317,-32.815943685694265,-23.171320598925945
0.42,-20.251121015345916,-15.194891077327611,-49.03528658158348,-25.601794146368547,-39.51125921770097,-24.846692238000514,-32.5668324589642,-24.806761955246884
0.424,-23.67107609101322,-17.12773919805818,-49.887136526934,-27.87994742865476,-40.73776674426949,-27.099807868279868,-33.18835213941543,-26.274961600781012
0.428,-26.955188779980745,-18.327961123971363,-50.37128722527791,-29.45353045504885,-40.98071161098187,-28.3417032375105,-34.04393556411014,-26.939401561645127
0.432,-28.855811950068528,-18.213574670186517,-49.79331371880835,-29.930991056998437,-39.33793226729779,-27.86422503917015,-34.51234202061414,-26.566595330658743
0.436,-28.452932876076375,-16.55544230336409,-47.625674666428495,-29.203558061147987,-35.420344526131316,-25.608545359760228,-34.186185336705876,-25.34964377995857
0.44,-25.594463969502613,-13.623366082457665,-43.772298650279026,-27.481643541282665,-29.47857971918097,-22.239257544395514,-32.998485682009004,-23.692854661509614
0.444,-21.048323377828183,-10.170108483456943,-38.700700681150465,-25.25251030445179,-22.33964443179309,-18.870720057947437,-31.244530960728525,-21.930261160595364
0.448,-16.246557878133444,-7.220309353119092,-33.33560804812623,-23.143620044938302,-15.186202954252053,-16.557471994472962,-29.460169022584296,-20.156454285656082
0.452,-12.713972713173916,-5.720272879677054,-28.736519594182028,-21.723399839479157,-9.258716042131027,-15.811938362600813,-28.19597959350631,-18.268225314474876
0.456,-11.426791834263895,-6.169753169685919,-25.692963073499868,-21.291377686305168,-5.540855783186089,-16.37599848845548,-27.758613913189265,-16.1499573456432
0.46,-12.432158497542332,-8.402994304995673,-24.481145338880197,-21.78177887245738,-4.50730429141106,-17.3832527810614,-28.087215583526813,-13.872353694345179
0.464,-14.909643457033326,-11.647569311844677,-24.890624140120053,-22.828224453354096,-6.012240292268643,-17.831214139285066,-28.821625957430115,-11.762257954237725
0.468,-17.639598989133447,-14.874264373908545,-26.45854778014359,-23.958702029808705,-9.356605150681276,-17.106685422485498,-29.508153037568036,-10.283746898949857
0.47200000000000003,-19.615672346010797,-17.273555144910006,-28.728504371168356,-24.812566572228093,-13.518650467380098,-15.281375023726241,-29.802203445508212,-9.789387688360193
0.47600000000000003,-20.439384045160295,-18.589646346215886,-31.36768022541014,-25.235932701086654,-17.463898265492844,-13.014462099123648,-29.555787275352486,-10.291542775977746
0.48,-20.31206608230559,-19.117797227834444,-34.14335681326065,-25.227837100114925,-20.432080674362965,-11.137241745353094,-28.814327463859854,-11.422045531513504
0.484,-19.689145075431497,-19.382469750291648,-36.8226949139148,-24.79402472136894,-22.11260846471214,-10.156305860083421,-27.760964387083277,-12.592720334657884
0.488,-18.848961196992605,-19.70092049844925,-39.07917920334626,-23.801517537327186,-22.642781933391234,-9.967350882773871,-26.622246600753897,-13.26461722492445
0.492,-17.688599904161947,-19.927068673351187,-40.49852284401163,-21.957652508527985,-22.453193404416425,-9.940837464414926,-25.586483696139567,-13.175161491302902
0.496,-15.902841698229395,-19.564680392567993,-40.71759458906263,-18.988448091521036,-22.04450110026562,-9.327574947268431,-24.769349496209315,-12.416479575935455
0.5,-13.379048386609156,-18.135474952166874,-39.6336067054001,-14.924421514174696,-21.76803967497301,-7.734881245076167,-24.23088644981499,-11.343119201253785
0.504,-10.50391752768246,-15.554905293570755,-37.51637537875763,-10.305241788115381,-21.680349565099505,-5.387410268410122,-23.980914453235528,-10.375119817438872
0.508,-8.132830575734033,-12.28333308524634,-34.90769223828215,-6.128587151585975,-21.532183456727353,-3.0242569543599984,-23.9405530424076,-9.80701659343788
0.512,-7.175810112655881,-9.13948346812856,-32.3251244827502,-3.491038994166388,-20.885523001512638,-1.4779274147465458,-23.88060814744472,-9.694741390890044
0.516,-8.03288586901158,-6.881303336398787,-29.947288566097086,-3.081790659287776,-19.316172863901556,-1.185217675596732,-23.403605601177105,-9.847762640311544
0.52,-10.22959156152524,-5.790632581377167,-27.519190185523257,-4.810289008783343,-16.61233640516548,-1.9271989587593907,-22.063217530573183,-9.924844717497308
0.524,-12.556123038789337,-5.561746338776629,-24.60549598291209,-7.828895531533362,-12.937353605421663,-2.9690849234980305,-19.632988003815854,-9.621890342166921
0.528,-13.671527490631206,-5.557854817158045,-21.02009655190318,-10.930930092062113,-8.862540888436229,-3.500480052083276,-16.346318854402625,-8.841786266091958
0.532,-12.872256140710078,-5.295876528091071,-17.145942433132632,-13.11403084309893,-5.239378312908457,-3.11327316583629,-12.918754709435916,-7.759177556450709
0.536,-10.569005647609401,-4.852317554921569,-13.901145593750925,-14.001064794905574,-2.9421408849079853,-2.0358602845328733,-10.278052052500243,-6.754103236727701
0.54,-8.130605090123709,-4.873763754651009,-12.325910774935437,-13.89084550659311,-2.5452123723150635,-0.980294096911166,-9.133603608326666,-6.235246560544624
0.544,-7.145505749660515,-6.161672264765002,-13.007927699420861,-13.438429738098307,-4.074883829855594,-0.6923733446731148,-9.606230065255659,-6.421492029519754
0.548,-8.506160951699712,-9.076752359552188,-15.654982388803319,-13.164818794635494,-6.941835816557727,-1.4773784599869941,-11.114755059908703,-7.179986876561998
0.552,-11.86828320237396,-13.155531370460267,-19.10574249863248,-13.128077133611669,-10.12564734740613,-3.0051100401747135,-12.625352111528628,-8.034776178222955
0.556,-15.804176178362468,-17.20238376992711,-21.82554672817355,-12.949748086478508,-12.545752714453897,-4.495608635705594,-13.145596203115701,-8.350610239067578
0.56,-18.567589780849175,-19.817815191916907,-22.675772778975215,-12.176196353067098,-13.462294134551826,-5.177129218127675,-12.244899767856168,-7.652403119505493
0.5640000000000001,-19.040901725090407,-20.088744080880815,-21.547318830378345,-10.721012373487724,-12.750726666086052,-4.735696396816593,-10.313682292897738,-5.923950012393561
0.5680000000000001,-17.304651331738796,-18.049277669046205,-19.44642983631411,-9.050830685103847,-10.903210672066848,-3.4731304111858208,-8.384633463711452,-3.688908731621609
0.5720000000000001,-14.517477837749084,-14.662716645564387,-17.93440104168576,-7.96134641800802,-8.763533666356238,-2.0790666590455658,-7.577877883197061,-1.791682778592076
0.5760000000000001,-12.172912772412019,-11.327729807682772,-18.19714079312996,-8.056547378860728,-7.124541676800845,-1.1585801362029997,-8.460589623114629,-0.9729398103888798
0.58,-11.203157324785934,-9.17575964198943,-20.30187013125078,-9.281842200873143,-6.380885632982427,-0.8265943403205256,-10.713121330973081,-1.4613348479812203
0.584,-11.473572080197073,-8.551706961490822,-23.084413434501585,-10.839521411686974,-6.40068632240002,-0.627984293442978,-13.286694425198448,-2.8134859649202326
0.588,-11.964674512136071,-8.966798987842594,-24.74583477307408,-11.59195040687564,-6.671472818968368,0.15538086283777375,-14.976516286417791,-4.125846618679702
0.592,-11.492375574966673,-9.505248580838384,-23.815477691108413,-10.715716318153682,-6.610812170645772,2.001680294464677,-15.052439206041527,-4.489594438695008
0.596,-9.505583800870681,-9.428749784366573,-19.95332587755331,-8.222411933065246,-5.878958980007724,4.766197519311618,-13.601761968924166,-3.453006503848542
0.6,-6.444300343644727,-8.593307334575343,-14.160053486396464,-5.014083938626072,-4.505831331158447,7.676677543874348,-11.418335347735592,-1.220059911493422
0.604,-3.4553696112493526,-7.472417993591193,-8.305508945511178,-2.436421452636864,-2.8052301707080005,9.707699836718803,-9.530580351989556,1.4934776454937833
0.608,-1.6586951312858673,-6.814014037411994,-4.22675966395127,-1.572148803142909,-1.153423482890389,10.138534559747313,-8.637275266053393,3.872830107787479
0.612,-1.4587470580261197,-7.178046920649763,-2.8780543551830533,-2.6795629671952383,0.21855922098529845,8.94829284320167,-8.757325264040674,5.437454074368702
0.616,-2.3362873812759517,-8.63225295731911,-3.953114930870356,-5.100656418941185,1.3035847366198823,6.818864854671119,-9.251147671735907,6.232691454312317
0.62,-3.242604412186438,-10.755207947472286,-6.1908538186334,-7.693611430414421,2.2274134452022736,4.7482083771642465,-9.237843162617878,6.6742795960482795
0.624,-3.3181476622075934,-12.887750380960767,-8.119499801754046,-9.498230039376836,3.0954582293524027,3.5125470028374366,-8.118600676726942,7.1908486690097675
0.628,-2.443994576683508,-14.441171522892034,-8.787443040189942,-10.213510226373387,3.901229786146473,3.3004994444661406,-5.899566421017084,7.916776446906852
0.632,-1.2710092884888127,-15.083639733800965,-8.088369105715742,-10.212645982998993,4.563483938938987,3.7209238214134075,-3.1473069705832586,8.62869574655997
0.636,-0.7276867730038248,-14.751326630528581,-6.573737796787441,-10.128400605870297,5.056393751274754,4.145360557908589,-0.6147048924345881,8.943355482523202
0.64,-1.3392829052936577,-13.536702901233127,-4.990909300027397,-10.325503777484414,5.514569221625095,4.140758611317096,1.156388742559443,8.614657289309434
0.644,-2.833806618688641,-11.59585543445155,-3.8701894484819377,-10.632089181473589,6.200864401761521,3.709872496509547,2.0330186928240437,7.695375930552643
0.648,-4.290695513741866,-9.153721115704286,-3.3630748292456474,-10.490480156737704,7.336776782273432,3.2060025876428426,2.2274533524117714,6.464413392567678
0.652,-4.736154597602308,-6.576157427821329,-3.338768967630699,-9.408851250105045,8.89057744424673,3.0096636549867526,2.0775453182551473,5.201742466990254
0.656,-3.8120862087253045,-4.424326597970435,-3.6064829435222236,-7.396565941155757,10.445250234124785,3.2149263891251394,1.8196875879077652,3.9811664302151826
0.66,-2.046399300983694,-3.3371319436961926,-4.0690375764799,-5.066609380040347,11.306992298071293,3.5564655286060542,1.5254644868804235,2.6743216892093074
0.664,-0.5364458881808787,-3.74055018455806,-4.711345928300716,-3.3189847760362454,10.836099195274073,3.6331638262606702,1.2151417835669918,1.1851857812368962
0.668,-0.24650972956590067,-5.541587953293913,-5.47692415360541,-2.795419198669606,8.827753221099783,3.264135722321612,1.0294241234188348,-0.2701678339219029
0.672,-1.3924445281788849,-8.034536170941465,-6.188956225314882,-3.471372417498401,5.705894859312025,2.701672516726603,1.2829590214099653,-1.0877297564144897
0.676,-3.3461297153183978,-10.184879417021705,-6.6422186886783265,-4.695394693462106,2.348297101433161,2.498025625579089,2.2838485344027504,-0.5750819293507448
0.68,-5.100625153006945,-11.159205874034797,-6.825199202114277,-5.6667222091622875,-0.370599623058979,3.083724289852512,4.004429228871004,1.5126429620278827
0.684,-5.999453002785117,-10.83698230858397,-7.123889033179353,-6.071468704132201,-2.0914155607787848,4.3231483221391045,5.800300208691965,4.539808610050329
0.6880000000000001,-6.256417142079499,-10.007648612561695,-8.306348379121687,-6.447597531935287,-3.235970531895191,5.372067148994347,6.431558666030696,6.998209392184492
0.6920000000000001,-6.8890641838512465,-10.071893588316073,-11.183588526832864,-7.98798091247636,-4.820239867991631,4.99735321199762,4.50566136166276,7.078126993000751
0.6960000000000001,-9.0672614697055,-12.343965182988939,-16.079523407758984,-11.829616993016089,-7.86535655458357,2.24295826511468,-0.7885748817869853,3.5806435849095806
0.7000000000000001,-13.257477669601371,-17.26971335520426,-22.424084568391663,-18.221007369237896,-12.686621395431871,-2.9080600994182078,-9.033777145938302,-3.3228135945975623
0.704,-18.690282240661304,-23.980164652780445,-28.7401643646474,-26.066021523088125,-18.4568886159376,-9.278527814102972,-18.407258639337556,-11.93160669658829
0.708,-23.4957504879535,-30.44992442633003,-33.07798056766592,-33.142805876282694,-23.31799261925721,-14.853976359844637,-26.14355143663272,-19.626674592904294
0.712,-25.48609897122151,-34.245954495107924,-33.73272193767366,-36.94345686302313,-25.06421265850753,-17.609212602382513,-29.507332933391808,-23.974975396875664
0.716,-23.168036778399596,-33.54067242004402,-29.906457402677233,-35.730468153336574,-22.104355987605857,-16.390372906962966,-26.852244321945932,-23.755238964110447
0.72,-16.448607642306342,-27.89718376090127,-22.037099519213257,-29.29183030486689,-14.236232058973997,-11.395468138084993,-18.31805063276454,-19.36611405392216
0.724,-6.705436757038342,-18.468282510436836,-11.678843344225243,-19.052892338825757,-2.875236382669243,-4.040445608488085,-5.8665837914921894,-12.478898355196065
0.728,3.7854942012518222,-7.530738886669269,-0.9993436465460945,-7.500599159765841,9.384801854963143,3.7077054957869677,7.408420167437271,-5.137888905367049
0.732,12.727970736418797,2.401176402984447,7.890096457825393,2.779318967152676,19.68411162813794,10.165914419101114,18.389731259934365,1.1736808707005935
0.736,18.53240433231781,9.446554010264265,13.516866238617922,9.985796530007292,25.86221377911795,14.506806083790707,24.98041529550619,5.990752533303066
0.74,20.630483517854373,12.873456733532066,15.35806871285439,13.54842197627977,27.10314202128984,16.81937669628951,26.665986805990542,9.684828729101355
0.744,19.341457752605606,13.078487090740225,13.805320784471576,13.999146289151042,24.007669392814876,17.708482047891493,24.375539057772585,12.83129623941403
0.748,15.48949784106128,11.137427320287998,9.890127428338644,12.451738334685047,18.146678327364498,17.73663076091418,19.829064597994943,15.590500952516209
0.752,10.054988915063063,8.22642900578262,4.927390409091572,10.02461718879431,11.381773797319283,17.066544645348017,14.7600775127014,17.53245031790152
0.756,3.990807118908265,5.182536634530834,0.18335097919589316,7.4717645856025,5.249927252456189,15.48419428467173,10.354223716822503,17.98380935739965
0.76,-1.8118234776726467,2.394989933405782,-3.3765411744878975,5.1246809721920386,0.6610223992455531,12.745073323258566,7.101904490196148,16.633802365897566
0.764,-6.550483263332126,-0.03351082991605381,-5.252604722774549,3.0348012514613742,-2.07255582028597,8.973797123592703,5.001885220949362,13.958228055934796
0.768,-9.628155818369692,-2.0393476491404385,-5.449032310501536,1.1608459569980596,-3.009212855542671,4.840621893722755,3.894431936569049,11.14476195347632
0.772,-10.834101670527843,-3.455662380409649,-4.375474103609065,-0.525056866094701,-2.342530813304734,1.3894045369369223,3.6918014532508323,9.529222231243494
0.776,-10.461697848272593,-4.066072292049228,-2.621120216593397,-2.034441166058116,-0.29554040855674657,-0.39707560285364707,4.406484481873633,9.873723316745213
0.78,-9.227778324893961,-3.78379097729254,-0.712952116425754,-3.4121839683589315,2.8329756785981886,-0.053277333756796,5.983141999273471,11.89785190568682
0.784,-7.96394732241788,-2.7946920764372862,1.0510231271364887,-4.746318455624987,6.565072203154784,2.1447942361107835,8.109998209000139,14.365903385335855
0.788,-7.203767146305154,-1.5292606909384574,2.6523867373364283,-6.077046341874109,10.22014364421193,5.3103738514153065,10.198189400779654,15.706131449737512
0.792,-6.919630854591105,-0.48898932473315426,4.252205537424459,-7.283421313453516,13.018734023362583,8.35285299113741,11.549333311536259,14.809524944747892
0.796,-6.575387057075204,-0.015114389487735025,6.03798103893098,-8.035089387790947,14.306120448608624,10.440105648499411,11.664629552670192,11.588034089261413
0.8,-5.471826304562114,-0.112796071972042,8.09895740853716,-7.871696688313762,13.815904788963564,11.291225513078075,10.519127512701232,6.999166525110525
0.804,-3.205399375872048,-0.4445723869351923,10.372299032946614,-6.409959539579688,11.817530475826487,11.178566403475429,8.610232412441803,2.5439958969346037
0.808,0.010543275082341097,-0.5167343760296603,12.67431926308359,-3.5816658174154554,9.049351001480545,10.672707492531117,6.728527968955063,-0.47013189856784265
0.812,3.3902516342092213,0.08116747612351105,14.819557428125847,0.2614424487593965,6.494861419401019,10.3106986917212,5.625042476536635,-1.4749018406974699
0.8160000000000001,5.942949959665157,1.4678564345929601,16.712950473246508,4.42401185766056,5.038535255604387,10.351837060478601,5.695592655964333,-0.7691860404514728
0.8200000000000001,6.951067755445706,3.3931261632764915,18.32287874799357,8.07926690706455,5.126920362954024,10.709789223550501,6.7998050839719895,0.7661022746129618
0.8240000000000001,6.304903777287905,5.340425702819942,19.58146913403573,10.535264765129625,6.5970896247643225,11.081529367840517,8.344817584414727,2.1964392854370374
0.8280000000000001,4.4897424992589094,6.711175785015172,20.251727210534455,11.405249915424974,8.701298359724461,11.159401396381213,9.525423093994903,2.966940157025846
0.8320000000000001,2.2476728771957823,7.007860429719727,19.88092996068849,10.627359655194084,10.33518000487922,10.805319556657594,9.647856789453442,3.053872091683502
0.836,0.1240054267029791,5.940159057506293,17.91902391358093,8.373983108324524,10.391479567777083,10.109745945445582,8.41048130731798,2.8173434154607264
0.84,-1.8359361664355447,3.443119093115314,13.93816602624247,4.922563358198715,8.121311806363138,9.316667593840634,5.9928393184835045,2.70260865727721
0.844,-4.031711630050268,-0.33133345504569434,7.887325446098771,0.5886359378148143,3.411481389575556,8.674752225045097,2.9507765285935648,2.979914462642057
0.848,-6.929908992380092,-5.019156353829743,0.26538400202213097,-4.246868566811742,-3.1126479119207033,8.297942215015098,-0.022407702456916923,3.6434067009383853
0.852,-10.616903350863595,-10.068492422729804,-7.902246058078674,-9.080198550780807,-10.209455884298052,8.102899149861685,-2.381987043675906,4.476598782552458
0.856,-14.553629082389762,-14.795969717196982,-15.255309862473041,-13.260533628338692,-16.322563123332856,7.872130465267503,-3.896759538711592,5.219026861044227
0.86,-17.71963020771318,-18.50188969018336,-20.44677212490103,-16.09895112142661,-20.00564157193716,7.377889082488025,-4.686854060109226,5.676133568337548
0.864,-19.100945754923202,-20.64444066300672,-22.548744331908154,-17.09622580465924,-20.354900240503753,6.509054776160156,-5.119311034592556,5.725909244900265
0.868,-18.257953630006853,-21.008091667488884,-21.35428563990814,-16.17654717933962,-17.30053407190016,5.32732733171224,-5.61944151648612,5.254891626689158
0.872,-15.610797228744218,-19.761207284528894,-17.441237077494122,-13.771582083751298,-11.63382730785267,4.030595654373883,-6.477055974721111,4.1134816360269895
0.876,-12.276593011104865,-17.379479923314136,-11.961944758098525,-10.683013060956341,-4.757940558753262,2.847291421660998,-7.707135803103824,2.149675357117019
0.88,-9.518807635876215,-14.449226646216857,-6.256549443482243,-7.769821995825794,1.7595713880716062,1.9137970560756798,-9.06691944102755,-0.6896046781314169
0.884,-8.088019855920209,-11.432036898821138,-1.4383754754351799,-5.608345449946086,6.666065386218321,1.2173815891140976,-10.209834908392509,-4.252175016741859
0.888,-7.823303894176149,-8.506416161092915,1.9010418233672794,-4.29570618360961,9.35289147475433,0.6317368947264868,-10.887321032807222,-8.159282836945067
0.892,-7.75032444003125,-5.572163977266229,3.750876876501934,-3.4936982659623936,9.924137907247598,0.0319101271143154,-11.089821559994675,-11.885098955120895
0.896,-6.66990032456448,-2.4499577834269246,4.494039607333548,-2.71568873972069,8.96359368358145,-0.6028280934379495,-11.056494199787153,-14.945161707769984
0.9,-3.8931703184742332,0.8675873716918545,4.591944267141798,-1.675922823250744,7.160594364642606,-1.1598083209958077,-11.138476597803333,-17.078296365405038
0.904,0.26749199918094746,4.049669156676742,4.285975518165969,-0.5140067028145268,4.9732238628642165,-1.4600992423627304,-11.618962383019607,-18.31610044192405
0.908,4.522137028849329,6.4405957984561155,3.4638255344012805,0.2301154120807496,2.476059058727742,-1.4018730932117478,-12.59212394051616,-18.92092896173014
0.912,7.158747235489841,7.27189129013496,1.7543437412748517,-0.1111392879666937,-0.5498747666515555,-1.0806403349976108,-13.965499694865798,-19.22142752646255
0.916,6.843833839018089,5.976017456477393,-1.17794631605841,-1.9497958093334091,-4.357387861131201,-0.7933711314293532,-15.54843060840949,-19.419048668437142
0.92,3.2651044235092286,2.4676286175510427,-5.313674171080606,-5.162086478215485,-8.956701570911946,-0.9078541371313804,-17.170913832271026,-19.488435049443524
0.924,-2.7080939923006326,-2.7381367860118644,-10.120515873939553,-9.067630661093403,-13.964340193014095,-1.6449184786529258,-18.730439443129626,-19.205825063816178
0.928,-9.422576197221929,-8.637102740133002,-14.6458347055692,-12.699039376783276,-18.65081796096206,-2.904771765710393,-20.135449094187607,-18.283201672247515
0.932,-15.17373824048434,-14.035015390051228,-17.83692543963582,-15.237080848600954,-22.169126650235455,-4.268164219484106,-21.209213162546803,-16.557170835383317
0.936,-18.884471638431023,-17.90406869592806,-18.8908196120193,-16.358304403352747,-23.82769343585943,-5.174486721034555,-21.590812322237525,-14.098494785341927
0.9400000000000001,-20.43057548487559,-19.67946309878431,-17.52961919066024,-16.35246546251244,-23.31403273168189,-5.217438545109644,-20.803113753961384,-11.22034051132431
0.9440000000000001,-20.488065386672474,-19.37839735564711,-14.085163718626177,-15.953462077381971,-20.79818191663071,-4.391088636797235,-18.49807158599492,-8.396464970872842
0.9480000000000001,-20.022524934690068,-17.499466362563908,-9.347408879783643,-15.949408500914615,-16.876667497177323,-3.1315045378682953,-14.732522813674677,-6.114200100218625
0.9520000000000001,-19.733856690916127,-14.775698880468894,-4.285169065319906,-16.77361724249755,-12.406606191116282,-2.1200993997447313,-10.121456632203262,-4.741962563471361
0.9560000000000001,-19.75628496332115,-11.896871642621306,0.25119796920648696,-18.27207213551577,-8.296637774526062,-1.9427237036436509,-5.7207284310269415,-4.455713033768461
0.96,-19.707312955529687,-9.274894969138813,3.7431688126226845,-19.738541021336005,-5.276039059052323,-2.7682667782482895,-2.6374457299045844,-5.209337045430971
0.964,-19.001009110205814,-6.937294095062384,6.075721913399661,-20.205795997539326,-3.6934157326890613,-4.2240767852113095,-1.5314558741125666,-6.7312890842133015
0.968,-17.223059729555644,-4.591719065534335,7.480667959303446,-18.860698281104874,-3.4098187600199026,-5.555476317454577,-2.257081823895078,-8.553364826985899
0.972,-14.363753144992188,-1.8356888707783128,8.376111057234311,-15.405672241709908,-3.8513908339923546,-5.984114061647688,-3.8854166918786177,-10.089557045168988
0.976,-10.818438457090451,1.558946136888153,9.197314458740266,-10.203690802812389,-4.2337147551559156,-5.079570988217711,-5.10134291650138,-10.752610768142063
0.98,-7.196987188315688,5.416930684703516,10.246469998293037,-4.1680145439108855,-3.8989854806467292,-2.9685780737172536,-4.822674201146583,-10.12232183615913
0.984,-4.046873295431396,9.128778881754442,11.601248886830035,1.5579760366347273,-2.618188655997983,-0.26453427408978314,-2.7266680416664713,-8.113281059500196
0.988,-1.6538044818703383,11.851038045024552,13.094378767294529,5.990774222087907,-0.7162258474130567,2.2375955538673225,0.5884817480393849,-5.064595023031075
0.992,0.01564499386540774,12.888992740845879,14.37917874280106,8.624815097557644,1.075208449898355,3.945663090330072,3.9112357807402987,-1.672931370998981
0.996,1.2160894398029996,12.069815888540006,15.069942928331784,9.550915867572257,1.9686651319693738,4.735725331464437,6.04723109335896,1.2309216415264927
1.0,2.2385282803872997,9.915670028934528,14.895349147643856,9.335759293564365,1.5183849558649172,4.977898432870006,6.4338093559404115,2.9926227284347533
1.004,3.241062581494589,7.494768024381756,13.799622551388211,8.726274373442266,-0.14930065310795726,5.32575322233356,5.415825251510341,3.399653083874341
1.008,4.166399011062595,5.969472276096553,11.941731950998019,8.301894556327056,-2.415248713162441,6.382682606339131,4.02807117379848,2.773703364779408
1.012,4.759462804828672,6.029606647245146,9.582584914698828,8.213077388181091,-4.514681305785189,8.397385923992715,3.399649612513258,1.8187531102316825
1.016,4.673866853873278,7.49837073646313,6.9584585050938585,8.136349220081456,-5.947802250300015,11.128759470015211,4.1302844836857275,1.2948282321236775
1.02,3.6523763222635353,9.370394709500488,4.226824313411498,7.4788982562613455,-6.686614381354275,13.94256192127159,5.99582354528593,1.6739696111153535
1.024,1.6909897441039448,10.293854581657797,1.4940193141728741,5.721622598318618,-7.067168231653795,16.078416882703095,8.118313180414134,2.9234644834122037
1.028,-0.8833429015585352,9.296083582326219,-1.075469855135907,2.7513022316543356,-7.420849635049763,16.968172348483222,9.529062472333408,4.5366067070574445
1.032,-3.4678451919421605,6.376317626776654,-3.160912020681508,-0.9903260761606134,-7.698893233240483,16.462771188343368,9.776395348736514,5.787142504478311
1.036,-5.365759494596659,2.6260824641228737,-4.263546814230494,-4.611021729776894,-7.345202138728268,14.882906719659786,9.250271710433253,6.0892024072634285
1.04,-6.021330901183319,-0.20705042716588196,-3.8084140043731622,-7.084821041660234,-5.521540098644323,12.879184603867088,9.026066856985153,5.284256073563824
1.044,-5.199373644460593,-0.5149968181904114,-1.3519164440299392,-7.636419373948684,-1.576349599774403,11.16903456240334,10.291279212074869,3.7261175224707586
1.048,-3.0192785972853926,2.420617192903137,3.2086875750353556,-6.012081819136938,4.521776159247565,10.274253522040908,13.679669135945687,2.1379642570723263
1.052,0.15320815804034282,8.094787770535731,9.513388752809988,-2.5405158246883275,12.03870493334739,10.352117506192371,18.870070075508693,1.2930143811129255
1.056,3.897426822231864,15.023027211526824,16.800134036621102,2.042763038072053,19.718651650138554,11.197260636377905,24.705747564302328,1.6881733345924204
1.06,7.913374605427634,21.442137543505396,24.119834398550665,6.905754719606421,26.292937477668374,12.40257483760979,29.766359264507628,3.357435857367591
1.064,12.072084709961473,26.079291404525975,30.588153175601065,11.391101031178323,30.956129304976912,13.590519432698784,33.05403284894692,5.880874806006659
1.068,16.327027770357745,28.59535980754822,35.577078258357915,15.142079940805615,33.56738312405082,14.601866102389977,34.42702749330556,8.58544934693009
1.072,20.56154621572523,29.515574180258227,38.77636522082662,18.060993652580464,34.500230246036836,15.544212510239504,34.54292570641701,10.838042269613197
1.076,24.503933921761927,29.74967254296621,40.171301312076366,20.19321718240394,34.28328069001009,16.696957000088332,34.38817992786517,12.314486689812611
1.08,27.780218799257,30.022328936048098,39.978399023316115,21.6377764213114,33.28553799508791,18.322873029399943,34.67652202763202,13.127518595242464
1.084,30.084848562431944,30.54171661954456,38.569262063072074,22.528564572500272,31.6227820785125,20.484637895962805,35.45119973944793,13.756956305449876
1.088,31.353453271719445,31.05025064638926,36.401384275342025,23.06400617197255,29.290151624202053,22.96755712513641,36.108452957360896,14.81024452927204
1.092,31.82621523141097,31.176765271062777,33.94331188206661,23.522694449442042,26.390375961123254,25.35541032764968,35.80941831886139,16.721419268390946
1.096,31.93957241078624,30.808169205070953,31.606240850233007,24.200934513973834,23.264559497346227,27.20802617258596,34.046498643139785,19.52092032162659
1.1,32.08791690802127,30.22753934938578,29.67950989616338,25.271153091383212,20.429403752581493,28.240056357310095,31.014367870807746,22.78011231271944
1.104,32.39997087835309,29.93921520434128,28.285846549501457,26.64028733203486,18.370262961864,28.412927042962565,27.554661353284246,25.759905372252433
1.108,32.68491384236131,30.32458072826421,27.419738876953488,27.924554753800066,17.36650077415061,27.901105059150268,24.752597088492166,27.710122116568755
1.112,32.60950984095598,31.39378820596744,27.062914553489463,28.614863765503287,17.48414974854495,26.97033274972364,23.418599326573712,28.19999046340331
1.116,31.99347101505782,32.79276139378544,27.31964925710281,28.378920357711422,18.710445852523208,25.857210060557918,23.739430886773334,27.325050758586258
1.12,31.04569515235471,34.07268457280907,28.484518038974784,27.35430456318727,21.117821796681937,24.721144607266524,25.283452898273936,25.69726966073449
1.124,30.38200869147613,35.048382247068275,30.974928819642173,26.246798765097765,24.89248841622998,23.67803591964139,27.32333688138806,24.212220347227685
1.1280000000000001,30.767168635811686,35.98591176205673,35.11821507226796,26.122047824275114,30.157957773030148,22.863213161522253,29.24746764428437,23.683188298522737
1.1320000000000001,32.69844133969582,37.4661322985678,40.86800992620692,27.933758631795854,36.682237761968736,22.45328901195262,30.79275958030439,24.489211996925633
1.1360000000000001,36.051165328790375,39.97007455788162,47.62325224285769,32.002960152710784,43.667400269717064,22.596216379732596,32.01309462444806,26.395532361470032
1.1400000000000001,40.006038035026904,43.44544044198119,54.26871333602776,37.71479744684211,49.815001849863165,23.28980675708999,33.042183454801034,28.62969684019322
1.1440000000000001,43.33675259705433,47.14734204204592,59.468458540521624,43.62493921062469,53.70971037164463,24.304022556825203,33.84817835505328,30.184962637954186
1.1480000000000001,44.93067323421474,49.87686276409522,62.10510129838258,47.97365768511327,54.3574175192025,25.225509475137642,34.169544334552484,30.240813791186156
1.1520000000000001,44.30727928103806,50.54277072633363,61.68490983514266,49.405907184022,51.620243864838585,25.632009854624357,33.6710365427748,28.51738560338913
1.156,41.859079669105995,48.731424277832275,58.54250527671229,47.57406964576012,46.30847168132391,25.319281334324387,32.23793071349792,25.415175852904213
1.16,38.68724595335607,44.96633509052867,53.73014572154307,43.33027325992316,39.871784308273845,24.447157005469307,30.176970443636492,21.887533510649064
1.164,36.11033746969406,40.50796241504736,48.62773449797305,38.40217321480759,33.84682241137125,23.50248824958817,28.168547022793064,19.099372777277495
1.168,35.07092834424748,36.77596653542014,44.42176166054014,34.67192942177326,29.31816759611297,23.06204660633921,26.95956547578544,17.986144673197487
1.172,35.73013877599624,34.696572384843876,41.67415874629842,33.37708333439559,26.636598403111293,23.471544823822114,26.955625940532173,18.882584237644323
1.176,37.4355832752899,34.29615477616653,40.174851796376515,34.60805279500755,25.46912542739301,24.63845977481833,27.972117099388925,21.40451192901355
1.18,39.057495344020936,34.754505240829076,39.13885434950862,37.32936178775026,25.107268544772978,26.061211690913296,29.319356799469006,24.625475173381346
1.184,39.5279860328601,34.88623595715853,37.65520615470268,39.90695995409533,24.85827183892161,27.095990792608063,30.18022278390481,27.477023274851263
1.188,38.33063237529768,33.797264300140796,35.18217582412808,40.89387485562793,24.343656193507286,27.32342058336235,30.081139368551703,29.209254178910214
1.192,35.69625925987475,31.36911939947413,31.83834718523849,39.68562486287556,23.595180847134998,26.79593381466657,29.16219928929513,29.68090218242105
1.196,32.440528507777344,28.324823059339906,28.37869346802563,36.7517119411732,22.962059930859596,26.020211888187987,28.11349782792422,29.36705319762723
1.2,29.57248409870226,25.876095793448258,25.87484637754187,33.365964068787434,22.91435812432519,25.67413496505833,27.79121017340276,29.081961348557343
1.204,27.880950050360298,25.150159178034755,25.243028505180064,30.99266475278364,23.834770231166203,26.22899696897275,28.732020875323542,29.554124481921463
1.208,27.674341187022947,26.67397843065737,26.82982132604866,30.628108711548975,25.854390814298313,27.682811753641545,30.84159786098462,31.056523848584675
1.212,28.792756492689477,30.18289304336122,30.25831869441754,32.431137259972274,28.783883349852204,29.568780840707404,33.426264772459035,33.28561293694611
1.216,30.812062094209978,34.78821044905999,34.610753994364586,35.78663405181669,32.146587471158455,31.240078679516955,35.565801104542516,35.54644053038919
1.22,33.27103044087107,39.37631872227985,38.83060072390663,39.70133689944805,35.300285448859995,32.23811141362967,36.59330917875104,37.11759336519617
1.224,35.78904046914613,43.02853380078295,42.12150380958883,43.28584461800301,37.61789505471188,32.52315137802907,36.396850326904314,37.59503369815047
1.228,38.02190169199457,45.26143601081094,44.1420883523333,46.04636658851359,38.6550825100594,32.42270095375807,35.37628605578084,37.01338848415435
1.232,39.560772991682825,46.048814865130225,44.94025707493347,47.88096399725737,38.26198615030944,32.3478845452737,34.12302779939637,35.71298833608762
1.236,39.913183962250514,45.65754298617594,44.70083303064257,48.84973154052386,36.56764550327671,32.46565565481069,33.02109565824048,34.04524673555761
1.24,38.64262106187016,44.43843634919995,43.49002583581114,48.917028199151446,33.85584524825754,32.541270859528595,32.00772525935281,32.11984393311286
1.244,35.64483584820209,42.713293601197165,41.191037863475685,47.8707847459973,30.427505858972836,32.06123698509873,30.67862253743897,29.76768683749924
1.248,31.37720608671316,40.76064150878619,37.64962954894054,45.470104941902264,26.511280913993232,30.565920760831432,28.61816454039672,26.732434885978364
1.252,26.844704967938924,38.84547750972433,32.91368829994735,41.69895696958747,22.27146798466174,27.973989417735538,25.716274616608644,22.965125198282294
1.256,23.267057364016182,37.20391137380602,27.416293361345197,36.94513022113051,17.90348728613708,24.698957506445367,22.310161017351675,18.83885030293277
1.26,21.538663013487167,35.950157031880735,21.941300420432526,31.944759775710736,13.720225064877923,21.468731654046678,19.043607966640593,15.109078374726778
1.264,21.735552470339826,34.94065934336186,17.316878731717225,27.470366972281226,10.099123975301154,18.937805033055156,16.477401750303216,12.582702141597565
1.268,22.991319277212824,33.75062448411745,14.043152121861567,23.974520555038907,7.330332869514677,17.34525724399191,14.777616211746135,11.709903915485938
1.272,23.875098443360912,31.8442102695667,12.053878020339653,21.41471765372262,5.454511585259297,16.43696863981495,13.652989736685413,12.338008698450722
1.276,23.107187335047456,28.868703885452305,10.767986143253438,19.371930511586925,4.194685384444256,15.692499831337045,12.60122507464257,13.758648942999116
1.28,20.263528548664908,24.945154717482183,9.43804912325777,17.417289580572742,3.092849319110883,14.716308719747758,11.335015154228131,15.05216593924024
1.284,16.064795616152878,20.751470434040584,7.568455655604339,15.480004635106525,1.7834703931002878,13.542644761990232,10.060683657730806,15.547296891924361
1.288,12.074855931086859,17.305979240982197,5.18542034020993,13.973455027760792,0.2635965799800033,12.646399917028248,9.427283669499047,15.128969897898514
1.292,9.929250199726084,15.517852688429684,2.7883220909616284,13.565414819232956,-1.031112505494093,12.629166755868027,10.114504348150149,14.210017999880165
1.296,10.493463916463952,15.713184064555662,1.033741456437383,14.732964816908861,-1.4340157545266266,13.77918804510955,12.311794043219379,13.410847569250564
1.3,13.421609615412308,17.42346492717752,0.3717376505219363,17.38954862363653,-0.4259861288473985,15.782687617781448,15.444018479725855,13.145852664065842
1.304,17.36263468593461,19.590928096029984,0.8501101679230487,20.838114984338517,2.03070505342248,17.782732164592744,18.34449146399038,13.361581811192991
1.308,20.66698768099377,21.087470694318654,2.173297645218554,24.08466974292105,5.397500751244479,18.76890575097059,19.819135470786932,13.56195139440797
1.312,22.216556452744044,21.29671685538551,3.9581062456218206,26.344765249545617,8.791135485161249,18.084759310126174,19.30479541886143,13.099696166739704
1.316,21.922480442572123,20.432803344160675,6.016515861079824,27.436671012812894,11.414833041585553,15.758231143010562,17.23935629301195,11.558728631666327
1.32,20.60811650013966,19.37896908631319,8.438958077950701,27.7904796876237,12.921537144677131,12.463929990074575,14.892872192129289,8.988903721891802
1.324,19.370145302562378,19.116823809658854,11.402683283353326,28.05113617157076,13.48258621326886,9.137030336000862,13.68493727494024,5.854227371705292
1.328,18.826357459882274,20.061535710433418,14.834279468936984,28.524036914670432,13.522365903436821,6.467576978931902,14.353837230841236,2.740767943897481
1.332,18.70673512670328,21.69606486712837,18.159275263859854,28.822891371837613,13.308367406754769,4.567781818079311,16.4530396024129,0.010694121680899116
1.336,18.03888359319717,22.744241822153526,20.37028105783611,27.99944109023818,12.694850783092534,3.0140352698108472,18.514498557984552,-2.345204063556139
1.34,15.78778365139442,21.798486450711607,20.409710644337792,25.09977411152795,11.184241608758839,1.203973167721415,18.80972024435232,-4.595508176666954
1.344,11.572745434586977,18.098441747557445,17.702527661280328,19.84114858079556,8.301513396840619,-1.1946214361705643,16.317563328810138,-6.960050179202881
1.348,6.0187569918834924,12.025500895060304,12.538918758285945,12.992736372300897,4.02851750271293,-3.97672802114721,11.347321565641323,-9.300345163991551
1.352,0.510762742263978,5.0269377606337,6.052979706417318,6.1748941222822396,-1.0131793373038818,-6.491478800206096,5.432994639377284,-11.052109504195414
1.356,-3.508738944588913,-1.0119518824303668,-0.20229219812881638,1.1538831260086226,-5.786577485321686,-8.020326006771938,0.5591600900916092,-11.45143007260367
1.36,-5.297913451100612,-4.627698295020309,-4.8909873114098446,-1.0087958724834607,-9.372713626874429,-8.217705623002985,-1.8722276985390636,-9.963896923141874
1.364,-5.181850509596188,-5.410692266754268,-7.4181063081750835,-0.4743430037597136,-11.481527291065504,-7.334842351170664,-1.7497218849930505,-6.668407082187059
1.368,-4.334493020773152,-4.103082026049378,-8.084526624222235,1.4791272167849456,-12.607587246642652,-6.086564090937827,-0.22186351859909337,-2.351616554885368
1.372,-4.104048689529009,-2.124767125103972,-7.81260632683734,3.1372324496178408,-13.695872917936867,-5.242740966908968,1.0487754888054042,1.7665747687810835
1.3760000000000001,-5.274008436954318,-0.8257629016889041,-7.591564400491734,3.238503488006245,-15.512205454832838,-5.189790070631716,0.9119626933133986,4.549072496067765
1.3800000000000001,-7.677091832369115,-0.8731261627490312,-7.940194663154216,1.5950877017321545,-18.099007679647002,-5.724952732016391,-0.5728840988849697,5.428746851888718
1.3840000000000001,-10.355842823251805,-2.078193583211032,-8.682098010171103,-0.8820474347439813,-20.66800506815798,-6.206187807765673,-2.206280347225402,4.60286819825842
1.3880000000000001,-12.146306212231138,-3.697773204400619,-9.130162873831068,-2.743529690131254,-22.028435512397664,-5.9765831542445085,-2.4585978785871703,2.8357110421547986
1.3920000000000001,-12.306651935143236,-4.9454129451532935,-8.538834492269416,-2.793376313216868,-21.273688462466453,-4.798498839714739,-0.5328292636604601,0.9999429197368954
1.3960000000000001,-10.839499168403563,-5.406184246741759,-6.54931951474282,-0.6650397198300197,-18.317515274196012,-3.0358275009948557,2.9991631001321366,-0.36886956025045947
1.4000000000000001,-8.363464802137969,-5.12338900364648,-3.381255408094148,3.1023016818126052,-13.954519035140038,-1.481936319556553,6.402139684318172,-1.2711544787716775
1.4040000000000001,-5.652388838767365,-4.349122344083298,0.30969975683092343,7.47510927386611,-9.404002698686782,-0.9159596813060489,7.74757340672295,-2.0936797169542842
1.408,-3.177427576203627,-3.2134982048482925,3.787195104008788,11.509087188554076,-5.637102033640986,-1.6505162127214135,6.088199328100018,-3.242675282640448
1.412,-0.9519485428536427,-1.5839421183136437,6.552704215348058,14.716829462468013,-2.9305830900202636,-3.3547333452843304,2.08795448413548,-4.850705002340874
1.416,1.2171039548775298,0.7310411488315367,8.427431283201258,17.01252202646083,-0.9501575360418428,-5.263060081426374,-2.324485359382379,-6.756908240312441
1.42,3.251983339583603,3.559138128020095,9.367949277233492,18.32296950030377,0.6984244346185733,-6.6668345300604415,-5.132351206935709,-8.772454067215222
1.424,4.456115950344611,6.04941941866673,9.167553625615255,18.191854918256467,1.8413651081018543,-7.408110242269686,-5.576604919451711,-11.030925044440664
1.428,3.5968508554506116,6.761627920081082,7.292526101125986,15.722905607241046,1.5017657992111708,-8.062783317709545,-4.833202786052425,-14.126170418921902
1.432,-0.5530057755695452,4.235819736675694,3.024038531415499,9.984050440932151,-1.707067421445572,-9.672223072668203,-5.547057930416486,-18.860130390245104
1.436,-8.472794979665196,-2.218036563750502,-4.090351238321091,0.6938225623189282,-8.733783580075396,-13.130825976848428,-10.367937408758735,-25.6699486111238
1.44,-19.356566938258766,-11.943895917537702,-13.719258401801198,-11.227607181088388,-19.27910973447797,-18.54928282457331,-20.268889809802204,-34.06265879861712
1.444,-31.13509708662241,-22.955693956635514,-24.51358264697774,-23.648169193431386,-31.557413563798036,-24.953938510596345,-33.62382615139359,-42.45699473679724
1.448,-41.11516782016224,-32.6180640491948,-34.36558776329912,-33.8597259281205,-42.84377361458792,-30.528869281764855,-46.633131805494486,-48.625358414663424
1.452,-46.973873862085384,-38.69010851292296,-41.13309686561297,-39.617718119797246,-50.5760622306816,-33.329010363000634,-54.973488408471894,-50.59282844109475
1.456,-47.64910296942253,-40.23039586503455,-43.488352876827776,-40.06670987281541,-53.4395688776267,-32.13302207594097,-55.82031429183735,-47.545406515820105
1.46,-43.698286653354444,-37.8864976259747,-41.44416861166064,-36.056841412532776,-51.83349131617615,-27.012353283253105,-49.16892513292987,-40.24031984043813
1.464,-36.94653620920326,-33.41333456940811,-36.262800112874174,-29.67551177349378,-47.45919040818444,-19.322929623209347,-37.748166395091175,-30.665719057658862
1.468,-29.617794730662354,-28.702851482436927,-29.786016362835653,-23.23623020713785,-42.27973368003313,-11.118638049485526,-25.594156257164286,-21.119731570026488
1.472,-23.373601478420824,-24.832452533483774,-23.534033302559692,-18.240481948933848,-37.43433663528958,-4.274412319216935,-16.070505142497495,-13.194211901811286
1.476,-18.735428039923136,-21.66923723160471,-18.053645676811357,-14.849708151081359,-32.73557700894162,0.23505409763129137,-10.398480633819418,-7.227171271892075
1.48,-15.131905456273671,-18.2198469148625,-12.871978888500962,-12.102268889403604,-27.01108215304066,2.5631691450544167,-7.449966712560126,-2.5046690369990756
1.484,-11.481171961151631,-13.47892009242696,-7.067202596987045,-8.69810775248152,-19.060533874314388,3.6534628664394404,-4.835467459661231,1.941315081344328
1.488,-6.951442406909337,-7.257298206346604,-0.09817015291628195,-3.8793336007702237,-8.654141359973437,4.558930766519552,-0.5863875053983065,6.447689287326284
1.492,-1.485916203531815,-0.49005578191645327,7.591664562731239,2.0777301022862957,3.0148747924904455,5.813522188094794,5.53772261137965,10.303958862380568
1.496,4.145132772626312,5.135601937030515,14.580278399163944,7.9939870934085775,13.679814164124764,7.194686781391283,11.862989745222876,12.076391224356485
1.5,8.762644327311136,8.031339811422185,19.119440083408335,12.43011642347119,20.979058769765288,7.97371710927473,15.806768724707581,10.49591203392356
1.504,11.407842299491676,7.5631279320623435,20.06126594460511,14.43747965667535,23.534138612008064,7.4713324715412455,15.435124228861241,5.379208725951685
1.508,11.81645608695726,4.412128810165996,17.510631995817675,13.982831458220971,21.54467013867088,5.563305637117082,10.647726957002305,-1.9918699807576559
1.512,10.5046455874417,0.25596631461121433,12.820039052512584,11.849087071827853,16.631309106522167,2.83425164304208,3.323160027341146,-9.28731211845843
1.516,8.457942225055376,-3.0599913748947074,7.92459035304455,9.130852291741576,11.023789910728738,0.2985922834232042,-3.6324000327604153,-14.146479049070876
1.52,6.636711289447703,-4.405988043647085,4.385402375555714,6.664113919794545,6.541430058846345,-1.1266059929748735,-7.765427837395691,-15.241487233596672
1.524,5.581014966584917,-3.8304751906098318,2.672289386024204,4.725200913925619,3.88269032928838,-1.0746997630521946,-8.254153223697358,-12.823836129908159
1.528,5.292175692862656,-2.3964815054550854,2.0587248451338382,3.112853225427898,2.5250262448844296,0.133828427786284,-6.168803594284327,-8.493222938049257
1.532,5.4113255571246555,-1.5087769933825257,1.1547574241449183,1.4929897425818126,1.209658734273944,1.7326508482674399,-3.746970139643963,-4.3417834656684136
1.536,5.526130240108614,-2.1432858759972078,-1.2382805482957338,-0.2658572505461052,-1.3057605639551184,2.9654449286772433,-3.125861242535393,-1.954904911356607
1.54,5.416040078747756,-4.376209267880768,-5.4231619949532615,-1.9739525363547727,-5.600240179660432,3.4752105146344547,-5.223526040985234,-1.7678282744718672
1.544,5.117143749132083,-7.418327923862307,-10.63070127730498,-3.267380212234457,-11.332829446077085,3.413316463400406,-9.33583283869848,-3.061105154143661
1.548,4.80129444459817,-10.098012646781171,-15.43896840522575,-3.8866298711545824,-17.452711029188322,3.2371065355509927,-13.605956570287162,-4.517740613606293
1.552,4.585886066182866,-11.49234820219499,-18.523333742943578,-3.8781115650126594,-22.69291355137102,3.346959760037862,-16.049626536019787,-4.9770700748204035
1.556,4.43310946904603,-11.358970393503114,-19.287080254409375,-3.560395073864129,-26.07810310779314,3.8074633182386606,-15.528232925904376,-3.975171107083952
1.56,4.201861771263793,-10.164937246147929,-18.053548449886875,-3.291518646738041,-27.219455003591975,4.310485204528959,-12.204079680637733,-1.8469682091963477
1.564,3.7893969126998854,-8.749267963465172,-15.772655865352135,-3.2191269535787796,-26.307890033888725,4.381668470974546,-7.328136115233065,0.5729004467502818
1.568,3.255270013378322,-7.833926228690871,-13.446069732621254,-3.1876751830932335,-23.873909967555846,3.685540943970409,-2.5546661934095027,2.4298343334085075
1.572,2.84119983943674,-7.632806590590917,-11.611809025245748,-2.8538314729430567,-20.45888249262316,2.2352168295656156,0.817021769556959,3.2365582353131686
1.576,2.8527816050118417,-7.783017222795024,-10.154571259179647,-1.9339487188153726,-16.389650172533948,0.38858795861597173,2.299712684820406,2.9873296152072726
1.58,3.4775229565711925,-7.6039241439139005,-8.500659788394842,-0.40933853516071395,-11.750631879131106,-1.3482413544188603,2.2217348950653104,2.0190193425751204
1.584,4.6478605101729045,-6.518324958797166,-6.066346406807497,1.436749866745231,-6.547169751433103,-2.5863578904063615,1.3730942525035061,0.7470066515652434
1.588,6.044510788691696,-4.40531744351938,-2.6839688739710255,3.1665798255889968,-0.9382753972868159,-3.2276952633947076,0.527104406244689,-0.5648772082595315
1.592,7.234623191929131,-1.6898854291448515,1.2074188797578245,4.403563580230184,4.615821641122238,-3.4732018088561745,0.07862625235429732,-1.8977946798268022
1.596,7.867755794075492,0.8603449645734145,4.69535500351094,4.97363168434822,9.379049438850416,-3.68538663588879,-0.04018698887603023,-3.418650581289512
1.6,7.814569395753097,2.5060561007167053,6.769889655749466,4.894730410797365,12.550647519654376,-4.203983422870806,-0.2006356416654853,-5.332346932979135
1.604,7.189408814387207,2.885609671914608,6.750978682566711,4.258094188735413,13.580969247493158,-5.2035978144085675,-0.8126010005780699,-7.712770992302467
1.608,6.264977062986873,2.1741391525383733,4.583319530785957,3.1269399756038183,12.438617825361689,-6.639139488466753,-2.090410721812077,-10.381428196830711
1.612,5.3384308369822975,0.980267134753376,0.8722150818102818,1.5392476685192378,9.683369836395286,-8.2817423425804,-3.966582754830597,-12.896883335688472
1.616,4.6120619253924815,0.017084036389860557,-3.343345188659441,-0.39667719510907773,6.269781737939411,-9.807240597394411,-6.168354924962841,-14.675092930919163
1.62,4.1255114927043905,-0.2799122625046948,-6.978018281868572,-2.4152282664908853,3.1475864047097275,-10.896777884074254,-8.388893057019231,-15.207276990938226
1.624,3.7604257509374293,0.02717303505687596,-9.302373489161255,-4.134459070648518,0.840504766207232,-11.331669721796061,-10.45025158073804,-14.303022610628432
1.6280000000000001,3.290557386895671,0.4334390793173952,-10.201365529552277,-5.250799579277555,-0.7986792687806883,-11.069988723749702,-12.370845506295154,-12.244694611645173
1.6320000000000001,2.46797649470318,0.30003603118893807,-10.194839370398768,-5.778578090015799,-2.51808434702707,-10.2880297536758,-14.316683211469353,-9.741123734460416
1.6360000000000001,1.1045370952524536,-0.7726122482035862,-10.19633113672353,-6.1613089291686265,-5.312833661774675,-9.365182300522065,-16.44986656815672,-7.675483009308664
1.6400000000000001,-0.8591607603193552,-2.707789680620408,-11.095393798277655,-7.12564532173019,-9.930601765084248,-8.783648128348432,-18.750925040129005,-6.740200927893966
1.6440000000000001,-3.3073273075679026,-4.980539215942372,-13.359562352914509,-9.316398544786352,-16.467127427042215,-8.967601260901574,-20.93752903044151,-7.132832614741346
1.6480000000000001,-5.939247175705532,-6.883271145715298,-16.809203885724855,-12.87848937425224,-24.2191485931462,-10.115388921274644,-22.51836540471777,-8.462310076580252
1.6520000000000001,-8.312868683486158,-7.868583750085236,-20.68540354787183,-17.238422913837894,-31.859330379494168,-12.102925698764011,-23.003244504616305,-9.953426806091557
1.6560000000000001,-9.947891451221949,-7.783830427436442,-23.961619918758515,-21.236985367623674,-37.85845280595004,-14.515417005137351,-22.152011992262487,-10.846051317327692
1.6600000000000001,-10.459926007204558,-6.868466273141166,-25.756731406678227,-23.575659399280084,-40.968667647233815,-16.795590101057314,-20.137412049738487,-10.773241341615176
1.6640000000000001,-9.683430365255845,-5.552898076136444,-25.682713425701877,-23.38043912124249,-40.59176847534218,-18.44141865126585,-17.54548740858445,-9.926783302874355
1.668,-7.728886998829694,-4.206252170999505,-23.93800979203661,-20.582588741405743,-36.89997088079144,-19.167307578216423,-15.168384323333157,-8.910743720699429
1.672,-4.9468851392375655,-2.983331125038603,-21.141399634389018,-15.929791465052404,-30.688171787518513,-18.966709215606897,-13.701165788357685,-8.359141149829156
1.676,-1.8137718649995804,-1.859883613614329,-18.00667077525395,-10.635475625898835,-23.049571548638596,-18.059289262451784,-13.452989704588617,-8.529553128898442
1.68,1.193637311211205,-0.8153749925950251,-15.041414667130084,-5.867925666865631,-15.031339365459644,-16.78771860508823,-14.21894980666184,-9.1368777943635
1.684,3.680118290027167,-0.0078203840439528,-12.429159477087524,-2.352789013160873,-7.409523964342043,-15.515962361036145,-15.389217056361304,-9.532534602725718
1.688,5.358982558664138,0.20380904061312322,-10.10649730984369,-0.24173937850264338,-0.6267000436173475,-14.560949692528084,-16.216270213879397,-9.096117252674048
1.692,6.04515648828783,-0.5635037970741905,-7.982686273589934,0.7336838680030269,5.1232525943005385,-14.150392784547876,-16.155310008094602,-7.630119707279846
1.696,5.6418362481690565,-2.45133412296218,-6.142578542090632,0.9522969386871409,9.728785561840596,-14.387993391203054,-15.127796664150083,-5.538354404900019
1.7,4.1628670179707115,-5.17908442209864,-4.864241796281931,0.6544295641360804,13.041883477059855,-15.206966869995085,-13.536930330075847,-3.661230707763025
1.704,1.7841255998919223,-8.085218037333107,-4.451356368670531,-0.13072234025094076,14.870640245555478,-16.34081034763949,-12.062993319044836,-2.8504504864731643
1.708,-1.1297681676405773,-10.39199141415429,-4.980903654270151,-1.484153526424052,15.089910339391281,-17.39614369890296,-11.340659906592919,-3.521400339889624
1.712,-4.082234888299354,-11.548718317526436,-6.163255072959146,-3.456778313302493,13.775163732685542,-17.998237862488168,-11.68295755509098,-5.455074009511009
1.716,-6.5944487248889345,-11.472680221375413,-7.44317385443901,-6.0070491506130566,11.246215186267364,-17.96422940022967,-12.974397514652082,-7.93517202030398
1.72,-8.396170014932068,-10.56291984857944,-8.288705279994247,-9.02945248744345,7.988848174676605,-17.43893609755287,-14.745279186148764,-10.107803815317311
1.724,-9.554222466395004,-9.487736843206221,-8.52143318189701,-12.422106072448514,4.4607689563436,-16.865583410732143,-16.391548853589484,-11.37002364408454
1.728,-10.457962243148359,-8.89635581861421,-8.482149427058175,-16.108460419894982,0.870871163195261,-16.77278986341844,-17.43126719697102,-11.593421493895221
1.732,-11.603968797047855,-9.165720539375798,-8.885482040692295,-19.94382136700824,-2.8764451711022048,-17.461355110952354,-17.669404596990717,-11.050644421748984
1.736,-13.243933334017129,-10.272595383454245,-10.389719780427185,-23.543923240458753,-6.996071345066412,-18.753676404336147,-17.20337342142375,-10.125252170685599
1.74,-15.125132418668727,-11.84694155883517,-13.120530908059663,-26.208280912548616,-11.50305153249974,-19.99344223710432,-16.302702362190757,-9.065378540678466
1.744,-16.47795623035563,-13.327079362414224,-16.423975837813487,-27.051289245259795,-15.93782946137253,-20.329855296473397,-15.250107835263407,-7.918948331311185
1.748,-16.285398570213147,-14.117855960814268,-19.001522927776023,-25.309863000149562,-19.31100171408889,-19.141605182496278,-14.207763300062652,-6.630465044538141
1.752,-13.767994364174228,-13.720454933364636,-19.438469066302787,-20.727319550898756,-20.383563805427002,-16.38796962334709,-13.19349441925624,-5.234533686903887
1.756,-8.844411513895466,-11.838536445833597,-16.885437217697472,-13.803584047980621,-18.21131613250418,-12.691202782116306,-12.166973385386882,-3.9737655566013927
1.76,-2.3069745580942254,-8.46091923619042,-11.502529343188144,-5.718640956145464,-12.652216058099839,-9.069231844281603,-11.113057916083562,-3.1848138575733174
1.764,4.402893783922991,-3.9197200957369205,-4.4530069933116465,2.056106525876203,-4.579019314412108,-6.456095187932078,-10.11025793393128,-3.0620979382420046
1.768,9.720761398142713,1.1040246920238133,2.565343589752956,8.268257902378537,4.330417273741659,-5.270671991236668,-9.323529335024432,-3.495149943783872
1.772,12.560736641613403,5.715623149416388,8.016269204956188,12.269111837383207,12.18523503678989,-5.268864819157898,-8.922831603520535,-4.078708613498748
1.776,12.706183208345465,9.072039212405798,11.094932165567116,14.088148844863099,17.564746569242743,-5.759054976329935,-8.981537056104571,-4.3524293881118865
1.78,10.772625881618296,10.645567177005432,11.887040965355482,14.163390266818169,19.940583955049078,-6.047213486888722,-9.40710660224795,-4.16092225454031
1.784,7.812552519430028,10.38269417011361,11.079421301153161,12.944534990490865,19.67029231365177,-5.845552660272006,-9.983166941989111,-3.8304460140352603
1.788,4.776802150694493,8.66306147481555,9.447314454250773,10.608219468614152,17.617718563140443,-5.418307048066708,-10.4681212982523,-4.028024828635353
1.792,2.1344734862432233,6.085463046787481,7.420108761623851,7.047490435209511,14.643201134159426,-5.3627204758704465,-10.685628511255345,-5.357736794549055
1.796,-0.1623500498935755,3.185738488949937,4.961510040894609,2.1384968437796488,11.247813681940897,-6.163871350228874,-10.606294597257147,-7.909980617027031
1.8,-2.4146476045480085,0.2355998692655703,1.813775318345506,-3.9217595135351075,7.537158798500968,-7.8267006532041705,-10.331977459401969,-11.078623292802149
1.804,-4.795002987420958,-2.7543430823770905,-2.0896041372734544,-10.439128926484955,3.475735184345467,-9.80983453364388,-10.023952917134011,-13.789520671194623
1.808,-7.107357983037218,-5.8607181350489554,-6.337180042358341,-16.34181226648525,-0.7973392268313546,-11.309785709172502,-9.795948131995829,-15.0460671418341
1.812,-8.834700656701898,-9.019485298311338,-10.107898623124129,-20.56480056291548,-4.8226753431226825,-11.731997449023766,-9.629665075983212,-14.466902690246116
1.816,-9.41874544296661,-11.897586013633372,-12.55205554794702,-22.47669152227536,-7.931038230071863,-11.057417017222178,-9.365881627902127,-12.485761768200064
1.82,-8.583008670093477,-13.958435719743647,-13.224883295758445,-22.102735461590783,-9.518541592471593,-9.85644138290263,-8.745859263592138,-10.047236048641935
1.824,-6.491581758133179,-14.691563992504598,-12.317435503147863,-20.03263077844258,-9.321790493842855,-8.911358539717185,-7.512058484306181,-7.982229665226441
1.828,-3.6738226710585877,-13.900511957845083,-10.539130626157203,-17.10518958456305,-7.559342878190364,-8.700494353613976,-5.538448099133348,-6.522504039708565
1.832,-0.7695866420272068,-11.860158220782068,-8.72455417814308,-14.066838830139204,-4.849521064561486,-9.046551432482374,-2.941515034184704,-5.2303238581598634
1.836,1.7484822236510809,-9.237329132189188,-7.396654840039446,-11.368097430076887,-1.9727666114895328,-9.190268352056592,-0.1111012275223402,-3.387184503525077
1.84,3.726787032568609,-6.795324438381613,-6.508700499468432,-9.128873720474076,0.4300124982737543,-8.255505511730007,2.4037386199079265,-0.5459268364816126
1.844,5.2995484486637,-5.027199039557672,-5.508870410122654,-7.231387301003451,2.0959339107030246,-5.811730929772239,4.115230382159098,3.1452570743499564
1.848,6.7116638304323715,-3.9417423517725183,-3.6861056496545643,-5.458708816615399,3.1978701423922757,-2.2217585216876614,4.840379650189789,7.010719060131123
1.852,8.154918187343355,-3.0759330210335065,-0.5720853541879478,-3.5581504378078535,4.286241343887468,1.4734687580112222,4.864633094371129,10.30753992218024
1.856,9.678552520850644,-1.7691429718702238,3.7809274894434566,-1.2951025006950658,6.078616009574944,4.105274855573953,4.863082842068252,12.678661552292851
1.86,11.191515524318675,0.43272081309396526,8.783259390890635,1.4564618460444763,9.146918663312135,5.0288208438450965,5.591908241188321,14.254836827439249
1.864,12.496566939084005,3.4473768032758016,13.502397504923465,4.569645099075387,13.592696068003988,4.49110049824958,7.439425376063809,15.336044319823031
1.868,13.31420284204978,6.5675859787320405,16.96783612611489,7.546979124000245,18.827459271074986,3.46851852981672,10.076196667800104,15.918343242812625
1.872,13.325611625721649,8.706486459552252,18.453304784708052,9.57106831861529,23.623408858799394,3.0384019678576806,12.440074421130703,15.500417059018673
1.8760000000000001,12.258093958229438,8.875436477284438,17.6532965718543,9.781629681670893,26.470945775001837,3.692250670644171,13.141953895715233,13.391720821062336
1.8800000000000001,10.002487374389602,6.654928720716271,14.748766494294614,7.690505470532116,26.14788980023377,4.990728399047839,11.153412560506695,9.344479275635422
1.8840000000000001,6.720810717893983,2.4262666440622525,10.345711309642866,3.49995503291575,22.253552294906513,5.790574347274742,6.424647292281406,4.016665017401465
1.8880000000000001,2.857814245238842,-2.7659985337086255,5.326620786943749,-1.9066341053603537,15.437225432470314,4.957135360821667,0.1043315316146618,-1.1702652355584178
1.8920000000000001,-1.0097506258935027,-7.670120621617116,0.5919238676997338,-7.3762223634212205,7.151706956982707,2.12802149944946,-5.880347133804207,-4.846045699672686
1.8960000000000001,-4.413661133725327,-11.357783980188287,-3.235066281370564,-12.072266315865818,-0.9662410764676679,-1.9241893001353674,-9.741046361174085,-6.690604222626462
1.9000000000000001,-7.20345612809615,-13.568341352028256,-6.000742923034522,-15.871785368267865,-7.7605782032560455,-5.568365251571777,-10.748229012343472,-7.859824684318937
1.9040000000000001,-9.55315572391919,-14.681648231185136,-8.00965530479698,-19.275479262844783,-12.905043335323171,-7.105575778848106,-9.644561250703191,-10.365759543528839
1.9080000000000001,-11.739446721974673,-15.374102909414887,-9.77710980053962,-22.843941264680325,-16.76104791092621,-5.653051199058609,-8.257874205854023,-15.659415959026774
1.9120000000000001,-13.837303232014165,-16.178068945493123,-11.682896259799236,-26.543054156200924,-19.869575660363807,-1.639071107014388,-8.493884315764262,-23.29860550859121
1.9160000000000001,-15.544643932784311,-17.199540952849475,-13.707953004231967,-29.467246907137906,-22.419285881261658,3.3658607674242376,-11.238677886752157,-30.668955146391
1.92,-16.30178769684153,-18.158846411945433,-15.407283426873619,-30.201067209415214,-24.04502428358319,7.373179792817609,-15.783989993566138,-34.18285390160372
1.924,-15.667129266871598,-18.684171111973683,-16.163907757250854,-27.683447341418287,-24.083647123630726,8.883747189911446,-20.13890705009726,-31.410313805143687
1.928,-13.707151236793834,-18.626893031233976,-15.555546921622408,-22.037958753097882,-22.097758001597867,7.520857046139099,-22.06942923992301,-22.86271967671064
1.932,-11.094190200610683,-18.137403762271788,-13.613482526939151,-14.784389974424812,-18.27003300210845,4.111547876917939,-20.32546028827346,-12.190450953186883
1.936,-8.785168532637726,-17.434820573902016,-10.791520892233166,-8.202885315852654,-13.377147025527393,0.22239012494719645,-15.337177696233084,-4.451237914025114
1.94,-7.437367453760089,-16.459768186112342,-7.644090895631962,-4.141299717722632,-8.34550715637124,-2.578129260701644,-8.979848335315182,-3.301782599946364
1.944,-6.943799819154265,-14.720882736936346,-4.464142513847037,-2.9834107947981465,-3.7155694493490046,-3.344847029664379,-3.5876035058363414,-8.740638028691137
1.948,-6.427789964761359,-11.525960098168525,-1.1168175909424463,-3.4213015249833916,0.6079398959254831,-2.0016111819568323,-0.7477004115580712,-16.818667510825435
1.952,-4.783968496636589,-6.538178210588285,2.7595554839590477,-3.2492302057198685,5.107932693031671,0.8172352907013192,-0.5827983372482777,-21.66505740224511
1.956,-1.467041216033067,-0.31672717417632157,7.298499127354262,-0.7409172941902398,10.057181562587175,4.184591842945338,-1.893440493462549,-18.753569718991457
1.96,2.979127290253018,5.573411133245827,12.03939321461894,4.229658347945133,15.013815618384797,7.307557866246498,-2.997828656526508,-7.524373471945182
1.964,7.06367389263869,9.094859914591325,15.932669503810757,10.0278074720527,18.814779113264194,9.770125917022597,-2.724851648448748,8.20211561414817
1.968,9.15600184302275,8.725123718593295,17.824043322483703,14.20132722126391,20.16917443246939,11.539023440660458,-0.9501882696449684,22.311948495203524
1.972,8.501129839885834,4.374789226491885,17.14668485331822,14.944461583804696,18.506869122141325,12.774509951473192,1.5612371805800649,29.76213704449492
1.976,5.81015125301019,-2.333609657711804,14.375960011012467,12.188490042249668,14.515370898795027,13.60547295273227,3.81952165853545,29.278731838998738
1.98,2.9742558754460333,-8.695027104139172,10.923102311797265,7.63966520082613,9.962509886230237,14.000708375338945,5.284546735937511,23.849676276890932
1.984,2.001871383444268,-12.19570398569931,8.43247141746042,3.7389116644358182,6.826356998444226,13.79767820842335,6.0923876553242735,18.792048614866417
1.988,3.7974519841091023,-11.75542149870671,7.884313819126419,2.2119158499062905,6.230317779239158,12.868655469495025,6.762910567118524,18.59587782593917
1.992,7.525950068559723,-8.235053451303429,9.025401694658285,3.099702379075552,7.823962586518974,11.31134036650019,7.6376986386694625,24.38659088262193
1.996,10.992301207458695,-3.910993014545056,10.49268258645634,4.854255534884032,9.999521906653172,9.535152204689439,8.488421821068187,33.41329488627707
2.0,11.864957145532571,-1.2040995719030434,10.613807792461557,5.422644774154833,10.844807339652107,8.16458322293056,8.619106740859934,40.73582441270719
2.004,9.058727720509523,-1.3650116378298662,8.426491019826244,3.6088127382504354,9.275807909522428,7.767744471241713,7.395163742645309,42.01098587898582
2.008,3.449352025105327,-3.8646163773100852,4.334466717310534,-0.12228527710976778,5.692109413207618,8.540831810985765,4.849489463267673,35.80911819504149
2.012,-2.485818610472961,-6.775538661181599,0.006359941279697523,-3.8487585697735085,1.8042638264487323,10.122876088027624,1.9132516856834627,24.275548448885047
2.016,-5.9032039771045675,-7.879727873025331,-2.4388681429741155,-5.2459921351096455,-0.24468194025303092,11.69284229952791,0.07144134567988658,11.95097308908089
2.02,-5.014895772398631,-5.853310629100633,-1.4905711024803168,-2.827564239107687,1.0616793499220876,12.3489693341362,0.6217800553322377,3.5769999088263376
2.024,0.08074147393290332,-0.863428796916196,3.007827212697066,3.3231836093714264,5.936645193359709,11.584276866280561,3.9515407785561365,2.072359252288379
2.028,7.565125243737384,5.692526729899782,9.83779354085982,11.680172159005906,13.294345841389713,9.626959095978236,9.288300209014778,7.590317488509299
2.032,14.875573511009861,12.049617171400996,17.048749469480754,20.06837622285957,21.329898619032747,7.405865915057802,15.039962554991234,17.84727360435727
2.036,19.88552446138783,16.95372513434063,22.847486940630006,26.572503341893935,28.268391288518842,6.120584626479285,19.488239365927257,29.274442064481946
2.04,21.658824990615358,20.046563288109837,26.26022652326992,30.08232414613849,32.883623944762576,6.622768393677688,21.480545534592693,38.34961310397466
2.044,20.52016594684119,21.65766356489712,27.297242596023807,30.357011923652408,34.66247737204094,8.941694644561721,20.802026464616574,42.6429809548315
2.048,17.58886552031072,22.2637754091852,26.654414811089282,27.813276088374096,33.71631568967882,12.257204752419511,18.109879930200805,41.40854050795042
2.052,14.16007792218079,22.0565941357886,25.189193798838915,23.300934026398863,30.613341350226165,15.337827301625566,14.522259051363562,35.672004289007646
2.056,11.29969695742966,20.927612167483858,23.508466596580547,18.00722638706361,26.253430804804566,17.20583021328821,11.140612040390806,27.861573901318934
2.06,9.750152412420903,18.824045183224598,21.854585762828265,13.396128892987008,21.7577581412379,17.65543855500664,8.732650532743719,21.038870310838092
2.064,9.95273790352394,16.110269740326203,20.193184070061307,10.921009197264539,18.225384218598037,17.29535651390779,7.593476620920683,17.803267672853053
2.068,11.995864366553178,13.59882112085279,18.383573440498367,11.476229622059464,16.366811433255634,17.101413269922887,7.578845675147477,19.241761706464786
2.072,15.476153342441648,12.200927439791712,16.324802799553254,14.845728479045874,16.22214575560065,17.77799642294758,8.26457978478902,24.436941370617205
2.076,19.41422699111172,12.392329896315687,14.007656531873636,19.529366779919883,17.151104382387302,19.316226572057985,9.131297991247266,30.857769295170783
2.08,22.463211799733926,13.893412777458707,11.57381225993322,23.255820742178457,18.229737399148007,21.017224244137196,9.807997847837669,35.58826089776471
2.084,23.448628733809528,15.832561783049869,9.384619270774238,24.056292713725725,18.881981772088466,21.97365511506814,10.290442211139634,36.82986827361037
2.088,21.98983968170296,17.293343727569663,8.039568160666931,21.348455243539547,19.344997321004257,21.678635956009657,11.039096676546706,34.844189655303126
2.092,18.818786729490512,17.896553172584845,8.22963894580289,16.368682574350714,20.612952895331546,20.33894445128817,12.810113955429188,31.736859677998382
2.096,15.522056003952912,18.025122699605845,10.406172919931578,11.612529479251407,23.800298934130296,18.703550162379997,16.19956329478282,30.154880599238822
2.1,13.782281443642205,18.541513313530004,14.43977676723216,9.54829305615067,29.30428300622725,17.556161521122704,21.170833329205834,31.682784282987086
2.104,14.52666964444552,20.19619814741577,19.48089081585249,11.315677207345743,36.311117328456476,17.216668920710617,26.851317006214686,35.91082151575711
2.108,17.447293535125027,23.08002112002373,24.172027759378125,16.14614738107707,42.996432706049745,17.389448733637437,31.766801698385734,40.718236177272274
2.112,21.223826488132545,26.52129110724468,27.21082197029,21.86145480637856,47.421777780981756,17.45614570384214,34.48750539541561,43.614773478810775
2.116,24.302865205835587,29.477056741681736,27.971847548319147,26.13864024759141,48.598015557593044,16.99502875262033,34.34909146314658,43.29642031326989
2.12,25.76316099010137,31.15607120369168,26.855395134901073,27.7987339373783,47.06648844108099,16.134851360344783,31.854806078004913,40.4465094552063
2.124,25.735423831012213,31.456957938023834,25.08515363631841,27.332333209863236,44.57249157709839,15.464336469217415,28.43938022369639,37.24957141194159
2.128,25.127781774493542,30.928235971483673,24.021864827369427,26.369772452750112,42.962538769421144,15.548562321025202,25.688778739344798,35.92876439253587
2.132,24.92165768410996,30.34899332343116,24.4099916411526,26.52639413445445,43.02851473774558,16.431366167511896,24.511026847914763,37.33459702254709
2.136,25.51840087593837,30.225335432774273,25.993081463610906,28.367775248240605,44.02502583400383,17.506749122402653,24.76657157025261,40.49414502149739
2.14,26.557646129696877,30.548134220345673,27.752477425063717,31.142876702391277,44.1841413131649,17.912163598121424,25.60106724606453,43.389002192715
2.144,27.285610371388884,30.943764038488894,28.59770397192142,33.38270583231338,41.91076992031935,17.192122530417237,26.22623737425306,44.38684149556127
2.148,27.16915409114972,31.047638095659522,28.07921895432355,33.91471839966039,36.89742732397053,15.764597589271943,26.622723269857488,43.35682560302348
2.152,26.28004929390545,30.79023096274659,26.643846902249607,32.58202068964579,30.434886157340884,14.757702815124503,27.58072548139762,41.679940108435176
2.156,25.144407636932556,30.33931260052418,25.21491526833165,30.165721156921563,24.64646783923422,15.240689401337477,29.949717020394473,41.08677476174876
2.16,24.180359670704092,29.747207904207585,24.403080292145205,27.619021016220472,21.129450402994053,17.313607321544623,33.61214342484254,42.141548544260104
2.164,23.168901596596697,28.618817575523167,23.88989332047413,25.17563965014483,19.891284462879185,19.641291606317964,36.88723579313137,43.41463607668834
2.168,21.218115068430052,26.145083363831645,22.49495653271879,22.03101703852269,19.313562890343064,19.901623650785496,37.003194106891215,42.04070102424612
2.172,17.324563572951092,21.58353437911842,18.943197045372244,16.860838169860244,17.21039962278178,16.015757881904392,31.527359604413505,35.40320843471977
2.176,11.211061702841562,14.928615151447957,12.880972848939791,8.8728948620942,12.348401823688164,7.496414558370816,19.987280330716203,22.965362191472423
2.18,3.9109393655553504,7.360504003944698,5.549538960720383,-1.2409947997241488,5.526204082920572,-3.879820771442155,4.773344258438328,7.15480409828433
2.184,-2.3924366369265044,1.0554989243420323,-0.45851998273155914,-11.167392562070745,-0.5542926534518529,-14.587036280641314,-9.41510988896971,-7.39130627650934
2.188,-5.314317732489144,-1.6959914532470748,-2.353880969912325,-17.855843686821572,-2.652899560931928,-20.88521019149084,-17.487758296644643,-15.89355909766914
2.192,-3.4701348415021585,0.400767628794938,1.3943323232838338,-18.948310021440193,1.210354737298303,-20.580576082261587,-16.288390717196307,-15.654697590560659
2.196,2.767422519475531,6.930558699739436,10.113089400565968,-13.970410476702,10.553881754738313,-14.054424117302005,-6.094540445933944,-7.26948496275827
2.2,11.386139645758703,15.853305152472217,21.060341849241013,-4.619349076022218,22.514265125905695,-4.013825636122647,9.50108030579122,5.7861663709892355
2.204,19.71653998238662,24.417237737211394,30.635369361139965,6.029471098036538,33.2032542929536,5.896726913905468,25.300188493700034,18.966877412932263
2.208,25.723781568266077,30.41626582233232,36.06429588761807,14.95633166474613,39.5735355651359,12.861407480241041,36.88178898914498,28.808338559890217
2.212,28.841687360907144,33.07417099090321,36.612442882604,20.446895240473054,40.716210252670635,16.072370911755797,42.360483890185606,34.224803062094
2.216,29.91427505216211,33.11677768807215,33.694813420751075,22.5282420069924,37.92867992298329,16.73249126472865,42.67781896634324,36.4202430974733
2.22,30.343365437224747,32.04951032249028,29.897629220423482,22.466353281700776,33.62882184979935,16.984950024350837,40.44532710852036,37.62134183111931
2.224,30.97459461854578,31.089013703458136,27.451971903068852,21.676720577407536,29.79023978554585,18.472584473008737,38.13529092681597,39.4277293027277
2.228,31.444364374897077,30.407653601834227,27.053247898662676,20.78372634890013,26.86554319500283,21.37742375244693,36.70329356695993,41.81579028975386
2.232,30.401383710047867,29.14603912316278,27.671012752760134,19.374792875301182,23.827595507186004,24.42705900889291,35.39327052344834,43.30412297803616
2.236,26.4456422809551,26.136723716459187,27.363059095902145,16.495735555073907,19.190254881106057,25.803005929587812,32.726075936872235,42.04523749776058
2.24,19.21639740058663,20.86062089455754,24.58709714923225,11.540398548062967,12.323326069950326,24.34374174926245,27.906843511906345,37.15762576653481
2.244,9.926864495217387,14.011118378737422,19.192529529660078,4.89667046812508,4.190241197825799,20.280627455911826,21.67869534135673,29.42929138642677
2.248,0.9883138346709757,7.299229593253926,12.548682592324553,-2.0693010967643204,-2.9626328805589424,15.104118900895628,16.092640958266088,20.985922787071843
2.2520000000000002,-5.097606347422925,2.6085043790184272,6.771460612467763,-7.6739625146727235,-6.7721606873432165,10.708011103245099,13.34241806191335,14.189426710827547
2.2560000000000002,-6.971162072866605,0.987287682168926,3.5127376629384344,-10.834036586973582,-6.114885531851826,8.35302342999455,14.411446127937324,10.395995251769477
2.2600000000000002,-5.090245899851652,2.0705959888294956,3.065771705171869,-11.658406982769861,-1.8274073786977283,8.0507880894354,18.370933998478336,9.310694630945704
2.2640000000000002,-1.4455227276628193,4.305344391023766,4.318264725563608,-11.331045174707697,3.672916997307766,8.70873037775425,22.803335368107582,9.33351915844878
2.2680000000000002,1.5198189337450003,5.842411007474084,5.547832251120326,-11.343062270781502,7.650613627624011,8.902415570593348,25.116375595589602,8.682071711156027
2.2720000000000002,2.1795781655797555,5.571425939439564,5.525816218766295,-12.549138714091214,8.4612966222453,7.750966417559198,23.957513097290757,6.547190542277747
2.2760000000000002,0.48095012124747427,3.6889132176070234,4.231009097785147,-14.648941742271063,6.299558412676674,5.382261373978395,19.889045769104314,3.5715277050340433
2.2800000000000002,-2.204114869103819,1.4704585366476408,2.756713027901924,-16.40206358494254,2.879824341347046,2.7284966560587236,14.976295277317831,1.3667198349635896
2.2840000000000003,-3.9942133548941,0.4150869403015349,2.47153727158161,-16.43771098585023,0.2819040207778869,0.8378544684622966,11.556310762638475,1.3727019902152335
2.2880000000000003,-3.655606073324634,1.2556142690399952,3.975175770769283,-14.180341159190107,-0.3412940613213209,0.19350323382741408,10.918922791052978,3.795090406802359
2.2920000000000003,-1.354216169310348,3.399875826126248,6.481558321851423,-10.357036662054895,0.5166096192159841,0.40666011409933844,12.608916010500309,7.231081738281603
2.2960000000000003,1.4503807356522884,5.18415147108621,8.079312798566036,-6.708004428221329,1.023316368919751,0.46333188907135536,14.748499044748883,9.335815256376264
2.3000000000000003,2.8811336875492657,4.800125090768972,6.7784829475582455,-5.028260804664427,-0.8491466281121518,-0.6310000347815503,15.15634092160235,8.207457420024468
2.3040000000000003,1.7791654302806705,1.3666123380184274,1.723055438328288,-6.110269720140934,-6.0496890100278335,-3.2115293278782815,12.58266574886619,3.6361615570761217
2.308,-1.5720568103704409,-4.477055729476916,-6.139389679055796,-9.205076749415099,-13.778951893065084,-6.7000083652683315,7.371700255050939,-2.5491784001225994
2.312,-5.590010485568882,-10.841290307703105,-14.39550086021353,-12.381747142007328,-21.83378279373835,-9.881641257569015,1.1982887160393716,-7.360398929845502
2.316,-8.32136044291758,-15.57906429491797,-20.37118447052285,-13.617917596056628,-27.755951290338402,-11.569467417636702,-3.905866096491309,-8.324841307630095
2.32,-8.614216414551947,-17.449041685617004,-22.5283822201701,-11.993249688481399,-30.10806133685145,-11.250867842059506,-6.6205235348600695,-5.012687660116285
2.324,-6.85698778299593,-16.80002889949907,-21.301755781536315,-8.309741864323598,-29.16288712429352,-9.378447869612273,-6.947964449794085,0.4748182746366183
2.328,-4.820799593917741,-15.369337051277768,-18.858589131754684,-4.736554692650998,-26.619194919506043,-7.1612863819810855,-6.042890404589798,4.43142062722535
2.332,-4.637919819621629,-15.266513021056255,-17.87673924599187,-3.6232448449570143,-24.512326691957583,-5.943192496569623,-5.403683175784067,3.4853406603399435
2.336,-7.5165820345413294,-17.73668372214462,-20.048645809363563,-6.169827564635909,-24.009613161359084,-6.52684479453751,-5.989170968287738,-3.5135665440940897
2.34,-12.929302975657265,-22.407015180826306,-25.12946734854171,-11.688060716035466,-24.795756860418123,-8.79567180013214,-7.77193373899604,-14.71639120288404
2.344,-18.77792676136437,-27.4590066989781,-31.086200755661082,-17.914750728258923,-25.400335052466005,-11.8099496747908,-9.962581977938385,-26.084074056464118
2.348,-22.48929717928513,-30.65401044181965,-35.24847494982629,-22.216610047195047,-24.25107220717655,-14.325770240967813,-11.69870674120125,-33.370524058297974
2.352,-22.42698899114339,-30.61825932934596,-35.796972738569536,-22.996490204012957,-20.784453171984637,-15.461503881368799,-12.721204581964798,-34.235911078356594
2.356,-18.815738127882582,-27.645467598675452,-32.754964876773215,-20.520952077018876,-15.931905983818524,-15.140099847900956,-13.5878198619547,-29.358325246902325
2.36,-13.648073299644011,-23.56017192822742,-27.924812859393455,-16.707416578516643,-11.675326802865413,-14.100676415844305,-15.301558608128289,-21.96659640100785
2.364,-9.59284863667142,-20.69090633222976,-23.839231841153037,-13.990989842707279,-9.924573980528407,-13.48537257924238,-18.591872856590953,-16.096938243927582
2.368,-8.541197080812026,-20.565165948776894,-22.35618012994155,-13.947465582473228,-11.411186853075321,-14.214624330284778,-23.309822996361277,-14.563015715584754
2.372,-10.629895898157088,-23.09366345877595,-23.73142249737191,-16.477365062886633,-15.281407342257069,-16.49098004729717,-28.383573149934932,-17.743941582084744
2.376,-14.289568890718215,-26.707106071228452,-26.687383463352944,-19.998606325656453,-19.646500848126777,-19.677661188966454,-32.41374460626605,-23.748511134031162
2.38,-17.274058612936074,-29.35976532321854,-29.359418289342216,-22.48541555271794,-22.752886752068207,-22.618557748219132,-34.53549601847499,-29.733685071431466
2.384,-18.02611420263736,-29.767831372594742,-30.498323918364804,-22.699509498403245,-24.04758715339483,-24.237336547098835,-35.00654727452354,-33.53364647318989
2.388,-16.569484585092823,-28.153537722679687,-30.17684984079324,-20.872972730987556,-24.494105972981515,-24.086524210956213,-35.129869163099556,-34.65208905938266
2.392,-14.410009294926681,-26.052960998814342,-29.600705601277923,-18.460276171598025,-25.936348922591264,-22.568378364525074,-36.501824178820925,-34.155085280264984
2.396,-13.520825566715189,-25.307284851400425,-30.177017601808757,-17.148677489255874,-29.86939056198031,-20.716322732116737,-39.98277049449837,-33.66842609640662
2.4,-15.074486798005978,-26.891604795300736,-32.467606273369256,-17.784496801463433,-36.38194163275557,-19.6685443310746,-45.02081596405162,-34.23004236210653
2.404,-18.700562993875565,-30.28543384895943,-35.72327310624428,-19.891795294182543,-43.910590705648644,-20.112740126999824,-49.78607877899037,-35.72808050519279
2.408,-22.734053484782294,-33.78020863901867,-38.297694614306124,-22.06517248484306,-49.973628993443356,-21.99810439510759,-52.0959490487071,-37.206901201672395
2.412,-25.28107989635305,-35.51333127398408,-38.66426252666349,-22.95158745525754,-52.445208575676475,-24.646650083455597,-50.645070256496524,-37.74015928327657
2.416,-25.419812081969667,-34.58319434609439,-36.392130807653075,-22.184764607638556,-50.63991632993003,-27.174195434359603,-45.862903943443484,-37.22404284905639
2.42,-23.771255466312596,-31.55864515161744,-32.42045961672716,-20.643926905369312,-45.581278542591065,-28.96185037970679,-39.84373468906915,-36.51741844954137
2.424,-22.085568796705275,-28.08249266871144,-28.468994394059564,-19.87577923861818,-39.33397325257903,-29.90801243231988,-35.354099683072036,-36.84450916592385
2.428,-22.124421216900828,-25.85769419833281,-25.96210175635565,-21.062990847264814,-33.85707499313975,-30.34374309106795,-34.432514337586326,-38.8683123666828
2.432,-24.514854164731105,-25.63746811929468,-25.145580790733902,-24.18597094464144,-30.056094185353572,-30.696123950079823,-37.31286016888191,-42.0738162865465
2.436,-28.28801579362812,-26.827940361789274,-24.980224926048663,-27.92423096719233,-27.567773676570994,-31.126682330939047,-42.27697001701506,-44.90445365448306
2.44,-31.412993266833837,-27.934726078952735,-23.876764184699027,-30.37412583468904,-25.332667447504548,-31.383293968550447,-46.50996934787577,-45.599404154066065
2.444,-31.99318676188045,-27.532482776619133,-20.830397514084552,-30.15853146475547,-22.520842990403196,-30.961694193426638,-47.52195287405743,-43.23588069735399
2.448,-29.412479643929146,-25.15457377849009,-16.22524842820542,-27.26104458976647,-19.200587657924473,-29.46280433880588,-44.38008804058461,-38.330470202591584
2.452,-24.742190472987204,-21.562511163467775,-11.775671017236391,-23.074694094266874,-16.329182183921148,-26.905080525386666,-38.11859654354225,-32.61002223176848
2.456,-20.156986620879934,-18.240846897935,-9.60396857603132,-19.62761701355646,-15.095913922238879,-23.782800812919277,-31.1470286773191,-28.066742204667037
2.46,-17.745685965626535,-16.50132517011764,-11.00171312590669,-18.472251112252366,-16.101657196966414,-20.83841769409173,-26.02350658257501,-25.892637156485648
2.464,-18.418623236977737,-16.760414739997543,-15.637747061777759,-19.900712847550153,-18.930139483159678,-18.676298732432542,-24.271403777744354,-25.90820043054123
2.468,-21.512139114357524,-18.402635436953346,-21.673422511693957,-22.898466891060707,-22.38729609985944,-17.475699350134846,-25.804554501469624,-26.79360866634198
2.472,-25.26679690031301,-20.251393545529254,-26.71704801554472,-25.809347711311148,-25.23693179408872,-16.971507101902034,-29.17811148950159,-26.96309489507638
2.476,-27.82028329296304,-21.274741451673776,-29.057671124105354,-27.251007243161894,-26.928680715090763,-16.694515288717866,-32.44681034990367,-25.507308544349883
2.48,-28.14380546448342,-21.10089365791532,-28.47205108655419,-26.74883673984766,-27.85725516502464,-16.32846834248926,-34.13868975533774,-22.679961553638805
2.484,-26.39102588649598,-20.032298215510536,-26.1584756206247,-24.76311796475602,-28.972447965194647,-15.9207490721476,-33.83982142266905,-19.67352296603184
2.488,-23.530708672393985,-18.61080926072418,-23.856918059815484,-22.162023351586868,-30.98327430525717,-15.809132815925068,-32.12062458797777,-17.843414731939504
2.492,-20.58368635221177,-17.078305926365033,-22.698908278593763,-19.53448153015347,-33.65782885632677,-16.303676116737506,-29.948928450913172,-17.866858718715662
2.496,-18.01661808622862,-15.155435094264249,-22.527558958610257,-16.844183031328726,-35.72920050466064,-17.350413422251222,-28.04821312548097,-19.377730049373326
2.5,-15.655854098704594,-12.291394638600195,-22.042345788628495,-13.61631887186752,-35.49569798064124,-18.435351650177836,-26.536157711316264,-21.26156475583798
2.504,-13.08726736499898,-8.173885186950656,-19.651539483436295,-9.469707831869755,-31.760780650756033,-18.80276990864877,-24.995578985585098,-22.35600916019257
2.508,-10.246736861996851,-3.176342610911206,-14.541218938106908,-4.641072812696734,-24.61517046965514,-17.90178121080362,-22.905730791637325,-22.147734315278626
2.512,-7.740350138945587,1.6017179113000566,-7.3075206605167295,-0.11128630080679613,-15.574525859976575,-15.792081380536956,-20.12534415350956,-21.03487507595571
2.516,-6.63612126183898,4.78700520437917,0.21646905184002208,2.781038335298831,-6.96381553483036,-13.2260649161135,-17.10186502044644,-19.994181412841385
2.52,-7.871803896585789,5.392656472355952,5.818736282039708,2.992453975640501,-0.8990499030923047,-11.32712652040118,-14.704683315677812,-19.921082809739687
2.524,-11.626664855923536,3.3224446649313677,7.955698069622031,0.3078792435902642,1.6091227313820582,-11.018750741368649,-13.794792449270062,-21.059624926134916
2.528,-17.07806290923577,-0.576239314093641,6.446294342822057,-4.549940615553965,0.9806838321171654,-12.511904406245776,-14.749589022490227,-22.84864236550004
2.532,-22.735224773953178,-4.947247709724593,2.4588171219536434,-10.285515095216738,-1.3105283801229461,-15.156369165649494,-17.212338544730073,-24.265780093388457
2.536,-27.16634240467556,-8.598838803580747,-2.1775361206803154,-15.652553549063555,-3.592047209436828,-17.757479921246613,-20.2243301721428,-24.458960274689275
2.54,-29.709833718970913,-11.046714973410758,-5.90847806384113,-19.960988796921697,-4.857238385308506,-19.197842299434797,-22.67017301571059,-23.278156014497085
2.544,-30.729336762440653,-12.614756826995858,-8.128827348756886,-23.187089488220067,-5.179875721803114,-18.996972773733432,-23.792011441729755,-21.355866890470907
2.548,-31.280221444376366,-14.091583455248838,-9.288756647682249,-25.687044898347494,-5.531597276500747,-17.49563363612333,-23.50273627740603,-19.694283679321188
2.552,-32.41400689910097,-16.183955739002045,-10.45770356325238,-27.759618163040045,-7.1620531836161945,-15.593164973098965,-22.37738834796096,-19.04300392817629
2.556,-34.51536839600681,-19.06726204897393,-12.632223903747672,-29.35729035452539,-10.882526834138503,-14.202344554712909,-21.33742758592075,-19.44323198394966
2.56,-37.06372698084124,-22.284965975817954,-16.162764309203112,-30.120911096928353,-16.60638900579977,-13.734100208139353,-21.165656441458623,-20.197359686389518
2.564,-38.92033492652445,-24.989345855948613,-20.556573352920395,-29.665490142669796,-23.317746537270295,-13.909129417093936,-22.080600551158113,-20.278833624635126
2.568,-38.95823411339438,-26.362700756355935,-24.693446006851218,-27.89467385786645,-29.437827671376112,-13.999550127530028,-23.579246069177543,-18.942286622158576
2.572,-36.670836466028504,-25.97358386955193,-27.3034979316476,-25.118538196458644,-33.394386920819784,-13.331196933664842,-24.638663556630263,-16.20211429082974
2.576,-32.419683277040576,-23.8870564787818,-27.466879776526866,-21.892787837861306,-34.132844458158615,-11.7226830659597,-24.177863514408727,-12.894180498294872
2.58,-27.20939561893033,-20.52330673943834,-24.914785701386336,-18.675990244757486,-31.376657535748677,-9.599704474922191,-21.55045374288875,-10.26748185839233
2.584,-22.153988696339184,-16.383474873226646,-20.064499374473826,-15.548543423093179,-25.585632518703278,-7.718672144500715,-16.850004191140897,-9.338249975956842
2.588,-17.980233722015328,-11.849594415030538,-13.850087597352285,-12.212036134473351,-17.717248533946417,-6.692361470328251,-10.905032172377787,-10.364687470848253
2.592,-14.832206882329046,-7.1640032221415595,-7.438209699747858,-8.290338606196315,-8.915653837681475,-6.631504430994482,-4.959312385530893,-12.737681059823672
2.596,-12.444963621118859,-2.5662176319153787,-1.9404352645881318,-3.7624850684309195,-0.26263385704612574,-7.115188414570412,-0.19788311578963658,-15.330341990191528
2.6,-10.536733669361183,1.5316964746115218,1.8314678566384828,0.7535124408461797,7.345972691204111,-7.515848228015557,2.6712183270221885,-17.120427569533945
2.604,-9.13240253575077,4.497611180048807,3.512809803608434,4.083846985646687,13.226994837474308,-7.459638125252695,3.588252502361229,-17.723759785947323
2.608,-8.613252912130065,5.6275185537468815,3.213045645442662,4.951569055112941,16.88626882316987,-7.122280030434013,3.0004834974463392,-17.569263019271148
2.612,-9.46359399631092,4.451843210759989,1.4371574273868646,2.5955615345510523,18.023272821744172,-7.14727798820627,1.5431612469615175,-17.606616468898665
2.616,-11.872982867579594,1.0529071951311835,-1.095596898909207,-2.7651945536456424,16.598941634744506,-8.209123070850637,-0.2644166403104009,-18.684049654271234
2.62,-15.489652397644022,-3.834521406947033,-3.706869819971189,-9.916530828645591,12.892128848411744,-10.513116600771355,-2.191776840204966,-20.98669479876014
2.624,-19.466471220081075,-8.999951691012939,-5.97519818678893,-17.10181098067619,7.5141756547460545,-13.539879519024453,-4.230773284420138,-23.828051966187786
2.628,-22.786377725437433,-13.1686657138697,-7.813461702847235,-22.730736271609658,1.3246533650813035,-16.211512851222324,-6.354073047720249,-25.919887195192928
2.632,-24.71260637690193,-15.50471381422858,-9.40946192349179,-26.01421600804747,-4.791593414826593,-17.428572762913063,-8.329751871311146,-26.02233749178731
2.636,-25.105809585191764,-15.955103511158768,-11.065844384370166,-27.213327874729202,-10.191790408826364,-16.666057672524857,-9.71106750731019,-23.60271406679601
2.64,-24.44963919959946,-15.26780329282974,-13.017020508081941,-27.388225127640908,-14.674726560807812,-14.290856697490199,-10.033268831810119,-19.16186204579799
2.644,-23.585805865945076,-14.65466811901183,-15.338044054936063,-27.78604033058832,-18.505372811732286,-11.398544362993562,-9.137291142639924,-14.060083401251745
2.648,-23.304656682629684,-15.24432442592797,-17.967197692963964,-29.18882667602543,-22.22930188681721,-9.264189969778727,-7.400750903192375,-9.905528678385735
2.652,-23.973137076610328,-17.538220547983883,-20.753306093209858,-31.512304860540098,-26.31075969114636,-8.702152473997103,-5.657193413242339,-7.802488979480131
2.656,-25.37858289036967,-21.12892384071597,-23.49091726421034,-33.85224079486875,-30.778082427679237,-9.670476745440283,-4.819222565292421,-7.870174135552588
2.66,-26.83510468265922,-24.813586412110908,-25.87979238251296,-34.91608553180208,-35.04836659537136,-11.340085153419295,-5.369212466339377,-9.258604083448745
2.664,-27.454631859043275,-27.036243222064286,-27.447888651419817,-33.61327007359705,-38.02451697697279,-12.564295213915557,-6.994154986016383,-10.655593801344367
2.668,-26.471944660932877,-26.49479034599517,-27.547912271244513,-29.53964024048878,-38.46711062721056,-12.463607105655228,-8.606740863879622,-11.019915236772249
2.672,-23.51017370924592,-22.66150998969556,-25.505860496157766,-23.13830714912956,-35.493397096809076,-10.830011947657113,-8.805290117244567,-10.151972935256026
2.676,-18.69548075641478,-15.991475875001697,-20.92333993962575,-15.502543128709704,-28.98024495508639,-8.15073515550921,-6.579852367048716,-8.79717431536028
2.68,-12.611884469462893,-7.7405873267109655,-13.97942261735443,-7.934555011356906,-19.690712381649064,-5.280749976529478,-1.875270247564913,-8.211068054521547
2.684,-6.145339944587704,0.5027426328040292,-5.574160543345897,-1.4931742385783764,-9.087507912975752,-2.995729672833022,4.259791846499411,-9.439147860371577
2.688,-0.24443614587971751,7.375231121081697,2.8478051585652793,3.2987719086852394,1.0955736431169498,-1.6682538210743587,10.084940216897394,-12.68385916778334
2.692,4.313295771051344,12.13270260206832,9.752066520605695,6.484916481629853,9.3282427093759,-1.2258086946840194,13.932458926760319,-17.119941925751846
2.696,7.0930489443881015,14.745079907098216,14.04709143333298,8.471166046857206,14.632789199347144,-1.3451986720774585,14.95190674352989,-21.228107229014995
2.7,8.071359879515057,15.69330546322135,15.462398132746785,9.73270662621485,16.72248737984819,-1.7097164603160309,13.470410449961946,-23.460613447714877
2.704,7.562946019060291,15.584591170122394,14.531583378355663,10.54196856051567,15.90106818067079,-2.178088539489636,10.727796264392964,-22.93200744091837
2.708,6.045204871057194,14.802696191809446,12.226938532347958,10.845174638120398,12.837162125820669,-2.772359821694863,8.176575531839717,-19.755528091808856
2.712,3.954379759918993,13.362207611041185,9.455434211034117,10.320544168253491,8.334650030012426,-3.5407163406780455,6.724407203890223,-14.88771461514466
2.716,1.5517862308629446,11.030617470556535,6.675965355740573,8.567248855855269,3.1694002399326564,-4.412618672115059,6.3346724329762765,-9.58054051415479
2.72,-1.1111099001859657,7.6007541403328105,3.83352885653494,5.312801923628967,-2.0113857502749397,-5.178957470502155,6.188973833384807,-4.776845221277199
2.724,-4.134442084485272,3.1534900297526747,0.5975081021283586,0.5405237584407132,-6.752590859771544,-5.630852379053977,5.279755874784314,-0.7808569339522364
2.728,-7.649205131451254,-1.8412215674807157,-3.2698017852540033,-5.491906474178222,-10.840962230234481,-5.7419210900202415,3.092008661134969,2.673396450522887
2.732,-11.69161081149241,-6.6386431811099555,-7.639936850256163,-12.305221699770527,-14.315368541931093,-5.742011809433279,-0.0017484041900388547,6.070642787792167
2.736,-16.11104854628593,-10.477483807168142,-12.015897348420594,-19.281153156176515,-17.415640427116614,-6.019854571228734,-2.8941866519498944,9.700877429752495
2.74,-20.522325688120418,-12.837069505538466,-15.747549154755916,-25.706656459836722,-20.436534580336343,-6.869320282784429,-4.313740180642526,13.44658590771769
2.744,-24.30909659368035,-13.543543844433657,-18.30770853585659,-30.780453860668786,-23.51737376544486,-8.238842520348044,-3.503350601978809,16.856523928711795
2.748,-26.66448050226336,-12.669444588839838,-19.425303301988606,-33.61497255820177,-26.439296589966148,-9.626251130507171,-0.5842546036276417,19.437327248579663
2.7520000000000002,-26.723447037759797,-10.332655546247906,-19.020458096676066,-33.336196178346654,-28.55907380758447,-10.22003143019083,3.566187817010814,20.921472451098793
2.7560000000000002,-23.805339809858197,-6.54289486225764,-17.053701615708405,-29.326349112656544,-28.959502595251593,-9.249606398994274,7.805482265313913,21.332245390001503
2.7600000000000002,-17.74974519397483,-1.2447154088412162,-13.445140820328561,-21.561964224606527,-26.8011195424084,-6.396480544628048,11.293808039018131,20.81390115804402
2.7640000000000002,-9.178500223108585,5.482619266205916,-8.160191757408029,-10.869693424890556,-21.71712440547799,-2.0496065432498654,13.805198429162374,19.384540143735535
2.7680000000000002,0.476974067467836,13.185766860585773,-1.4259416723718914,1.0844944242423935,-14.081546579458063,2.744158477905785,15.626478218402099,16.831275902360403
2.7720000000000002,9.28678366464601,20.9380621036953,6.10295541930509,12.155072570151333,-5.00236649544604,6.628279556457528,17.17137478859604,12.84527840450653
2.7760000000000002,15.447130203013785,27.517936944346957,13.398021640475463,20.357684636844624,3.995719378673357,8.468284944472998,18.592604369955552,7.368908988175008
2.7800000000000002,17.962246043022787,31.81041987244612,19.37527198472071,24.539205149376357,11.462009660095191,7.82002720351511,19.66254972267575,0.9205820495657235
2.7840000000000003,17.052971673722368,33.24417304704582,23.317387660074473,24.75204131965802,16.475195139822745,5.113828349656615,19.9831562489328,-5.355337504465069
2.7880000000000003,14.04818957724683,32.015949926021676,25.140351054971234,22.122459143459082,18.85169394817467,1.4766840971906277,19.36107552769181,-10.021059909321025
2.7920000000000003,10.74482379547544,28.959920584092288,25.330619022287237,18.250305394398083,19.03345477265816,-1.745440831473843,18.066872913867883,-11.936606606371697
2.7960000000000003,8.51702002149159,25.111561854081856,24.54312876629524,14.405828941570007,17.726541218314196,-3.556475258663795,16.74899094008788,-10.827214385965817
2.8000000000000003,7.643311888031803,21.21034600229359,23.145283736891315,10.961085275721643,15.515149524472235,-3.6910028682764278,16.069794983212887,-7.476319936542495
2.8040000000000003,7.215088197623118,17.41441321057664,20.983207369744378,7.344759292182289,12.647706050052648,-2.6491348385593483,16.255862718787967,-3.4122476378512374
2.8080000000000003,5.702978827580864,13.384026849229485,17.548832188191,2.544530374812439,9.08616455516858,-1.3809294801571923,16.875166952767586,-0.2092365939751062
2.8120000000000003,1.8909943625021697,8.680257342272853,12.48523502618832,-4.115375366136277,4.771386485584117,-0.768953531212901,17.035491340413728,1.2609372244579617
2.816,-4.347814231144184,3.2112810683415773,6.059083043907549,-12.39379578821422,-0.11587784657990596,-1.1839924435412286,15.877603690005571,1.2134400074251062
2.82,-11.880991333870043,-2.568528250223153,-0.7293199565367559,-21.093304914640612,-5.093353995517873,-2.3312698515101147,13.0797169345783,0.767745552861129
2.824,-18.860716090775895,-7.837955238705945,-6.541294640272099,-28.593588839133872,-9.569010243760204,-3.4589485959122612,9.053030729754028,1.2909303929893667
2.828,-23.67770882339255,-11.86126597123291,-10.396065298319854,-33.6476744352608,-13.171775509050349,-3.8031749123097143,4.73121710929604,3.61333013248975
2.832,-25.770696267738458,-14.408794893073718,-12.216104260686052,-35.9579145937023,-15.981606595262633,-3.025000450938478,1.0957664327283965,7.533064506670939
2.836,-25.810496080158373,-15.85091799976749,-12.861763348016211,-36.187432988584874,-18.476061476028917,-1.397294717882687,-1.2922244584992768,11.871359656132881
2.84,-25.147730825163308,-16.84142075571333,-13.537815626305019,-35.38044170357955,-21.156758935562948,0.36514613926897255,-2.4241879595849696,15.062599273049159
2.844,-24.838005432147952,-17.745844610031213,-14.884904264184343,-34.13583430846978,-24.02454553780217,1.5363287921567235,-2.5892827500805424,15.961399756401505
2.848,-24.83893784597558,-18.19745143248673,-16.337088288054815,-32.06965764946381,-26.250558797632948,1.8226928864115735,-1.963411077963542,14.424240848336694
2.852,-23.9078630527697,-17.133838501577202,-16.206681817450544,-27.94647376313401,-26.318373223382878,1.5311073814605152,-0.36330243323845934,11.339917896190286
2.856,-20.312094327184695,-13.375837989451611,-12.590106007274699,-20.477329254962683,-22.68180062510055,1.3543079048527034,2.584740546768444,8.07928863660618
2.86,-12.97809706733392,-6.4822111598945185,-4.644102262360775,-9.35364316941741,-14.673144677641972,1.8839118092967055,6.933704103504624,5.664307130844918
2.864,-2.432014497891487,2.609846515752338,6.4826123638699755,4.080089779895047,-3.191809540997383,3.116208749989255,11.88209239328853,4.102300474954291
2.868,9.042129731841214,11.58673350053607,17.67779008574098,16.9733853322997,9.253989156779426,4.269986825109299,15.649628334781482,2.2817249911649924
2.872,18.172424307062784,17.507108654695685,24.985289664868105,25.955997089803986,19.28621102054001,4.060345433917064,15.991224028277884,-1.4738922858383603
2.876,22.069947115131527,18.021465139305974,25.342024457435173,28.52690520763349,23.924322584049946,1.3323256656108242,11.199146114527593,-8.445313940936558
2.88,19.520187996164623,12.474333852119912,18.092940789895238,24.180085897201025,21.82530917835527,-4.257753945528975,1.1238514961271449,-18.62789702587088
2.884,11.559710776104112,2.3444214746383523,5.483700756979488,14.705336402097373,13.913493805833923,-11.871562029638199,-12.366033440991032,-30.386413021921385
2.888,1.0652853252454406,-9.225598943355976,-8.165254475560687,3.5102091015544374,3.0691827398356963,-19.654482239774325,-25.81799390067863,-40.872084224908235
2.892,-8.42345463182005,-18.614000941634004,-18.232743561955658,-5.711998836947714,-7.005662543819426,-25.39621427677048,-35.40620952503036,-47.04825832038705
2.896,-14.062131689909165,-23.072458236596276,-21.690882872038856,-10.35012143686481,-13.239444411493992,-27.378224102584227,-38.3967867193287,-46.86107440904834
2.9,-14.624708230139504,-21.65806350413027,-18.219708451468364,-9.675563343697831,-14.310288053678732,-25.011221854880432,-34.176505173286614,-40.0178472011828
2.904,-10.661136067104962,-15.380768448689423,-10.08727079348023,-4.808244910001122,-10.958714678222123,-18.981719165791674,-24.39139290164553,-28.038606668982197
2.908,-3.971838069758178,-6.61547216653139,-0.9599101157502901,2.0002138672667797,-5.4431390199165435,-10.871784676829066,-12.171219936835769,-13.598276952709057
2.912,3.2427447947102337,1.8796153061980476,5.736709864170962,8.362008517665458,-0.44461660296383343,-2.4707003746143528,-0.824763545355836,0.5084395196263358
2.916,9.12974582297079,7.8912379094659855,8.091551475871938,12.557687555202051,2.033026611949026,4.8750025527956495,7.347052022123762,12.279857502656512
2.92,12.564589975293302,10.28145547228587,6.112209786825588,13.882477932838924,1.294481442390861,10.580610720788854,11.63066404734434,20.91816042117364
2.924,13.171671956644786,9.047995521127518,1.233994768383127,12.535183764091016,-2.068953317321075,14.728571915192788,12.695722415675618,26.642581528006644
2.928,11.161442800696477,5.039495495874007,-4.649729579072982,9.261959604126218,-6.713499088448771,17.70252012107221,11.856491811631031,30.119323660272244
2.932,7.188624761983874,-0.44051252589451906,-10.038824632812748,5.026054920779075,-11.216559358991503,19.80452985141892,10.288648965876746,31.896586124839928
2.936,2.288213470854089,-5.974269294259557,-14.191665246819866,0.8302389433648614,-14.562513083311103,21.075055626844915,8.571209361448155,32.13977826270042
2.94,-2.217959905069165,-10.293822249982611,-16.95561621043862,-2.3427376463758947,-16.290408855686962,21.379440693992592,6.714276823102864,30.75344156973449
2.944,-4.953033171848574,-12.484005036564213,-18.33617113991022,-3.591377089374589,-16.349377069760862,20.64102445804292,4.526797377887533,27.732314582041454
2.948,-4.881785825695715,-12.150486687042246,-18.182330199151806,-2.257891246863437,-14.870402920713559,19.027864546941146,2.011996742305314,23.455206706134675
2.952,-1.7438310193797406,-9.5138300899672,-16.191585013223744,1.8274507717524102,-12.028584717346405,16.9482097334743,-0.4581143935220098,18.710619550755723
2.956,3.7334041561115328,-5.336289248803666,-12.203258857055516,8.142152940212043,-8.05627620874293,14.856651109693416,-2.289205408659882,14.4221581531001
2.96,10.018905155994844,-0.6604670241187023,-6.519421523978622,15.473480729016728,-3.338938128197242,13.003823065210668,-2.9870145924874123,11.246817339194592
2.964,15.343221872708568,3.5715490730599413,-0.0026402644050449453,22.19802623651725,1.5365132666195223,11.310766611756435,-2.438276406160071,9.297110607854563
2.968,18.41846401860994,6.848794827459415,6.147377348519058,26.769038791863807,5.861306540119472,9.474226732329043,-0.9829653475559326,8.159034537956984
2.972,18.947871774219493,9.188862354043863,10.83804806061039,28.22637852572916,8.995872459759141,7.234428789305753,0.762865232272361,7.182554063267617
2.976,17.659997971906364,10.954242032107118,13.487068814034842,26.509517159701943,10.56978987737017,4.640661702644138,2.1982223014648525,5.869231677568109
2.98,15.841902197152422,12.48309020786786,14.174255424662988,22.43394536766897,10.572242374889527,2.133770872449986,2.976633350873385,4.139231463492024
2.984,14.621482201011304,13.771219637714069,13.481786539541758,17.337671975804483,9.300618169412758,0.3685796520048825,3.082272786687895,2.3337505196113284
2.988,14.385580449024246,14.408216332488848,12.145641533162575,12.555132622397252,7.195991249041072,-0.13581293929075855,2.728042879395275,0.9816829387423809
2.992,14.642967992028275,13.81712653094894,10.741468349278136,8.949333942214594,4.665343916638562,0.6862256212805278,2.1788027867337405,0.49359073232545825
