Timestamp,O1,Oz,O2,PO3,PO4,TP7,TP8,Fz
0.0,-9.379164112033322e-13,2.4442670110147446e-12,3.922195901395753e-12,4.547473508864641e-13,1.7053025658242404e-13,-2.6147972675971687e-12,5.4569682106375694e-12,-5.6843418860808015e-12
0.004,66.93247198683457,54.60190899248306,105.23281151741253,67.47321012824614,42.05613351684855,37.39100283103414,54.314654326494065,-14.00856641150176
0.008,116.47592652807225,95.18212924398989,183.22063114408274,117.75002394583771,73.12548410990252,65.95534743852113,95.1519723459262,-23.616341925236952
0.012,138.73163314300805,113.7794803313746,218.53248739179043,141.003901870118,86.97054719568968,80.43723303101024,114.66593387457624,-26.689703818029727
0.016,134.9316305982151,111.42695307584813,213.31737206262216,138.3732452807447,84.39369101650021,80.92587960231674,113.40873985265318,-24.44886130178884
0.02,115.53702305662438,96.58815495462875,184.3344973904653,120.11446701116449,72.00198350650714,72.05321631260347,98.98367832163302,-20.81909018122616
0.024,94.07314793479188,80.13461999788609,153.20171075289187,99.5494419820933,58.279187069011414,60.18066585433564,81.51739294230259,-20.373578635758804
0.028,80.3302100036772,69.83333460940253,135.5469715936053,86.3619023171151,49.305613681169405,50.254195958172886,68.65355705353994,-25.955265828786764
0.032,76.63302912216659,67.36250140096757,134.9332086794899,82.89184849430785,46.485847584182125,44.04940982716437,62.79643092902825,-37.21031712830052
0.036000000000000004,78.80184036339034,69.1745793124067,144.2197739326523,85.05099673829324,47.2650515524042,40.541570274044716,61.758231065271104,-50.74993093997483
0.04,80.55036149982845,70.15893483554476,152.52105957010798,86.6512639083686,47.96062051129786,37.792984269684666,61.83286649734748,-61.804272401183766
0.044,78.12389537780373,67.4530115556721,152.78719136451014,84.00554334690827,46.625180597132555,34.87424896189066,60.937891716733304,-66.45536126606197
0.048,72.4004381788713,62.11535151806186,145.5295291776584,78.04274537479091,44.193800457939005,32.602160976620326,59.87771132548795,-63.30684076834348
0.052000000000000005,67.59621000880779,57.96417509507444,137.14900088702706,73.05379694154175,43.45075957768648,32.795435580356866,61.24908495885205,-53.8408655097827
0.056,67.91254785206786,58.70026662755052,134.77512959367255,73.35684283784951,46.77763131832563,36.749103485783735,67.09399570381339,-41.44708869499368
0.06,74.56548550209914,65.3643540854637,141.36959408773822,80.29638422491979,54.31497729591371,44.07857147305947,77.09214823578736,-29.75126523468157
0.064,84.98241767207148,75.63019093489461,154.00534913422024,91.37046340770092,63.65408932785982,52.66972358171404,88.41323224679269,-21.123212612239627
0.068,94.47491754508025,85.22088083002089,166.03867322535018,101.84013108579938,71.15939802094942,59.744900758127244,97.24578598028268,-16.06976308131169
0.07200000000000001,99.1096231272762,90.40402674717217,171.41424778003608,107.60440906250221,74.00118123645535,63.33591698242992,100.93222264562934,-13.65301385102839
0.076,97.8859279462367,89.97602066462858,168.21574656478867,107.45678426854244,71.62605265032164,63.24159400023808,99.33081937403779,-12.503418494473522
0.08,92.94973619781015,85.60622043349551,159.35209141752745,103.39892982201255,65.837535144806,60.92227502848169,94.62712399927659,-11.758049791232452
0.084,87.83937087143892,80.4564659927741,150.1538985248893,98.94782865245975,59.53667652620561,58.425704038587526,89.79405677424916,-11.379746906653509
0.088,85.1189293484293,77.14644451775908,144.79547989434622,96.74361083423938,55.037195895097454,57.094329192999396,86.81953231033981,-11.808988378340473
0.092,85.01668584740008,76.42235766650148,144.0175203285591,97.08893073984817,53.04475099113225,56.90557052544085,85.87260468416179,-13.307672395033876
0.096,85.81789680341728,77.23767808531144,145.45105364786514,98.24130363680274,52.80558162612223,56.78677406867564,85.80481841250173,-15.502290744538868
0.1,85.4957598833401,77.93324866597496,145.93560593323613,98.01809176223423,53.08134211290238,55.56737034055425,85.41104973852674,-17.471034210753032
0.10400000000000001,83.20788228486447,77.46782632127062,143.8427846621524,95.37987808310515,53.08555396873206,52.8134807609548,84.3737699379725,-18.276092974971505
0.108,79.6794967633997,75.89375427773774,139.865681122011,90.96160172766696,52.78180990045979,49.028173846808386,83.27254886812119,-17.58404061291168
0.112,76.42987333025405,73.96624962941533,136.05698027147398,86.41107377397037,52.5360022275963,45.22175994670067,82.82990809392246,-15.94821515301669
0.116,74.58350667545099,72.37929623518778,134.10183259993062,83.19363341142261,52.57470615646943,42.25649517971067,83.12320977251682,-14.544777252001666
0.12,74.18454000251401,71.2756724391628,134.17198534715885,81.76441885277617,52.74463844481758,40.44376560460745,83.41831343952185,-14.51560100644707
0.124,74.36862879961683,70.28222910555516,134.95773738212978,81.52544847374739,52.694875170170604,39.57261691991607,82.67926296613655,-16.278363550065308
0.128,74.1666055338315,68.95657772534639,134.72274566488994,81.46868705984423,52.275662489613296,39.25569174944832,80.36194333263785,-19.240454146809384
0.132,73.3136171002999,67.25127222681519,132.5818516867664,80.97927994825272,51.79548858831623,39.28833803494223,76.9083532849944,-22.108999274002713
0.136,72.47762236017735,65.6247960764799,129.10384528768168,80.22991032551175,51.89161218711695,39.752705024623765,73.56721696791544,-23.614137397160448
0.14,72.75374632928862,64.71398112259428,125.86834286927962,79.93134848382061,53.0672115087537,40.80753921977896,71.64059343741837,-23.23409643185414
0.14400000000000002,74.73076564741339,64.75107368701188,124.22284236091667,80.60948480518863,55.179126387547,42.314401377618424,71.58325904521445,-21.477584172830518
0.148,77.85722589845969,65.21346315690957,124.2128798728894,82.02161467219639,57.30551429221566,43.65524995987835,72.60913413764217,-19.57466025272754
0.152,80.64072113106835,65.05778513468414,124.52843586895699,83.2172409184729,58.19662728672898,43.975156470245,73.1486496464683,-18.764932585987424
0.156,81.58396331169641,63.42355484766131,123.50312391935563,83.216908646256,57.0686681530791,42.73789925974302,71.89175008004747,-19.596005050481608
0.16,80.21632872713002,60.32318573898311,120.42164499305409,81.79630587506358,54.207774210352056,40.200842344000534,68.71738320640412,-21.63378031100484
0.164,77.40770217816029,56.74294061394011,116.04784371412632,79.69105036973804,50.89132080115411,37.38001540805226,64.80767875337881,-23.703637108807015
0.168,74.77594917126348,54.084107056671144,112.06798520331296,78.08183747876524,48.655603659691224,35.482792785473066,61.90196174246995,-24.521291229923634
0.17200000000000001,73.6528274996536,53.345520574296415,109.96173036279191,77.77628517201055,48.399918125258466,35.17595991971257,61.22209799104763,-23.36965423132682
0.176,74.29025440599656,54.57095870581924,110.11020470639676,78.65948174498033,49.887142844883954,36.152186204305735,62.755515377662846,-20.471115384805387
0.18,75.79177705041013,56.88583864679873,111.69844823270034,79.77310610787168,51.92519840288327,37.29058648720229,65.31342495142508,-16.881107158849318
0.184,76.66862428759617,58.97748903049785,113.24288802974138,79.86295425453989,53.02894219872326,37.2827052785226,67.19306368078924,-13.956162284442485
0.188,75.66690438316328,59.72345328849599,113.39047240826494,78.05940798150584,52.168243466980755,35.376946573120904,67.0411883035739,-12.702658443158953
0.192,72.43547692926796,58.66975277305221,111.58607609928356,74.34725513220303,49.23321533115501,31.86063457347302,64.49208225637744,-13.339337194156997
0.196,67.70001426232653,56.1586893240609,108.296476919425,69.6026838425982,45.02536445132182,28.008312342854992,60.29574204538392,-15.268448097367127
0.2,62.89279392504449,53.09081295639771,104.72552715381994,65.20635690776601,40.835662926417854,25.494095627414936,55.92161936237687,-17.429820502528628
0.20400000000000001,59.38647392481619,50.40706686302963,102.07731327198451,62.36897310877953,37.81921692152787,25.516938136041404,52.80981745282804,-18.79975496385225
0.20800000000000002,57.80274183405868,48.62160789466935,100.86276033931199,61.570756422044155,36.52245963402311,28.129679517080376,51.69283425800813,-18.79485064379878
0.212,57.7975462837764,47.6779282545283,100.69748522868053,62.43455222826418,36.789952295898274,32.163494098861065,52.34314733630117,-17.44202444263476
0.216,58.40486259232017,47.170871967123844,100.67615409697328,64.06510809482847,38.04018712959919,35.81505338790805,53.83695537242352,-15.275897409436197
0.22,58.676004098140595,46.74207041217767,100.02466849645657,65.60049649625444,39.67116335000685,37.57102866939567,55.124565995552416,-13.063001510510844
0.224,58.125219139287765,46.29719918952105,98.46161341261632,66.54745273749882,41.27920859646872,36.91255051276903,55.49441219993321,-11.476428781069558
0.228,56.82061676314106,45.98255586677834,96.19442515698722,66.82130625711557,42.64872680522092,34.468710127805934,54.77713491658244,-10.88334026196435
0.232,55.194633309099174,46.01769039286518,93.69910946671177,66.59606152481626,43.6384185308965,31.59193805227369,53.29551154507203,-11.312674087538994
0.23600000000000002,53.66348290295605,46.446493090244076,91.3434134999194,66.03063050413539,44.05405361778912,29.56379856260014,51.56988896512678,-12.560143215135554
0.24,52.371958415988104,47.03636573875053,89.19935003983016,65.11866743634198,43.67281190040649,28.915257051578237,50.0204639048909,-14.355501384958984
0.244,51.22013462213022,47.42175295420225,87.16796315214651,63.76024932046198,42.424282936808595,29.23075183678884,48.840472810786764,-16.490312272977235
0.248,50.05937401098316,47.356405453229286,85.21204904172203,61.92048760977616,40.554174023568976,29.4875978055843,48.015581054114364,-18.839712059219437
0.252,48.844376155544126,46.87033007890591,83.42801065773779,59.69636864818733,38.59573754028281,28.680645421377676,47.3958486795982,-21.27411173741757
0.256,47.64500303549795,46.239557760778666,81.9239984728431,57.263550363777085,37.14401071964744,26.387307679807236,46.78049803796671,-23.53950573893985
0.26,46.61954314202916,45.86492426292659,80.75278498835439,54.85289894756329,36.610753033237074,23.033759576162538,46.042609676456095,-25.228266713862922
0.264,45.944688751558374,46.08662514234993,79.9109662476975,52.74473304005869,37.060252318095536,19.700693373944432,45.20718154549161,-25.90483785072138
0.268,45.700871150389844,46.9745964770741,79.33461479722541,51.216051360344636,38.17399546703223,17.56749414603655,44.40068079915693,-25.331786175146135
0.272,45.73295740333185,48.1679138799077,78.81163208316343,50.392921689514765,39.32836271968574,17.267583724001497,43.66623072536686,-23.66425032423558
0.276,45.594211072529845,48.895247358116535,77.90869194516006,50.09156955913113,39.77415749090824,18.51731586329106,42.80235172377206,-21.479112973230713
0.28,44.73785051214463,48.31149963976452,76.16538429510024,49.85798803352395,38.9299823497181,20.290955881657055,41.4555081699491,-19.58725531143341
0.28400000000000003,42.86473439603935,46.00580293670669,73.45511434887237,49.20569954357245,36.66464549590523,21.425947958682627,39.43025694459607,-18.674100998284757
0.28800000000000003,40.18197283266704,42.366417299200975,70.22727046027626,47.90605403528298,33.41205622758389,21.288674920331005,36.98761273776404,-18.923099086463935
0.292,37.35057842708778,38.526077114808686,67.36060111864981,46.12172196881875,30.003796829174576,20.08867587442569,34.853648013539896,-19.838590716389263
0.296,35.15045641229392,35.88081110840494,65.69013087300027,44.31563391353029,27.301682500265542,18.688834272089935,33.88133974108996,-20.40783262670334
0.3,34.13908366924818,35.47599378431471,65.60977838857991,43.07765042923813,25.869034080005804,18.102162230530666,34.610417021221565,-19.583870132576067
0.304,34.46307569427677,37.54875572758374,66.93505935943665,42.92006537404916,25.818503706075944,18.952668762453186,36.96743737238171,-16.854432317367355
0.308,35.85809903980521,41.408042714845124,69.0196518706407,44.06764373117653,26.855192484528743,21.16911952598639,40.25255371406956,-12.576787041747366
0.312,37.78033019290319,45.68027927175456,70.9942674026239,46.29219548704418,28.439616380615348,24.02962218010157,43.41464418054261,-7.866148883699907
0.316,39.6076215928382,48.82781055102407,72.04846569519327,48.90516794099358,29.9998010413849,26.515540525680308,45.503434204854784,-4.074388813084397
0.32,40.903930593524706,49.80050939096816,71.79702950430192,51.044593659367706,31.166852404263864,27.83561281160337,46.14712391717603,-2.146317215842828
0.324,41.61277801390861,48.51171877603031,70.53014615054303,52.11922950526889,31.925729304738866,27.828472891103274,45.772729005066594,-2.191141555817012
0.328,42.03430709055135,45.85318181204957,69.1193664844684,52.12758456837878,32.573082926707,27.00410587546844,45.3710238474207,-3.493155150188386
0.332,42.548941489993354,43.198302551164375,68.51566012443186,51.61298564760614,33.47160695978573,26.184545406378675,45.87938651897434,-4.943025405867957
0.336,43.27357006438854,41.66454339399263,69.12182496172272,51.287490961006824,34.749082947023226,25.974682472895438,47.54899842617988,-5.625395444849801
0.34,43.97566348726093,41.60929833253749,70.56348858094134,51.646374005851726,36.19269371321275,26.444789124037015,49.77205713782655,-5.228969007167052
0.34400000000000003,44.27292135775201,42.57667531293555,71.96412506276306,52.751094998013514,37.37463567179316,27.16948135319808,51.465241271117065,-4.071992684034058
0.34800000000000003,43.945078039680084,43.64773389182028,72.49332503830829,54.24079925303988,37.90136137153718,27.562082887596716,51.742451603264044,-2.75497802842915
0.352,43.10412224959043,43.93003329701412,71.79227812955196,55.49816838677668,37.600175405037476,27.252975296663863,50.42782413407656,-1.6856799969605163
0.356,42.09135936624398,42.92041514693608,70.03678319270284,55.86605041658822,36.525918227180455,26.269176983660827,48.10866500871066,-0.803961417672781
0.36,41.246637021722904,40.66047911539704,67.77124461439917,54.91115763111043,34.86730308070173,24.979927053896517,45.782968157634514,0.30253441885042776
0.364,40.68135104727082,37.64210043712103,65.60782417058476,52.611833324316876,32.81898693251878,23.841484145297045,44.30159636559665,1.9786478480275491
0.368,40.161915247689876,34.518215499655184,63.913473564575725,49.36419323394614,30.49233122381179,23.09717787192608,43.924087713372955,4.0900989151678
0.372,39.16292530482542,31.760973246540743,62.59645156076908,45.78684438159712,27.899990242046215,22.60657387989977,44.20444878375906,5.929808010046827
0.376,37.097790791636726,29.453904192731102,61.119577224503246,42.447021273814926,25.02580949601679,21.920067603557754,44.26171955203631,6.545793842914009
0.38,33.70886409624268,27.38650752511785,58.88693453224869,39.73138872696086,21.993035437383924,20.627223465772204,43.34202552660031,5.305633902103182
0.384,29.381010537710495,25.354717840134754,55.746028628723934,37.87348302200621,19.190246908534846,18.747210367709613,41.31523710588067,2.3512486713020735
0.388,25.119992442725902,23.4247218011717,52.22880458308464,37.020875167464965,17.21264633303963,16.881680063132535,38.774723509362275,-1.3496612864039434
0.392,22.1219286407578,21.954969471104278,49.30099275732823,37.21335185643693,16.592452447205915,15.96982052070598,36.66169809050098,-4.415151017662765
0.396,21.15064190861449,21.366191667321118,47.75597366411512,38.27801375550621,17.46296503794656,16.756096725502402,35.657134351195054,-5.704622162027135
0.4,22.153965260449468,21.88696246145912,47.763356016402895,39.832954090845305,19.432582205763083,19.332214185431894,35.802451439794595,-4.859358728503366
0.404,24.34022053570493,23.429629891789773,48.827062856388466,41.43537234138148,21.755381714561736,23.01519649359625,36.568291618142894,-2.4244811244248012
0.40800000000000003,26.6352445714233,25.624049298384534,50.1141563935837,42.77692117837955,23.692130348108094,26.63154097051938,37.26147122486441,0.5092246701306067
0.41200000000000003,28.214458332079857,27.93656497055349,50.87784636136803,43.76961485911079,24.82917687141139,29.036884358069074,37.45209490538082,2.924549697447901
0.41600000000000004,28.825293661649084,29.809395799740514,50.72600636748962,44.466961919836194,25.18441008511354,29.60128594050593,37.156970533416825,4.389585387173611
0.42,28.82021487064685,30.83526700387938,49.737144526156726,44.94408711364599,25.105861368554315,28.458852308422593,36.751134740212365,5.15700887503931
0.424,28.89274035067433,30.890086666551383,48.36670371530454,45.1958111863687,25.0258153325467,26.384731173365708,36.682108297812874,5.831995963812233
0.428,29.644720447358964,30.144682459555725,47.16666613680809,45.087099434781294,25.196195231460024,24.370893167021677,37.159712750415565,6.854368870124517
0.432,31.199326791156523,28.939362359822553,46.428911882626835,44.360932335581765,25.527228721595066,23.112174825250804,37.98289735821845,8.142003000622026
0.436,33.079403101023445,27.604035336223887,45.9590860471817,42.72827936724957,25.619126267235515,22.68461065490783,38.60704968009895,9.1386552696315
0.44,34.48798286918475,26.369192716922043,45.23737819131384,40.07728215081261,25.014857786990433,22.625753576508487,38.46340944186386,9.206663421698295
0.444,34.80769318655416,25.379972796390575,43.83953181421293,36.66758133205644,23.5168183779399,22.327733870550674,37.322697152789715,8.097681209875645
0.448,33.97699908567006,24.732849743987117,41.7924530287969,33.137622257582734,21.3575332598341,21.46938995946948,35.45729253809327,6.1992192382274425
0.452,32.48389411886808,24.453764755563498,39.58359583200604,30.251483876298607,19.102861562665794,20.202674459542777,33.48155376209297,4.382572997502848
0.456,30.990453528183593,24.417901977901238,37.80833329336019,28.496228968548166,17.343756761385976,18.992517690785462,31.97356206696213,3.5299324493048516
0.46,29.904753454163256,24.34519056213162,36.806344692931134,27.833969052175462,16.40526660937485,18.275610054060053,31.17519899570516,4.004001132808298
0.464,29.167255377875676,23.90627200146696,36.503900873797875,27.752401624967433,16.23334040526379,18.164716234996376,30.93275496172373,5.3886103100480796
0.468,28.354363109760584,22.87632120528474,36.50302195712061,27.555641185883587,16.47683813452636,18.376818738717247,30.855729426471044,6.675378351691279
0.47200000000000003,26.998569449398587,21.23941632093124,36.303217993628095,26.710960392297693,16.68335002336721,18.409866595743097,30.552789055221183,6.820360668677267
0.47600000000000003,24.90857695964894,19.180024348426286,35.50053787457955,25.056731678539563,16.49048177754389,17.842149861666257,29.79145844791151,5.353455183030519
0.48,22.377144294440768,17.036918882735563,33.994873018087674,22.86466262761064,15.780987635629572,16.629384575185668,28.58714753592608,2.683712138405326
0.484,20.137496093465643,15.228008905857223,32.08188806943872,20.731361024155376,14.738724199189619,15.20090904900053,27.187843060269643,-0.08137139759332968
0.488,19.035453298091397,14.132896450194494,30.332638922395745,19.32148235575687,13.772499180280647,14.275026679664734,25.948841442693947,-1.7036871274622172
0.492,19.56870080152521,13.956268817190448,29.286436556762055,19.06002789869558,13.32975429527096,14.472331061428122,25.151478111454026,-1.4501495463030096
0.496,21.540504110483425,14.617370660092206,29.10158217421872,19.9080585157335,13.666812151010845,15.92899658818169,24.834335574694933,0.5441060510897842
0.5,24.1015276408325,15.789783726764313,29.481123305906067,21.400084562206303,14.730471598673375,18.180950786635094,24.783462911224888,3.354889325483555
0.504,26.154139215365603,17.065725212515986,29.886820058925196,22.903057817895387,16.185036682087457,20.374345386858295,24.673010147096875,5.7294794988929425
0.508,26.88029405120767,18.1387015101501,29.87227963737064,23.925829306373316,17.55018253908247,21.681434802722833,24.25486105059167,6.689593677701623
0.512,26.09719964383612,18.899075283052753,29.299731610077515,24.301321921374893,18.381952837733024,21.68788289847157,23.487862799996037,5.970008344996131
0.516,24.255913045217085,19.397744034381844,28.318278530424323,24.156741207806135,18.423812937936646,20.54543610035239,22.53814034397942,4.094575120619538
0.52,22.17988074586492,19.77128493508394,27.261439689416875,23.788204241301173,17.72678935763747,18.87098499207923,21.714710008738166,2.0684901752631504
0.524,20.69397125016951,20.172131420975347,26.519889048279083,23.510500718451567,16.672900114795766,17.452153834095498,21.359426398337973,0.8702399414767115
0.528,20.290911886870504,20.6992880007557,26.405788781507454,23.51583837599196,15.836563332539754,16.893350369296513,21.699803168673725,1.017594943391714
0.532,20.94795479095535,21.320129951957483,27.003196044901188,23.766165878818583,15.697024796948426,17.34629042057645,22.696603667702675,2.406704251242445
0.536,22.140730262103034,21.79881294731615,28.030246309717995,23.937930822138924,16.319014488295807,18.42980362471394,23.95876270306462,4.451835676837845
0.54,23.09911526120254,21.74463599646242,28.913289364154025,23.532787632608233,17.237428278751167,19.41860949327429,24.86088939910701,6.400067211979831
0.544,23.188674270936986,20.789004336988114,29.05211609862863,22.129432146051045,17.64449223935503,19.605244825791715,24.836362985867027,7.653508497492112
0.548,22.208954003485474,18.799489944552533,28.118586491492806,19.63714171145068,16.80287726243364,18.646944349121668,23.683026922226873,7.957974009487998
0.552,20.446469463550784,16.007048011795405,26.204397267823424,16.40127203612542,14.464695563157647,16.722714852853642,21.68463636810975,7.413523207518892
0.556,18.46734877577319,12.966076885486359,23.732396930539835,13.092509878902092,11.057709454255246,14.425136800967493,19.445769053117147,6.356561540434768
0.56,16.841427204354545,10.406713132929212,21.294670244849385,10.49387582284885,7.563581885292251,12.499163249382036,17.590332327539045,5.186430227959818
0.5640000000000001,15.92055536498492,9.013906137020172,19.472860819905463,9.259458679616614,5.118468329504594,11.538848338136859,16.473360841351678,4.213572600769567
0.5680000000000001,15.741280286369829,9.188704721638487,18.672242847241705,9.715648148659511,4.509916939147615,11.773981844751688,16.040926196379132,3.5832391297874437
0.5720000000000001,16.04549850435569,10.862877767808527,18.973641260345175,11.74133696408137,5.8024032133366745,12.997753826517965,15.891651880172958,3.2726852793971375
0.5760000000000001,16.379305132624722,13.454192827825182,20.04585276452758,14.757218198377473,8.291128975518973,14.642934949135451,15.501351642935106,3.148703341730652
0.58,16.300631077441835,16.073270978276128,21.290359765314633,17.91307601531753,10.869766839412478,16.022265805920142,14.541929780814826,3.0508115199329495
0.584,15.604522539453683,17.902864336241464,22.149008402585423,20.39505901349378,12.612033016820192,16.615056290385382,13.112182649995475,2.8783244360458866
0.588,14.443570808435993,18.55636466417161,22.388388752166748,21.706617549717066,13.239156744381944,16.270685872719014,11.721573424339113,2.6640378980987407
0.592,13.265523458176403,18.217640121427735,22.178283316268562,21.788915980632282,13.201007242617948,15.233379188137633,11.011737986837034,2.6053997990866264
0.596,12.572934097048119,17.47598287250412,21.897483946903094,20.934001932740557,13.322159429108524,13.981013896740023,11.363506066365062,3.031767058618925
0.6,12.688844078872876,16.993617041629932,21.883062019062436,19.624947942409904,14.270302033843791,13.012414173242178,12.671372920718568,4.2802215132826404
0.604,13.628879198990944,17.1678257051434,22.256140812780018,18.37489469671084,16.151437877931926,12.666977033412195,14.401339382647166,6.51658210260598
0.608,15.098706777142922,17.938116038278054,22.879595092295972,17.593994571485837,18.442515900263743,13.028343183246307,15.872475777296359,9.589146446362747
0.612,16.59084801417538,18.81722909306768,23.42576548501995,17.48185966332528,20.274025663498378,13.920490752821706,16.581228243966734,13.00364832946957
0.616,17.523801176878067,19.11847372201396,23.47881816523318,17.944554542026367,20.884163024318582,14.961036742434771,16.369500519289886,16.063731392456248
0.62,17.43911717405564,18.313616118143045,22.723045396671296,18.629701914553607,20.023461259983378,15.689088320583778,15.40937723574882,18.111495193840256
0.624,16.1902611847475,16.343865840676926,21.128520076956875,19.075491865936556,18.096763917390717,15.725011675233418,14.05074810672454,18.767104525184777
0.628,14.044154767786097,13.722423396504837,19.026742048130473,18.922352767918937,15.98683736784551,14.918665776786838,12.648015230434453,18.075892878915965
0.632,11.612687461796554,11.343563654233435,16.994717736948587,18.079137597659155,14.645922395411958,13.410665131913674,11.43701919741261,16.48718729758616
0.636,9.613077427116707,10.071621772540084,15.563694954433572,16.750904484624698,14.661167341274222,11.574331824728006,10.497665966410182,14.683629008967728
0.64,8.622222005573462,10.378891044068268,15.01445703394802,15.385394097511266,16.060048020413774,9.904834875145525,9.846655292099854,13.337169645396898
0.644,8.902625584598525,12.186371100610813,15.32990982371939,14.530445745278598,18.397761158155276,8.868140089068902,9.548076417190828,12.887510135816115
0.648,10.334674967887338,14.941946618572842,16.26770642884287,14.621184245330255,21.01645031533974,8.745787945292705,9.73321500208192,13.432568198672698
0.652,12.456964981978501,17.859411559931914,17.470735022990652,15.760029497907908,23.300982855622692,9.516756933940542,10.491755941464021,14.751692079586064
0.656,14.573222631380247,20.166869307398997,18.511773357030847,17.570420617237573,24.791912312891895,10.814234942612302,11.686145125000621,16.423105360850286
0.66,15.966790748839742,21.32164923496009,18.987339587881593,19.29025310502425,25.21272102929356,12.053904708566051,12.899610803345013,17.967364750735783
0.664,16.14944775043267,21.12183712531555,18.639384147118562,20.074086763764285,24.463312854013907,12.674877863857319,13.581643620364275,18.9592028213533
0.668,15.033534871303516,19.695510815897933,17.454762264516262,19.366692925034386,22.638323659481557,12.389512405424966,13.320506714282146,19.10540665105043
0.672,12.935917269926449,17.39270115054046,15.676252556728514,17.15205686464151,20.052231351249816,11.310786008041532,12.08063751203531,18.297382564049713
0.676,10.394041857726052,14.625265810779467,13.662291819502002,13.92495039770779,17.19231215333923,9.861207647874835,10.231866120082827,16.641799041902345
0.68,7.944465714971614,11.769680847950724,11.754095183464983,10.463779824930498,14.607195998482439,8.547230706642495,8.383035982621095,14.447456197430938
0.684,5.9606632100339425,9.145962212885934,10.196573237668531,7.517843663848225,12.728173930196704,7.702181835592455,7.0993237847951605,12.158887220215206
0.6880000000000001,4.590729575712544,7.024422935998814,9.107676055173556,5.543696683444637,11.681979695238283,7.330354922160041,6.63434155538323,10.243779154598997
0.6920000000000001,3.787949892884683,5.606026856256051,8.474805059786377,4.597033531355919,11.204970321666565,7.131840683445375,6.807161079648836,9.06567571430071
0.6960000000000001,3.3557355567212994,4.934896145468315,8.129249430244045,4.366854858252054,10.71924170393072,6.666854643831357,7.0630793953357625,8.793774404049827
0.7000000000000001,3.0416700017933067,4.855222528998468,7.830961078105588,4.381222290677101,9.62277967565251,5.619132015266928,6.758320344796971,9.379587433616848
0.704,2.6529002275544826,5.067947383761293,7.426046436452339,4.273526269810532,7.66540132742,4.012850188279572,5.5245209250279,10.602439193829014
0.708,2.137989313051719,5.260589904900826,6.970468092793112,3.951899227947763,5.191841102545823,2.244401528481376,3.50363241104003,12.155847534033114
0.712,1.5938283416830359,5.242734708832131,6.731708892192501,3.5860263036331617,3.0737858844620405,0.8953883932355211,1.3113382774355387,13.724096554698917
0.716,1.1794249104379446,5.002431296987538,7.007236891670914,3.4272787306310875,2.306032804543179,0.40983265427905735,-0.2746273786125357,15.031681565436429
0.72,1.0405101076717642,4.702325141165943,7.945798668759039,3.6421438185812463,3.5018215042698557,0.8593790376414745,-0.6883088094748473,15.86931435895508
0.724,1.2618142765232392,4.606392911434966,9.456480686285772,4.248075230881284,6.541065135329859,1.9261791069130823,0.1766901509785157,16.12208707146374
0.728,1.8575090656559041,4.970428610967417,11.247517970047284,5.1657346373579,10.574354155475135,3.1171731608270647,1.970686836561299,15.831719837597348
0.732,2.7767710543812427,5.93430481180053,12.960837047070868,6.31637949670494,14.3909516260195,4.087195623667299,4.120486783625893,15.264952991459154
0.736,3.871471596032734,7.4244450659041945,14.265824594039373,7.6301854346611435,16.926492320161287,4.829827899738689,6.107474003641755,14.905247035723619
0.74,4.915864679903052,9.151922808492827,14.955997359262938,9.000400528356863,17.692848551769828,5.648616339683599,7.676163981481636,15.300926095518776
0.744,5.679584313974317,10.705513324181481,15.000541448465128,10.220419373710229,16.911540298080297,6.910456366835092,8.868507231002695,16.792898841932015
0.748,6.017629155411271,11.69142308370192,14.523061342659275,10.97292196116473,15.301105069428843,8.723877989418611,9.882762720172536,19.259282258836834
0.752,5.929649898954665,11.860616520356587,13.720533591038588,10.913339936883233,13.660729654465058,10.747919000652587,10.85936266737167,22.047902176211096
0.756,5.532133086223041,11.161857621316074,12.72952781227059,9.812479377637487,12.479378518337569,12.25742584407601,11.728023299344272,24.19348246567074
0.76,5.011158484783948,9.757583409871302,11.611231021878496,7.745988099241799,11.818360395530362,12.50713228278687,12.266869070691428,24.863394463128202
0.764,4.570311380976193,7.993421722517894,10.439532366710353,5.187269154811702,11.480408999453061,11.182075238757193,12.322540445987784,23.80414966170747
0.768,4.373773996506827,6.299934020508545,9.38863981551043,2.886092088964972,11.298241141177186,8.656053767789672,12.007586671669173,21.50995083220846
0.772,4.491365635825446,5.021821751977029,8.706555810168084,1.5346146450344236,11.294428552263525,5.8701887863829825,11.689554684999734,18.966280006520947
0.776,4.812614919935527,4.189539356330613,8.4816775545994,1.3271952842289352,11.545254049146024,3.811068355803627,11.685017204229325,17.051632581815852
0.78,5.0036088001206735,3.383671559393008,8.400450297707494,1.7072708154011593,11.879405502281429,2.890469629435529,11.855293020964496,15.903499813979124
0.784,4.552805882094901,1.8068744643587706,7.676964364922469,1.4875013799551766,11.65425632091825,2.585882017627455,11.392937454950243,14.646479468503344
0.788,2.922793900851616,-1.3941188850378694,5.282898317356455,-0.6477200898818865,9.857984107490381,1.6100763658962478,9.034417294945285,11.740186450566284
0.792,-0.22706611064859317,-6.6572165826864875,0.43792995533885914,-5.470727616857687,5.585667821862785,-1.4230048333665763,3.681240748885557,5.841021989952196
0.796,-4.853328809734563,-13.624802629281817,-6.89631195852445,-12.7320103767305,-1.3468264376046477,-7.181767073436163,-4.867666068127562,-3.2467425350670283
0.8,-10.400256755121234,-21.021921108717947,-15.693438580401619,-21.073743511109683,-9.969440281538198,-15.038422026032322,-15.423912783780679,-14.068065534965285
0.804,-15.81932307047262,-26.93315122743553,-23.959389760988984,-28.42438296793847,-18.241157952423862,-23.086714401896074,-25.51400401456067,-23.82261752200145
0.808,-19.799614661088214,-29.442505603984102,-29.31723300254191,-32.72918080722974,-23.719972346910822,-28.81980038423012,-32.15321496514139,-29.405715864192985
0.812,-21.174751701646983,-27.40390734082837,-29.900737685256104,-32.706358343374404,-24.56012109621406,-30.17771483449644,-32.99906054495386,-28.721907621241826
0.8160000000000001,-19.401148829577807,-21.02337277714554,-25.227822040923684,-28.335786573967596,-20.37490590153959,-26.493375132213032,-27.393898062643586,-21.623740281685798
0.8200000000000001,-14.83669470421978,-11.894106469932865,-16.531477013601318,-20.817928965761666,-12.462643835818028,-18.82534801464226,-16.72317189607861,-10.003324172795885
0.8240000000000001,-8.672958910432243,-2.431935913579423,-6.351619935739848,-12.05832352517308,-3.2626957781816373,-9.529184609610525,-3.9063413139525096,3.0005032542517256
0.8280000000000001,-2.520403465880179,5.05620120040237,2.4511619218069427,-3.9397946769329337,4.691874680928265,-1.2689449433472646,7.746111202253189,14.288489482152158
0.8320000000000001,2.1943184789575128,9.250473309626784,7.820582952418192,2.286547965689522,9.803868525469056,4.057309677481953,15.771664937696869,21.953894792718756
0.836,4.712230881517513,10.19944574847517,9.187433245586021,6.213314176933693,11.888402618465364,5.943415449173017,19.299023550285654,25.77816189225655
0.84,5.143462589085033,9.084141851144295,7.489924850505133,8.12147794675127,11.936661625721513,5.2427303771993365,19.052340231398034,26.91565571241904
0.844,4.308967236827328,7.5185369957969215,4.571504276337635,8.615926343160368,11.371275080837165,3.5635242974001358,16.718023166932312,27.03618144542844
0.848,3.30968477582897,6.763734610681979,2.2799228895986516,8.27505271930255,11.251790805182225,2.4397551743976464,14.073205647153657,27.425191746321673
0.852,3.0397934135129105,7.246523253399118,1.7158478002120319,7.47898875242106,11.855097967301788,2.693513808185344,12.309914305802238,28.47882712631997
0.856,3.827912287475641,8.540677570086928,2.8889243205544517,6.393011250193354,12.756597051756046,4.218217844009473,11.766107261944967,29.75921621182482
0.86,5.387181685449036,9.785114793227905,4.935375949092702,5.078474789816823,13.288324605120579,6.2315679266403095,12.088661430251477,30.443687645059583
0.864,7.060117386452987,10.251021348295723,6.702902294497335,3.6169582281563635,13.0241382768437,7.781000816724543,12.613820993972183,29.837513356007946
0.868,8.191240645634565,9.714105094553304,7.345156276068224,2.147741175871033,11.975622226321263,8.198471526310016,12.700096565833235,27.665004503388957
0.872,8.43733014766417,8.46359376219516,6.651760007489486,0.8294634297857328,10.443232855887118,7.320731325499082,11.894399396414599,24.064352799946732
0.876,7.8518287738774575,6.988298797697041,4.959567445138362,-0.25256245082812256,8.678619835755626,5.414160343655908,9.936018144768525,19.412775345170644
0.88,6.797081197371483,5.629952922310935,2.863867205774625,-1.1088066402303127,6.686554745430442,2.9617434882175075,6.768032718286463,14.166995379182765
0.884,5.771405521344718,4.445362392699536,0.9433669884122082,-1.7797025183033952,4.333896932949131,0.4576813997977638,2.6244166563552653,8.821820044693709
0.888,5.237145673037304,3.33275537519836,-0.3765813705396681,-2.2434033428080227,1.6689421782525642,-1.7074671434084507,-1.884004817006371,3.9377831996446844
0.892,5.505144969321549,2.291297275797575,-0.8167143416420117,-2.37324645593651,-0.8153325152799766,-3.2766567183820143,-5.825137862896895,0.11749412175572616
0.896,6.637943880726482,1.5591658809936177,-0.25201057088725065,-2.025650565454839,-2.2528242687920965,-4.152658174279281,-8.24854431191585,-2.1374462823946487
0.9,8.40942627547571,1.5192984933142952,1.258684691283463,-1.1720650590318655,-1.8206954622876879,-4.422025520446823,-8.613997156490086,-2.6586933782029405
0.904,10.331777948008096,2.415569801990955,3.422336490034354,0.014284151717902205,0.7199456624995264,-4.361794606622766,-7.114475963844939,-1.7787083320381498
0.908,11.75463252564407,4.07055428009221,5.7039843459399435,1.1787547498920503,4.703754705333267,-4.380606876835714,-4.6752638137647295,-0.27510803089671754
0.912,12.060608707669928,5.83862653243807,7.4507496817271885,1.9250601979427984,8.72042425273139,-4.854272001218078,-2.556319869678532,0.9476662886230542
0.916,10.869837812180151,6.8332431410562435,8.066525157441902,1.954116570856229,11.185680528106843,-5.943038422884229,-1.766054081416769,1.299349585191294
0.92,8.20736815005904,6.351113569947074,7.230695650677035,1.154108280729929,11.058181549013398,-7.467221058743689,-2.567344566485417,0.8132503826150241
0.924,4.537046661280499,4.24113637580183,5.02652663668664,-0.415499495057702,8.291444265870439,-8.951890187145978,-4.3735416065735535,0.10420033698767384
0.928,0.612372330208018,0.9863469800472444,1.8886777909384591,-2.6110142563671843,3.7762863122419503,-9.850810389327762,-6.115439533841823,-0.021763684298093722
0.932,-2.8081779359941947,-2.546173869469385,-1.5923695739055574,-5.2744549870436686,-1.1658393429661373,-9.835324962101254,-6.871128470713529,0.9129055555758896
0.936,-5.266857706387782,-5.551640343699262,-4.9439571098180295,-8.25110067525884,-5.44111407318951,-9.006377540543326,-6.4084493035275045,2.7272479153352833
0.9400000000000001,-6.737371649723798,-7.631938589717947,-7.938155239696698,-11.30165397889823,-8.584683851654631,-7.866973577235171,-5.299580653117573,4.643759932805324
0.9440000000000001,-7.50630746297611,-8.8394216462288,-10.508016005099762,-13.985366637261905,-10.705313655132386,-7.046769766011266,-4.5455135723588,5.721148930008894
0.9480000000000001,-7.884052076571152,-9.428684865146579,-12.538326504494307,-15.646776013097565,-12.079338141687685,-6.9263339799545065,-4.936662516051683,5.415417183753789
0.9520000000000001,-7.941471987779266,-9.535543749500675,-13.721994780233786,-15.599712746928503,-12.73296444770449,-7.391977112871018,-6.550664896570538,3.918022103675412
0.9560000000000001,-7.487368891457891,-9.054414436342995,-13.685397751681649,-13.504336221978292,-12.353335226015474,-7.906410781184604,-8.71426831494432,2.067710637521259
0.96,-6.292903596934082,-7.788250980467183,-12.28666405312606,-9.700346070181013,-10.579525501019134,-7.837865989003376,-10.42735327612536,0.8693200788799231
0.964,-4.409637441026405,-5.747923711106296,-9.882930082269468,-5.264906959152313,-7.460184147138875,-6.8607286722703975,-10.973937336326117,0.8945762312550869
0.968,-2.3538571314070396,-3.364988651891281,-7.358616447027771,-1.6990824260096815,-3.7333072406917154,-5.182918893089436,-10.346274989806489,1.9131723041982696
0.972,-0.9872436050779356,-1.4142879972639548,-5.8041075930830175,-0.3332901228313858,-0.6726063288194837,-3.4469702008293552,-9.229475946479397,2.9728264877030597
0.976,-1.1300143278936048,-0.6634026375861595,-6.023519260937974,-1.7478712792379838,0.4612804086741562,-2.3690121702288707,-8.582062826858873,2.915422906696449
0.98,-3.0829242322238315,-1.4304220810365678,-8.096431126293396,-5.489747599457246,-0.9194478165352393,-2.3073419652444045,-9.052552818038066,1.0304212277555962
0.984,-6.357530291734861,-3.3497108447319306,-11.272712110273005,-10.26072816442354,-4.360124968584387,-3.029108567347521,-10.5884228270736,-2.5223516029268467
0.988,-9.830562302624912,-5.542402332514712,-14.316170482344887,-14.510866614249494,-8.545191607864354,-3.8299948436215345,-12.475551345941312,-6.754656682020823
0.992,-12.26535691048889,-7.108075839549656,-16.115314129041053,-17.134458302382427,-11.949199982975642,-3.9390407251539727,-13.766929805294467,-10.332259786513077
0.996,-12.979183096998895,-7.684853287710439,-16.2978990079539,-17.956814106365073,-13.628434325385115,-3.0051177772529627,-13.87240788901454,-12.232099030100926
1.0,-12.241749735156418,-7.692479758338322,-15.43578819878985,-17.722772632871283,-13.677602691153425,-1.3457451252379542,-12.930929758664888,-12.216571088826186
1.004,-11.158377062612317,-8.08758533385435,-14.719320269422951,-17.615183997001623,-13.105483492930489,0.1808192741664243,-11.757824718989923,-10.897295241081338
1.008,-11.080225510576383,-9.760175365689747,-15.27740480716352,-18.576103998753297,-13.207198642931871,0.6158156399328618,-11.400067516724903,-9.367697292978846
1.012,-12.843774044476277,-12.918013679691512,-17.50600907840476,-20.78513629924919,-14.794394145053047,-0.5698992550176172,-12.546119885480039,-8.612597003500923
1.016,-16.30216971222717,-16.881052557671183,-20.86650897042591,-23.62302805906029,-17.76511744063464,-3.193732459114699,-15.158363927519076,-9.020514413306955
1.02,-20.39164279899319,-20.40696677164783,-24.21867993489832,-26.078910705226235,-21.22085731744346,-6.457615553687901,-18.498879742544432,-10.246595867021824
1.024,-23.687045726956057,-22.354802481697106,-26.47223281510037,-27.336286441815446,-24.022252833885887,-9.350518890120384,-21.502984795650264,-11.465962688052286
1.028,-25.124771925605728,-22.28981879869707,-27.16098281118775,-27.190043256268382,-25.425373117255504,-11.12123968902506,-23.27870454625554,-11.849371552697903
1.032,-24.474952006906506,-20.660452863008004,-26.580503786744885,-26.048871998226787,-25.406264200061287,-11.551829240056122,-23.456960613862293,-10.993083279438451
1.036,-22.366038265303814,-18.491554167363347,-25.50108148392019,-24.6027493940137,-24.538192067644786,-10.945205941634413,-22.271163597771874,-9.076929607831289
1.04,-19.85908272286474,-16.767504699753545,-24.597951853136237,-23.34940283922765,-23.50505613722453,-9.84742202990401,-20.332992270682325,-6.692090936754994
1.044,-17.844451383944943,-15.881335289690014,-23.974938051210074,-22.2802647932358,-22.59204721629021,-8.697882565757482,-18.268853006952668,-4.479881643133467
1.048,-16.62596052594654,-15.481124239992369,-23.092811745339077,-20.92496764533962,-21.493220617539464,-7.624763824939237,-16.438900297951932,-2.807556083297186
1.052,-15.8934411151223,-14.770586309181226,-21.11840996907017,-18.70510642269528,-19.545300081343612,-6.476204637419414,-14.863261090173864,-1.6679862971568582
1.056,-15.08451305808967,-13.079569781840519,-17.53971419494792,-15.40745922708038,-16.2542282121658,-5.063443928967445,-13.378878441174493,-0.8289519395934803
1.06,-13.84567689792459,-10.317092282275325,-12.616045451346054,-11.451067569390943,-11.747372944714243,-3.4135132233459444,-11.87110278722048,-0.11187432741644443
1.064,-12.294121464262844,-7.040787427535406,-7.382335833343404,-7.783390805332601,-6.86026305157975,-1.867517879530169,-10.42151769422253,0.38754812775914615
1.068,-10.93412581176267,-4.1282727613843235,-3.1821988958035945,-5.457958478555838,-2.7841121165502045,-0.9538794247328042,-9.282013911997183,0.29660146196920323
1.072,-10.284900990668575,-2.2571006533823947,-0.9645371645783598,-5.099743401803153,-0.45508348735916115,-1.0904494426458768,-8.675514691484295,-0.7980551662367361
1.076,-10.522935264823445,-1.5618318795100095,-0.8253462620318714,-6.599738313168928,-0.08337764761472499,-2.3249890230777055,-8.604779840993615,-3.0125730728213966
1.08,-11.355972906457282,-1.6492562772539259,-2.013711596261146,-9.1711601248237,-1.0890290806885332,-4.256223526499525,-8.790336542536352,-5.948583930986388
1.084,-12.187006085645635,-1.9151929365259548,-3.379605806186646,-11.714146122586726,-2.4722870285659155,-6.185906769181656,-8.778707024525374,-8.753072867878473
1.088,-12.46301757128117,-1.9446889307735091,-4.000189864927506,-13.295858858105476,-3.393725769338289,-7.423014091786172,-8.177119445288554,-10.461384579637524
1.092,-11.972471028957443,-1.724728738547583,-3.604477625198797,-13.49052850352291,-3.61526773843525,-7.570745016975252,-6.867307705847907,-10.463469492019613
1.096,-10.948997922351282,-1.5881305728298685,-2.6454343423624778,-12.483285502454464,-3.5828181235592638,-6.687657360846515,-5.111095512752399,-8.837780422863489
1.1,-9.917740624937323,-1.9386911517365206,-1.9723952282492974,-10.911768142343362,-4.106854636826483,-5.232804910907362,-3.469846262855299,-6.373976060697714
1.104,-9.381372730062822,-2.9455621393858564,-2.3058517521303656,-9.543961323994381,-5.836337793396979,-3.82633313390852,-2.5563338952401864,-4.242718121751295
1.108,-9.534057231030374,-4.405274409951289,-3.8230828910873242,-8.952500084169515,-8.839433478968203,-2.9575939176670545,-2.7436054233357936,-3.4687723857964556
1.112,-10.154482201727205,-5.833744532952096,-6.045034407929052,-9.301592384941614,-12.515017448083654,-2.7771874009345083,-3.9748223257624886,-4.482599823842065
1.116,-10.755034490672642,-6.734879561913203,-8.116005059706822,-10.341523255031916,-15.88215846334515,-3.086796569012222,-5.7877688604780815,-6.955790725013685
1.12,-10.853588343165484,-6.849805718470407,-9.251126782456595,-11.550390188649999,-18.043766590176347,-3.4953943302534753,-7.521501216333036,-9.993438263835742
1.124,-10.207662575246559,-6.240541751981027,-9.093282747955527,-12.346686285997748,-18.553733302620003,-3.6474765078064593,-8.591375600580704,-12.572881197442712
1.1280000000000001,-8.893233613122902,-5.181074555846408,-7.801790234465443,-12.288437035686457,-17.50223346203302,-3.399210052053604,-8.693237245517139,-13.988969961405928
1.1320000000000001,-7.193101173834293,-3.9403559044415033,-5.8372061802556345,-11.179882448584522,-15.306810788745679,-2.844111968495781,-7.842608757467133,-14.090758580949569
1.1360000000000001,-5.424218853255979,-2.647188501488017,-3.688087506816373,-9.11823352995225,-12.416549657895303,-2.2224483243971918,-6.2968178457331305,-13.212791681298768
1.1400000000000001,-3.807042828077556,-1.309464032215601,-1.6780644253512946,-6.4562991450875415,-9.12591976544536,-1.7709220409351474,-4.422823840586261,-11.886289416796899
1.1440000000000001,-2.439280783126833,0.05470694684754562,0.06881921910417077,-3.685414072981075,-5.59330096476333,-1.609077258751313,-2.5818848315316245,-10.518798856920967
1.1480000000000001,-1.3465271127402048,1.2961929649718513,1.5308392125589307,-1.2676087682111756,-2.0020974197518626,-1.7191519043626613,-1.0705263639579243,-9.219499378245018
1.1520000000000001,-0.5364198084446343,2.143187002416653,2.7040930132175163,0.5351651591063273,1.311352020085451,-1.9999529981050728,-0.10192905349595094,-7.849642788951769
1.156,-0.047870443167539634,2.317481805222087,3.5438982819146077,1.7172224466435182,3.866487329764368,-2.375576225524128,0.1760856251644327,-6.223346522357133
1.16,0.0630297262005115,1.707002915889916,4.00408941016758,2.4785707936739527,5.231794128268575,-2.8499659582330423,-0.3062476636750944,-4.306443632082846
1.164,-0.20495977684231548,0.48199933372779924,4.117762537201543,3.0961046426846224,5.280937995093154,-3.4653609176866667,-1.4962962108702413,-2.292108656797609
1.168,-0.7439006895153852,-0.951079081761236,4.017609574597827,3.7660436332416793,4.315889236547264,-4.207543223830726,-3.1930557665496053,-0.5197604651102665
1.172,-1.3239024842982872,-2.1334642968981825,3.89101881011311,4.516231870521096,2.961560620880846,-4.918110512783642,-5.064091279156401,0.6955155705481957
1.176,-1.6811479858636176,-2.8105792470660163,3.825350796351813,5.179474169291552,1.8326053482373936,-5.320805601944812,-6.758244093759913,1.2255013744634198
1.18,-1.6604880913405395,-3.1048968257164233,3.682399322310175,5.444791179153071,1.1646786276351122,-5.1630054238821685,-8.05695050143504,1.1801295280702107
1.184,-1.3232586337792327,-3.4860873803468166,3.120334756894408,4.960695079058041,0.6528422367382518,-4.411165336803606,-8.967287324487188,0.8322926457212816
1.188,-0.9610551717846647,-4.530706189812008,1.7882271557405147,3.449318261929875,-0.376438268736365,-3.3693449844904535,-9.690352196961612,0.47986847108677466
1.192,-0.969313884737403,-6.5652873299586645,-0.3680303348924099,0.8265163208170634,-2.517748727482285,-2.598859308502142,-10.449856546167211,0.33038502829458594
1.196,-1.667238398984864,-9.41316124954028,-2.954190793379894,-2.73847101628553,-5.837718368090009,-2.6827346962700176,-11.311757133336869,0.4737006054238009
1.2,-3.1337475134600936,-12.38161542637863,-5.222038783063908,-6.811651476298721,-9.681989278260517,-3.925688425613771,-12.104718474096444,0.9228165207823622
1.204,-5.138068320808088,-14.525243690838579,-6.400783676433093,-10.739732440244097,-12.88309422777047,-6.154306329231076,-12.507650135026779,1.6590023220169314
1.208,-7.20035183943628,-15.066478015964549,-6.092618076844701,-13.75793770717928,-14.273018145277547,-8.734085417431743,-12.25997999469746,2.6456769379938123
1.212,-8.756744809013071,-13.758720399830963,-4.477602594400196,-15.149021713096772,-13.225924826599112,-10.810538195313711,-11.365226945992617,3.787442214172188
1.216,-9.389758381807951,-11.033760504245492,-2.2623202789764036,-14.466338670843925,-9.964831776635492,-11.672380806036017,-10.167253914946741,4.899560213882069
1.22,-8.991939426588033,-7.823882487519313,-0.3388648594627739,-11.720236950603521,-5.457499253921924,-11.033297420568488,-9.212044387759306,5.7410155698371454
1.224,-7.794640569972216,-5.137841059016409,0.665997741092724,-7.45126143157313,-0.9685895831398739,-9.11017750355495,-8.961203790697255,6.101724306592587
1.228,-6.240182648624341,-3.603294725732212,0.7014233126055842,-2.62327464577902,2.4857051348371897,-6.472281730139912,-9.516201908906623,5.903464853662626
1.232,-4.7337222227915845,-3.1820858047408365,0.3347193138952207,1.685863249133945,4.517405912604772,-3.7345447043499007,-10.48863304342376,5.256837467008154
1.236,-3.4526284739513358,-3.25041228711234,0.41668138410386746,4.634745939560162,5.370969242089814,-1.3099605305269506,-11.156196897848531,4.429653706866702
1.24,-2.299715239588295,-2.9959649177594656,1.5844438525373334,5.886082773705766,5.613677123994421,0.671194600598028,-10.82074954467771,3.7345445055852906
1.244,-1.023040522334668,-1.9132412732797093,3.8749010970732343,5.67389200122534,5.72384000684815,2.2576639300350507,-9.176198582587858,3.3840801647911576
1.248,0.5626371705357087,-0.12639991177320553,6.652754948747315,4.637811125706321,5.814220305124763,3.4917486359936447,-6.491634828076712,3.3959982847172796
1.252,2.403257638724426,1.6706832246240992,8.93944755692155,3.534407222469781,5.6528706739673,4.302305522062852,-3.4823408031943472,3.598855094634928
1.256,4.147981178589362,2.596643285378832,9.876622609874175,2.9079106833314654,4.8910719775803955,4.513183865780775,-0.9859951744529099,3.727675241558245
1.26,5.261480223971375,2.082536844389324,9.095406648886637,2.8819998576918806,3.3267021078609105,3.964655151155057,0.3784355782745479,3.5448307271990416
1.264,5.256786633169213,0.21079607291540015,6.815210195471991,3.1604414802195606,1.0361580121634688,2.6566041610094544,0.40253133500391414,2.9260441351179907
1.268,3.943003941554707,-2.3005058445746727,3.6591168504082816,3.2302571433720004,-1.6827310291846516,0.8222448106207594,-0.7346941616260665,1.8916931850708352
1.272,1.5794658213608272,-4.449128828812263,0.3595022257322853,2.6790315498765267,-4.474307468943152,-1.107965567382962,-2.633551159092349,0.5857270090173188
1.276,-1.1930220478980118,-5.48003882388366,-2.5466138611627684,1.415926166943791,-7.0894824937468,-2.6624090850564244,-4.896047857922895,-0.7625109067157609
1.28,-3.593270502705309,-5.280482162592762,-4.8437648261988215,-0.28227836015139474,-9.418253796929093,-3.4998751717430423,-7.249583062522106,-1.8803168407348494
1.284,-4.9796323659002155,-4.400178162949032,-6.552240141691982,-1.9020142288563875,-11.378897925813362,-3.506876085080876,-9.518296308102435,-2.5052863177870677
1.288,-5.048686595534491,-3.6921847831486048,-7.7391264516772935,-2.9275490978643575,-12.776093415082869,-2.788865348255058,-11.517700610475003,-2.4677249072856284
1.292,-3.857444608851438,-3.769650883822578,-8.33503707280488,-3.039909036685458,-13.251706789921627,-1.5714685058574105,-12.96722867409062,-1.8038529520235898
1.296,-1.72960240726934,-4.631488577138043,-8.147743331976926,-2.23182158515192,-12.42505339967829,-0.11096702103168354,-13.53988182404737,-0.8331556217281104
1.3,0.8890252152473295,-5.6690891696725885,-7.028726156038829,-0.783373413719346,-10.146210195689491,1.3655172896233125,-13.027098671089334,-0.12470373588348593
1.304,3.5708272835804564,-6.0262347324269285,-5.049074435996772,0.8855019143802565,-6.679735159158554,2.695862782888071,-11.49241086470738,-0.3009112555928368
1.308,5.987466594248872,-5.097555285008639,-2.552561233615961,2.401329075609283,-2.6780369045227417,3.8074372603878146,-9.29647800661678,-1.7279754576502455
1.312,7.950858764600071,-2.863874824474806,-0.006929579476491199,3.584433001531579,1.0793717608939914,4.739956398303548,-6.9515230023216645,-4.2662266264260325
1.316,9.388039463672612,0.0903303303712164,2.188295425121396,4.446839864482172,4.013795251322335,5.615789903997211,-4.915627168903484,-7.234078085380133
1.32,10.291281822523615,2.879729602544103,3.835402825043275,5.0782415744333775,5.95649576651158,6.563713190798808,-3.4336511615420022,-9.655037659488698
1.324,10.683996269574891,4.754205603772789,4.929063560155555,5.5019415950137045,7.10993722746025,7.599531969004602,-2.51873473176056,-10.71793932835044
1.328,10.605037962386632,5.420647282299797,5.526059422600156,5.606466001824629,7.788292411983093,8.531088060844922,-2.0595173987994713,-10.217644418474265
1.332,10.130240525983027,5.110378658442642,5.636715222050043,5.231064772421632,8.12932299561453,8.991585048310299,-1.9395423758905963,-8.720127024280373
1.336,9.365136633145084,4.347605688521071,5.154595651794807,4.303807929328286,7.936146992044996,8.584879338412065,-2.119319116857696,-7.321340901493386
1.34,8.412613875845182,3.587006948283488,3.9044932373508345,2.951779089929005,6.765174378715528,7.113304098040317,-2.6234426349565183,-7.0915582718753285
1.344,7.349863267377714,2.9612447227136727,1.7903764706907168,1.5060719908178726,4.219357341303294,4.771271710384099,-3.445625394881972,-8.482712904866275
1.348,6.210682436890238,2.254318165058976,-1.080960801490619,0.3537322650590795,0.24750141075946885,2.1582903813559824,-4.487833266211965,-11.04737082929205
1.352,5.004212819328586,1.1023018058031084,-4.356433444747381,-0.26504551626203465,-4.726848156538836,0.07662056902881886,-5.574190955536324,-13.648892069515568
1.356,3.7261522464059453,-0.7440856810417245,-7.572090850041604,-0.4273380879621982,-9.944501371212937,-0.8345940317194618,-6.558862327297902,-15.050647440064495
1.36,2.3805323311180473,-3.2358339067204724,-10.35947559808119,-0.5192574562452137,-14.607430367070265,-0.41468669598179986,-7.424687389868268,-14.560668736086882
1.364,1.0158674633507871,-6.004874622672105,-12.58146593760739,-1.0186659319188038,-18.145273440231904,0.9349641116968996,-8.26364413727606,-12.375106541254354
1.368,-0.2404975822473716,-8.496795612484675,-14.311497598645474,-2.179269695532639,-20.301252335630124,2.4694522974550637,-9.130577765416092,-9.430972817870497
1.372,-1.1510326281040761,-10.15222050891316,-15.634126319127063,-3.7751709483036393,-21.009170991291285,3.5275034158858034,-9.850962708311272,-6.869041234593169
1.3760000000000001,-1.4263884556885387,-10.595919292089093,-16.48426377920441,-5.134262443758416,-20.23542877903219,3.8844612962639076,-9.98329705550168,-5.421604753080828
1.3800000000000001,-0.8597152331303732,-9.753840093533654,-16.631889084785143,-5.464650922268447,-17.930939527854207,3.8348257651105087,-9.009575674896041,-5.076881021948793
1.3840000000000001,0.5376862648981842,-7.862259633031499,-15.828326862925678,-4.303148337975472,-14.148928168537168,3.9473130940623378,-6.673929971779216,-5.199455648917137
1.3880000000000001,2.465507007025735,-5.388754725414401,-14.03291697473469,-1.8272266030944593,-9.239677534397742,4.635098019511133,-3.274206623678765,-5.004691138055932
1.3920000000000001,4.408071731691962,-2.8794541919778567,-11.519669471466841,1.1927464220116235,-3.9303504819354202,5.8238253265517415,0.33247287612903165,-4.086544580643022
1.3960000000000001,5.816052391168341,-0.805266220336307,-8.827880648745122,3.756498307664515,0.8106773505332967,6.911194374157276,3.0482678782591393,-2.6554066376775154
1.4000000000000001,6.331464171755215,0.5629263232613084,-6.543128292487381,5.129991868336219,4.116267451111526,7.081010383179091,4.055120860477473,-1.3531411096992088
1.4040000000000001,5.942535547666921,1.2147090468142778,-5.026278981351425,5.193439947666775,5.585778541500076,5.7928800048630364,3.249669211652872,-0.793265647294902
1.408,4.975646325530761,1.365293046406805,-4.266211197316807,4.4367563392825105,5.438930122948477,3.1566326536849374,1.3187771114062343,-1.1299174832565768
1.412,3.949592889261112,1.364526025809937,-3.9081665039302607,3.636201842232367,4.360359034215435,-0.019809294015431078,-0.595227174964748,-1.9333450183494278
1.416,3.306023737117357,1.5358495601867617,-3.523529488727945,3.3583107280546756,3.0774977459823276,-2.5991466782706993,-1.5127209184483945,-2.447450610297892
1.42,3.1793992412258376,2.0392686126324406,-2.921360223370357,3.6279341696717893,1.949320709629319,-3.6804849321215443,-1.1469971100268594,-2.0422559802609612
1.424,3.3560325539056066,2.835272434473154,-2.281898055520287,3.973102675629889,0.828163035788748,-3.0455276154971216,-0.01991125023960194,-0.5729759584828571
1.428,3.4418097459165438,3.7511005885380655,-2.0259433104511118,3.8062098734380925,-0.7097124336050911,-1.240025404958942,0.9128151578097459,1.576055671337599
1.432,3.1602123578240935,4.614097660230982,-2.4584215335398767,2.916946086556891,-2.904265793189552,0.7688619735272368,0.9200397222193715,3.76429638558875
1.436,2.5516300904009768,5.316319339911388,-3.499999291043423,1.692629982503604,-5.479673386867944,2.1217718882271583,-0.013352053174457978,5.487759143572475
1.44,1.9542077772757693,5.777239476883551,-4.680962650705624,0.9174985578574706,-7.673535151134274,2.4995675834343274,-1.1601728768036992,6.6347770128431875
1.444,1.7772134872866445,5.853500005313435,-5.418985038902974,1.2605561488990134,-8.637224759579112,2.2201769230377977,-1.5127236194020952,7.443753677483983
1.448,2.195093777818329,5.2881505432778795,-5.4262747632019455,2.7681010552823864,-7.96790405507636,1.9638716254794417,-0.45629636056764866,8.217659252219164
1.452,2.9965340858161653,3.814566289724098,-4.92775057255858,4.739159745312463,-5.998129005176452,2.329550281416232,1.7873594118736946,9.011548888303878
1.456,3.664203816738336,1.3599539218184873,-4.586494533803489,6.049176783268194,-3.6566027571825543,3.452363073343804,4.206486635906913,9.534403252040647
1.46,3.666083965440521,-1.7612483270577286,-5.1208246330697875,5.769765586985159,-1.94134456802567,4.9131943214215426,5.531194024802971,9.347369940322096
1.464,2.797964940982638,-4.816300910300015,-6.817197055408542,3.7275527588117257,-1.3239821908937301,5.972560737513049,4.944802874761081,8.213430108698958
1.468,1.3640956522176566,-6.866351870628932,-9.238738578176708,0.6616971875828312,-1.456564050513407,5.984459573095592,2.5539998204549192,6.3623272205622925
1.472,0.0837216655145312,-7.144471418236208,-11.296216721044402,-2.1107155296031124,-1.3692946437204228,4.764696206422741,-0.645734495628858,4.456788488858365
1.476,-0.2818225986784455,-5.44585916185315,-11.752268077914778,-3.3850983410065965,-0.08939137102606765,2.6832523121629492,-3.3157605342912575,3.2564160468245973
1.48,0.6263751216993114,-2.294255630853513,-9.88182555059393,-2.712801074167146,2.7030425467437453,0.45700925764322164,-4.497856137137205,3.181821343199772
1.484,2.512380107717945,1.2472308463975423,-5.909271658225407,-0.6267343488143524,6.3907403328994405,-1.2266324445772625,-4.0842396828993515,4.040296581517396
1.488,4.521716562134316,4.054731846150389,-0.97112082370586,1.6725447124026687,9.698989367530885,-2.0374040991518996,-2.7686681993982347,5.101412362031624
1.492,5.676365125718803,5.488042427711662,3.4332835798122687,3.007660990992008,11.39883384917266,-2.0853335733881977,-1.528493630421508,5.485583447320096
1.496,5.373901171102261,5.661838837402684,6.13525576669781,2.8405335317256686,10.987492401898635,-1.7753343664353451,-1.018521928883274,4.639851961957902
1.5,3.67963959768349,5.2920005894147835,6.775536504597767,1.4825800337275723,8.946889164495587,-1.5303603150423442,-1.2446323599124298,2.621748030403978
1.504,1.2685293630347587,5.221181014100694,5.836964431142405,-0.1808913159857184,6.437718860786845,-1.5535652290345752,-1.6866971557901707,0.030074964392042602
1.508,-0.9506342470067466,5.896277523503159,4.233101033969433,-1.2696885544974066,4.609356237613611,-1.7707536903817527,-1.7608446376798383,-2.3597319875407265
1.512,-2.272907391427907,7.1383104827282295,2.7827417193184374,-1.3882687764471484,3.9781165786043857,-1.936642927081266,-1.2593714670219924,-4.016965351202089
1.516,-2.5013987562269904,8.301109736246872,1.8102659332835174,-0.7713532208399556,4.207168027189255,-1.8521380487145507,-0.5030599463789258,-4.876064543295797
1.52,-1.9752757546648354,8.703747048008154,1.083291949427803,-0.048092660448673996,4.389910519177647,-1.5336728971014963,-0.12443224135495257,-5.251413981684891
1.524,-1.3310158142103319,8.062244060962257,0.09241261313763971,0.19739808704434836,3.63494705830999,-1.2229278559425438,-0.6302003164473717,-5.5375321667706885
1.528,-1.1740434993807867,6.626398486299877,-1.563691184450363,-0.2411324947315734,1.563340784965476,-1.2553493179912039,-2.06390386712701,-5.928331400167735
1.532,-1.8343177569631735,4.952775578693036,-3.9069774116833287,-1.146615287514578,-1.5628907675381924,-1.8440619738466921,-3.986015029697228,-6.349388413800625
1.536,-3.353405945801569,3.4430327994869003,-6.637604885854671,-2.156444385913346,-5.143304744815396,-2.9446539694945386,-5.800303387670283,-6.617293438839624
1.54,-5.634414785543413,1.9759653636756411,-9.41594836481454,-3.1315414897217124,-8.711411167934784,-4.267378065651428,-7.177248514344683,-6.677634684992881
1.544,-8.572821855421353,-0.0654675494388357,-12.105031404282272,-4.318890608272341,-12.20823004099293,-5.4116353078243264,-8.243762474214236,-6.714567357050328
1.548,-12.057224319753004,-3.348209811891138,-14.77919158918121,-6.184440053883009,-15.855706767260926,-6.049909123976249,-9.390432221083756,-7.019228479312005
1.552,-15.803815026867596,-7.962927195461816,-17.43252136110459,-8.977548137389022,-19.69704409987753,-6.030275535296823,-10.803617678469891,-7.701107887118269
1.556,-19.216651717379136,-13.066501350498584,-19.683560017676427,-12.367944833544243,-23.193012846353668,-5.393229624318337,-12.109533257127623,-8.470097853116386
1.56,-21.456950905655503,-17.097713073300838,-20.74856835987339,-15.445972493549561,-25.235492653779147,-4.332061313201848,-12.450827813923752,-8.721691078473668
1.564,-21.76415972828272,-18.528224571247847,-19.800484152006902,-17.140629387535228,-24.682810323914964,-3.155322137525218,-11.037535285935519,-7.966204193209705
1.568,-19.910361093670872,-16.783377183881385,-16.59292366529371,-16.86161721530152,-21.17361570700814,-2.2935563932769583,-7.885688069847674,-6.384549188882374
1.572,-16.488071702415255,-12.765677259058066,-11.914878288213004,-14.951793701891802,-15.691856533647297,-2.287855350143218,-4.220384948435822,-5.1394080468780885
1.576,-12.835339022976768,-8.642605096254556,-7.575413516628032,-12.67790437844451,-10.471903526151436,-3.729644439285039,-2.2157215815077507,-6.131374521755788
1.58,-10.539813590997255,-6.901793355340487,-5.762052703963491,-11.688661761862022,-8.141023169551772,-7.077591074885277,-4.060771546155593,-11.17460324798958
1.584,-10.70643389925317,-9.092984803697618,-7.983329435370251,-13.169994149615377,-10.452864731412774,-12.373245759219571,-10.759065474168892,-20.938627390452893
1.588,-13.36349034639079,-14.91270736813567,-14.13959210279063,-17.153265096991163,-17.263286124825754,-18.992548850899766,-21.320970735709125,-34.205318979056756
1.592,-17.309005154802435,-22.121416000182762,-22.223971794015597,-22.33452414347994,-26.31736811524388,-25.579837257693725,-32.83863926410959,-47.91340923142707
1.596,-20.5775820338431,-27.44442504106155,-28.9994267706179,-26.586075925993555,-34.08689132851214,-30.338815582728785,-41.55355666343894,-58.10705095101093
1.6,-21.33255137029687,-28.058659385397732,-31.39448074136908,-27.924398464243495,-37.30860879165857,-31.628359451216056,-44.44583375653838,-61.44064875887398
1.604,-18.723311988572277,-22.92793893934413,-27.93401752829959,-25.428133987885303,-34.46231108076972,-28.622867384099663,-40.55653948968393,-56.57161843477661
1.608,-13.279181653195337,-13.330332376734077,-19.487724362483277,-19.646747711920398,-26.44640369728404,-21.730266433169163,-31.38239895723018,-44.774350005311135
1.612,-6.627140711538232,-2.2895790920647414,-8.887398205268255,-12.281981994507078,-16.09860579979795,-12.519799670688371,-20.131548690267664,-29.47740496390179
1.616,-0.7317036918975646,6.768933546134576,0.3419272339615418,-5.377913259999332,-6.849513941604528,-3.188246430861909,-10.26222084710389,-14.919138876699435
1.62,2.950833381488337,11.475654276648129,5.5176134524081135,-0.44519852896883094,-1.195097195193739,4.234240593978029,-4.03275556607332,-4.525015454972163
1.624,4.008039672958148,11.406036912361742,5.859105585012003,2.0590691307006637,0.2557636558158265,8.59233773930464,-1.7466174454966676,0.26542980154408724
1.6280000000000001,3.0490530517436127,7.999510597749577,2.5576277004183794,2.6607629715399526,-1.2770734944351716,9.89193392247762,-2.0021646600180247,0.23262293431798753
1.6320000000000001,1.2285940170959293,3.64521406124004,-2.048484751596334,2.346243160911399,-3.667477607654291,9.083137696296035,-2.6818816926315776,-2.3451126289637614
1.6360000000000001,-0.40872610398673714,0.4345500636991346,-5.754767914218974,1.8980848513238016,-5.131343612310957,7.4613766085713,-2.123117582192208,-4.931430112144881
1.6400000000000001,-1.4036417474426344,-0.7625579700343224,-7.516329048892658,1.4867148757111863,-5.100050381997789,6.018741884028714,0.14511480593500892,-5.857413885443748
1.6440000000000001,-1.9403947844029972,-0.4639142196974717,-7.699073153878999,0.7218140172535641,-4.289892483377116,5.0664836180258135,3.4163845278417284,-4.842921975900026
1.6480000000000001,-2.5462839982592413,-0.0027301985555823194,-7.5435141351299535,-0.9377622369211167,-4.030297320819955,4.26603380870074,6.427930302897948,-2.7761088439656305
1.6520000000000001,-3.6321745880823073,-0.5805277062790992,-8.185538431131135,-3.668950049488558,-5.287129641195861,3.0170785896625603,8.177982360241003,-0.992351258677445
1.6560000000000001,-5.20540077833266,-2.5414944571257365,-9.919756246572433,-7.045318902821236,-8.00992581355058,0.9016905905555177,8.41413124898645,-0.5013668565425178
1.6600000000000001,-6.882727083216196,-5.232678279953689,-12.068554368212062,-10.18388821125518,-11.129626504407497,-2.044406280001567,7.599449401670427,-1.5537450705414813
1.6640000000000001,-8.122808538994832,-7.442592209665236,-13.43770823522209,-12.155559330800315,-13.14540445903549,-5.337089324370027,6.501429656378605,-3.688848541065454
1.668,-8.562719840744649,-8.15700725629722,-13.105421225780447,-12.463988519530176,-12.957619636286836,-8.31697287220959,5.670156510086599,-6.137186871248559
1.672,-8.196184319834174,-7.129812397088244,-10.955699332133008,-11.259566686323524,-10.421331947220096,-10.46613726448777,5.185576033267353,-8.284199355572127
1.676,-7.326751504203457,-4.975842959800502,-7.698448702736641,-9.213783335893822,-6.363465026286576,-11.609599113591685,4.772096011742178,-9.926653268817972
1.68,-6.3798006951474235,-2.796221184940805,-4.434678943089239,-7.176248137133371,-2.124405192776976,-11.922679369130492,4.11756485369915,-11.21804320739102
1.684,-5.701230021089941,-1.5804136036713317,-2.0615548895566462,-5.816498861884611,1.0753088664823736,-11.785509585672116,3.15615967960548,-12.403977225396375
1.688,-5.465248626305765,-1.74926768464411,-0.9090756538971618,-5.444534297708742,2.5841541592290014,-11.594051653224597,2.109562113371794,-13.537360521317169
1.692,-5.673166104696065,-3.0341817876360437,-0.7262444026364392,-6.009098903168706,2.4161985963619372,-11.59976955368802,1.3082421401650208,-14.3735155989325
1.696,-6.2076453450408735,-4.711210577871498,-0.9802716167414474,-7.213137792623456,1.0329989485380793,-11.839583864824817,0.9463552405322844,-14.474093751710825
1.7,-6.884437794145924,-6.0098381214793335,-1.242133697927784,-8.630854326069311,-0.9813811044896283,-12.144881145602994,0.9538882687666046,-13.423679796249417
1.704,-7.472643629555023,-6.453325269069865,-1.411261190298319,-9.770918246982546,-3.158149985698401,-12.220840015994327,1.0692037702065136,-11.035246762790848
1.708,-7.732614472447494,-5.997392740640862,-1.7024609044619865,-10.130880900589545,-5.217809981826576,-11.770093100749364,1.0342993650901917,-7.425000026796624
1.712,-7.448320074080584,-4.909824903676963,-2.37817733686461,-9.24925453258038,-6.992035155679332,-10.59149422383598,0.8025058038547286,-2.9520276564217056
1.716,-6.501301018972299,-3.5465649417274108,-3.478937816880716,-6.847122114566446,-8.34398718281409,-8.668412380364316,0.5842699886015907,1.8974654478988668
1.72,-4.990913887717397,-2.211337660179197,-4.766169520100448,-3.0398554907478683,-9.190023480117816,-6.223013376846211,0.6762415345365298,6.593764663333786
1.724,-3.298091511232087,-1.1354937197411346,-5.884522213242235,1.5315172800437722,-9.585530677262796,-3.6941976094640268,1.2048778694461362,10.578486791211617
1.728,-2.0310095574322986,-0.5319662814345065,-6.6292686687284,5.782328376839359,-9.76382246324647,-1.616433936613248,1.967071864663012,13.278053035544872
1.732,-1.7904449116267642,-0.5777412729521529,-7.044104542706918,8.569689844825916,-10.016066091226094,-0.3885761320707388,2.5314179266297288,14.172684952613054
1.736,-2.8767948127324416,-1.3100686168500033,-7.310719918643372,9.196570153439097,-10.474615023456863,-0.07415532487539167,2.527490213198689,12.936604180169525
1.74,-5.104653636799412,-2.5171003769064555,-7.524222102407293,7.7668191813718295,-10.949917367943272,-0.3454643300065072,1.9159382858742902,9.61373123240628
1.744,-7.831035933824751,-3.7250546628238226,-7.525116364598944,5.1713281315569475,-10.968651898610915,-0.6287946504235151,1.0509303658327553,4.71132192206278
1.748,-10.220623908697235,-4.370084915842199,-6.969455819313225,2.653074937553356,-10.050699678720775,-0.4065176492513274,0.44919189115898916,-0.8750863658733579
1.752,-11.570997236965923,-4.047654029764999,-5.5377679916600755,1.2138468068405928,-8.034847215514674,0.5231661898869788,0.44059085566550493,-6.1192591097587865
1.756,-11.570334720649043,-2.731789831779679,-3.201911130185181,1.138098697465466,-5.276585491888909,1.9466550244505925,0.8954569632969651,-10.223200403423107
1.76,-10.382391474591714,-0.8325087103594342,-0.3742938414179662,1.8885574990772511,-2.5537973746559146,3.364452551584691,1.2140090629818587,-12.897972322105488
1.764,-8.51813886835862,0.9850464992759953,2.1998517244228424,2.445479826941664,-0.6920514967678173,4.284919319792607,0.6346626098620618,-14.414351106644972
1.768,-6.595303231203616,2.115748325043569,3.736995533639856,1.8822161864436566,-0.12937397459427302,4.495161408096465,-1.3194725074536109,-15.37504694378913
1.772,-5.075774155642648,2.311665398612604,3.8146510719907383,-0.09763535427282477,-0.66242964160665,4.16571959059911,-4.48098564515567,-16.335685010957604
1.776,-4.1188348630012115,1.781013140930554,2.610385910711557,-2.9765350153757026,-1.5663108413791633,3.7068046975600737,-8.00537285010978,-17.475860913549695
1.78,-3.6019082129078015,1.0276854139265197,0.8245834140961961,-5.686588030415805,-2.025584957584215,3.4803070111975103,-10.71665593425314,-18.48037874558395
1.784,-3.268482079792193,0.5262142356814365,-0.6785137746664986,-7.165842235178388,-1.6420648321882254,3.546450056037429,-11.67209136517522,-18.719263087779836
1.788,-2.9256694930709273,0.4162476534347661,-1.3562636578753882,-6.91833955470247,-0.7173660987991752,3.605362065940426,-10.6459912432274,-17.612969635603804
1.792,-2.5353927023143115,0.44214625502809213,-1.2566555421071826,-5.233103366805153,-0.08913204778673389,3.213084222661564,-8.236310914620844,-14.992608871289121
1.796,-2.1912336391715144,0.13383184567101125,-0.9741936191967397,-3.0015856557020015,-0.6334848093374603,2.1115981108268898,-5.564586986858558,-11.268079303288687
1.8,-2.026349895078056,-0.9025345353184093,-1.3257759307489323,-1.2555790336646169,-2.723950896733186,0.46877194204353145,-3.736753485063673,-7.292699914354671
1.804,-2.1133647890437715,-2.757065104213325,-2.913838043628857,-0.6809770433201265,-5.9761078598594395,-1.1412575852446025,-3.3534446660814865,-4.012761421527102
1.808,-2.4508830175700496,-5.208600406928781,-5.844033205021333,-1.3839575655338194,-9.449926286068148,-2.0368795717276953,-4.339926913507952,-2.073442250628432
1.812,-2.9791424766817727,-7.866999477585523,-9.643811314197592,-2.9331410903059805,-12.143632219170286,-1.7991121799077519,-6.097066720325529,-1.575022714703664
1.816,-3.603292968083224,-10.35219208196213,-13.429374533681766,-4.6169384619861376,-13.48894373019084,-0.5045666524820263,-7.8560895122082,-2.087194063120478
1.82,-4.22162511008537,-12.404087634206007,-16.245043981462914,-5.7658671991439405,-13.559903347829277,1.319552850580294,-9.032922045040323,-2.889180067086272
1.824,-4.728303322087413,-13.859721568773239,-17.402021090629205,-5.979939350349014,-12.88787309858344,2.9880348883161787,-9.393118650712495,-3.313926701397577
1.828,-5.02616675365789,-14.574628693893828,-16.719170574478994,-5.216181614536254,-12.04159341887771,4.004410173023643,-9.016355383195332,-3.0210202999442117
1.832,-5.023477670391912,-14.363008702902334,-14.514807894975092,-3.710317176901299,-11.226293960272415,4.285278664698126,-8.107788738576346,-2.0954588366221287
1.836,-4.649207963415847,-13.053133273751882,-11.417103675404178,-1.8392638062105107,-10.175429857568815,4.116649061415956,-6.831409064305262,-0.9577822850114899
1.84,-3.907844305547769,-10.652581563546846,-8.109941582666579,-0.007463510089110059,-8.397929083685995,3.8923472657806997,-5.290943376192445,-0.1412461561121745
1.844,-2.90811538036769,-7.475990494804137,-5.09097307479351,1.4457818832270277,-5.583538259921625,3.833233740158903,-3.6049241866867305,-0.03852574308075418
1.848,-1.8534386075325529,-4.130065103759989,-2.564231252470563,2.30621144986344,-1.897490032528367,3.861142836220097,-1.9847793416965942,-0.711089593341967
1.852,-0.9402386274009586,-1.285392913277974,-0.42333529622010246,2.5712713365646778,2.058856920798462,3.7344828495588445,-0.6885202410794591,-1.838909161004267
1.856,-0.21719121865135094,0.6444096671048101,1.647468718696473,2.512554059235299,5.580737567197502,3.3227797612671566,0.1314184943894361,-2.828107768431437
1.86,0.4726179089075231,1.6955349579875474,3.9655880533691743,2.626191073341033,8.24802231234662,2.80591866818213,0.5628770858002099,-3.036643208033638
1.864,1.4150751082984243,2.2965304973040475,6.632544893584964,3.4574705503127916,10.105487348568204,2.6451902263124794,0.9369642353576637,-2.0488433086175064
1.868,2.8046646008974676,2.9504445184320502,9.361965526473796,5.320929255599367,11.492108028353869,3.2991698895802983,1.6204526848059686,0.11949659493257059
1.872,4.537581716916975,3.878265996162554,11.52761595398897,8.093065289734113,12.669898281810674,4.881845654523204,2.740687886338492,2.977575860761135
1.8760000000000001,6.1509743909518875,4.853282194821077,12.41791628660576,11.197873391977737,13.516417971227384,6.986222918554631,4.026146043044719,5.725965986578558
1.8800000000000001,6.9757595623027555,5.340502106061649,11.583836398833228,13.824074527726225,13.512540280014946,8.818933829064918,4.8876601078300155,7.595140962119331
1.8840000000000001,6.480230091205158,4.8858938974317425,9.133830484362988,15.29423801757548,12.071132291619506,9.607375449628307,4.754093040254702,8.208295190685021
1.8880000000000001,4.607342516761037,3.484192293826709,5.762458195216823,15.366118585357071,8.988482068708436,9.033932358266611,3.457446723173234,7.790409950342109
1.8920000000000001,1.9333175279180068,1.703494329496607,2.53288977612101,14.343540969599417,4.739659657988341,7.462237036821534,1.453108943920597,7.07702790048188
1.8960000000000001,-0.4973405746354729,0.44424911650003196,0.46004861015899223,12.91168777423536,0.3798164833087867,5.787464707076651,-0.30566008977984893,6.931109877653398
1.9000000000000001,-1.6374352996654125,0.427647192132099,0.07013807252224069,11.762159381703896,-2.9348896671472176,4.97387060202891,-0.8293500263507667,7.853573447116105
1.9040000000000001,-0.9714224080216809,1.726695228026074,1.1721881102539555,11.221695697763607,-4.528747007534548,5.526322654210162,0.3622549938327211,9.634651050760112
1.9080000000000001,1.1541705386071044,3.6217743333545513,2.9328249508671433,11.0749220579346,-4.553911190832878,7.183355160932479,2.908580317040105,11.373205140811478
1.9120000000000001,3.664055606153852,4.940911704118207,4.31155650679375,10.731232879041272,-3.849745951684781,9.041746201750357,5.744501586827937,11.893482177079022
1.9160000000000001,5.2896296888884535,4.697989969331502,4.596118703342654,9.61509893481707,-3.4138478557333656,10.017331468978227,7.63536994352944,10.356912781769097
1.92,5.217959462333965,2.662049589727758,3.7482597809248546,7.550551299759718,-3.7942429262202495,9.399113666440826,7.814397104945783,6.764042820385839
1.924,3.5281189517136227,-0.4520191557826365,2.414323770750343,4.938165895036946,-4.75906805003433,7.210631445520448,6.3907135715980985,2.0571075642246797
1.928,1.1354693980883894,-3.3222114272384715,1.5488551424177786,2.5864065563155236,-5.459728094326238,4.1665631503910845,4.2700718805726865,-2.2585969520396247
1.932,-0.6999350830051299,-4.680842142029178,1.9204772901930482,1.3240416734297469,-4.954939678700612,1.2930252076284887,2.671718863399292,-4.814554294603113
1.936,-1.026148661246225,-3.933032032502979,3.749809457646734,1.5991947406319014,-2.781776747749973,-0.5728409374523835,2.510869099869524,-5.032624823417791
1.94,0.3286790256911445,-1.414879927025595,6.637582220475451,3.2665582349318356,0.7565992336485579,-1.1398397377470246,3.957670685725134,-3.3873219538209014
1.944,2.733558062263455,1.842498309345956,9.803302691065255,5.678070986089551,4.7417780376054,-0.7072063116947902,6.404761551354568,-1.158941501242225
1.948,5.1394236891528635,4.666197485501925,12.437486046798767,7.985346256452431,8.096570602445354,0.07448244364331913,8.803793822028638,0.20492345304683113
1.952,6.663296703035485,6.321071077866691,14.02903170494028,9.519460131881715,10.084764419086241,0.5919987718443736,10.193006503649485,-0.22442798324573232
1.956,7.018693647634791,6.79111790998877,14.487768949270503,10.036946853257177,10.55869989434359,0.5680633600168221,10.12592623888304,-2.474480409604439
1.96,6.543894516702039,6.636243385667058,14.03111184552563,9.724604524542883,9.860724745513835,0.13057505037522787,8.7934543173551,-5.741659843230082
1.964,5.865790980111342,6.562515240595985,12.965022092826075,9.003036951145987,8.498205054462233,-0.34589086144023895,6.834690288110323,-8.854152202578007
1.968,5.4128604844495385,6.952798500096378,11.46485208609647,8.229528384380046,6.821016319958289,-0.5168551847018534,4.960552561737131,-10.849153961424236
1.972,5.13762994241506,7.658635827692706,9.549914452301891,7.5151637879766895,4.933927757968377,-0.26500861601289216,3.6435095167580585,-11.367782454279222
1.976,4.602293917615498,8.133291259535781,7.203583476377389,6.721708591152037,2.832116740838501,0.26455958326369,2.9829467596673567,-10.712542049420335
1.98,3.331899464712933,7.78072388779583,4.512239926254551,5.605265742984102,0.6147269265734394,0.7936554484058433,2.7519983395359304,-9.576475415352434
1.984,1.205444880961295,6.309955037179861,1.7424784025006375,4.020225530519383,-1.40351353638016,1.1040936321724075,2.5663885469512024,-8.642408269032785
1.988,-1.3868630260003556,3.8907198892175074,-0.7243214108329994,2.0488798944938935,-2.7872138056313815,1.1668629098776364,2.064439802823472,-8.250347684097505
1.992,-3.6964988725485455,1.0779410852392175,-2.498417612408957,0.018945630025427818,-3.1953956833804114,1.152346238743121,1.0568847127060508,-8.293463784060805
1.996,-4.993180872400899,-1.4324348905474835,-3.2849465099825466,-1.6167306167299103,-2.5732974520383323,1.3031757930702952,-0.40206768872576504,-8.370750063387277
2.0,-4.932881189509317,-3.068841079571939,-2.9407812003328218,-2.470928413163165,-1.1744519716312425,1.7658554576846655,-2.030158786598804,-8.058428326329704
2.004,-3.6843750454740984,-3.5338863341517026,-1.465302423520825,-2.3832655975475063,0.60132884936138,2.483033824110862,-3.3963333352403424,-7.164567081478708
2.008,-1.7989940495740484,-2.844237136328047,0.9803314886939916,-1.5123759388775397,2.413661444729314,3.192287739697349,-4.082317330769911,-5.845819499087156
2.012,0.11111386067136664,-1.2525722876275722,4.080234472237862,-0.26919247795740375,4.119291740371864,3.5678287227947294,-3.8439315016921682,-4.547565902371389
2.016,1.677946311729329,0.8756808358471062,7.389973120108152,0.8644555110931833,5.743256226290214,3.4130271916319543,-2.7098399572842027,-3.8084232568990046
2.02,2.882707692867598,3.165588906219,10.39921187361142,1.5478210855858379,7.330749377330903,2.798983196246809,-0.9712310489849187,-4.002083687702907
2.024,3.951561313669572,5.319340747338629,12.67740187355821,1.742028492591544,8.815658542492201,2.066849776764684,0.9644340472036674,-5.13370427521204
2.028,5.114431719842287,7.162278104100096,14.009275805943162,1.7145879628346847,9.997109945004013,1.655939330388719,2.7660763152875916,-6.770922614338815
2.032,6.436461259095495,8.678307274793951,14.507524070026648,1.9153525630781587,10.669726108777468,1.8688113640264419,4.336688098092509,-8.163268482378044
2.036,7.8111653437961195,10.004333059768214,14.58555319215202,2.761247415851358,10.792991653485387,2.6796645586964587,5.825420633326303,-8.525964310196287
2.04,9.073569223937739,11.341152646499722,14.74286787770643,4.421131580779274,10.554143950314028,3.698734194960707,7.456949724571587,-7.376032917557495
2.044,10.150051275826854,12.820233355567325,15.285615614568542,6.718146674135369,10.267583488134278,4.337663196240101,9.288125044463868,-4.787615704032305
2.048,11.095768598977202,14.36576867232452,16.086806171877015,9.168333535480997,10.15075733132744,4.089116584927979,11.032232916212251,-1.419678505246793
2.052,12.018588939107303,15.658974791413584,16.605052954463645,11.17744650505847,10.157597592683032,2.8095686329361342,12.119003721868921,1.7202450043428144
2.056,12.964747510910684,16.257322568400014,16.17480978390904,12.298408885410936,10.000237048697727,0.8418956393761619,11.990111735912706,3.6890326134089264
2.06,13.830772147361813,15.804783949850389,14.404118677901351,12.402452755453396,9.353587675466315,-1.118265483218238,10.461317900197173,4.021215684873823
2.064,14.382450430454583,14.229499495158962,11.476036300348369,11.68539305461718,8.11128359137274,-2.356968438946751,7.941592225891327,2.9249026689403763
2.068,14.353250632872687,11.796927357628874,8.119902978905884,10.496376125342067,6.499738186709692,-2.5197077990860635,5.326084975422418,1.1725984935624183
2.072,13.591928912142066,9.010359119617533,5.305319819780834,9.13702635568734,4.983303609652012,-1.7984265960908488,3.6136754505655517,-0.26592985835759464
2.076,12.153508142727105,6.394097584769952,3.787951115436499,7.722129367753496,3.992923254812922,-0.8394443891070296,3.431433938064856,-0.6741650314929757
2.08,10.27527235863613,4.275650570178868,3.7491240828585433,6.1787041748989395,3.658113711479473,-0.39807359936958164,4.727671164563162,0.12174337148553604
2.084,8.293076283586743,2.7161942162538253,4.770318432867043,4.402290524460568,3.744028539939791,-0.9104398096469595,6.831566594368269,1.762018060786886
2.088,6.533950640887269,1.5960336482035018,6.107178680666038,2.4373065408967705,3.842523041559616,-2.235317900069276,8.831407230793957,3.6399344860287783
2.092,5.266377235805976,0.8129300805564981,7.157130437920841,0.5943895592859008,3.7230455329922734,-3.6952107597708164,10.086874687537602,5.273668530468058
2.096,4.7032596441811165,0.44812922430264734,7.827518395851257,-0.5907710635508465,3.595003950303635,-4.422759440117716,10.576305532556034,6.545013519903023
2.1,4.997053663960514,0.7680506871552097,8.566953577035292,-0.5628554453678589,4.082362854760049,-3.827693492123217,10.869022667772697,7.692187510212079
2.104,6.194691721612571,2.0544258846452976,10.055575250010406,0.9884601006824596,5.879493857565649,-1.9404304015815796,11.742085872290318,9.062402171336544
2.108,8.131538911914276,4.340221941616619,12.686847719796788,3.9084685200355125,9.251450180182474,0.5467171078721549,13.649677166501078,10.811807965174012
2.112,10.370843090303879,7.247135935099095,16.20366918384616,7.563075058619688,13.704158589553117,2.6010019637669757,16.382693671252582,12.741097293561324
2.116,12.257803031181083,10.04088636846268,19.696052134003367,11.03395984715371,18.037900428884996,3.3510863413539482,19.1069302340411,14.356492297990371
2.12,13.106955076121949,11.891639996008507,21.9657001106998,13.436267967997765,20.802767410556044,2.518722875272033,20.759611935849534,15.135668863766114
2.124,12.493011709678058,12.232615877045419,22.09652944593381,14.244674777732598,20.950740161386875,0.5609566469865968,20.597462033130796,14.819631407003271
2.128,10.478832844437648,11.012527252436712,19.88226483316157,13.464550376244233,18.33185444393689,-1.5618571223203617,18.57833028614914,13.574299695975697
2.132,7.677683734373204,8.742688121666333,15.950278928729858,11.622537245842523,13.802566661897345,-2.829688359784086,15.404838207471585,11.93487736148245
2.136,5.086034726462685,6.312216334411005,11.501435168477201,9.581834394441557,8.875226770976042,-2.6064865165267292,12.210344131511192,10.56902268440308
2.14,3.697776963059937,4.628864120930757,7.778727203654853,8.22345485366941,5.074493677069768,-0.8769485844109113,10.047449661714609,10.004113029216114
2.144,4.084161461472377,4.266599192653757,5.566003037640485,8.132541627177943,3.3260090333433254,1.82545822006432,9.45364424978834,10.444183211844575
2.148,6.085353102584804,5.225960946379246,4.882040446054361,9.352792279823461,3.624849822148917,4.684509869163321,10.2606090895124,11.73533942892027
2.152,8.814868028297496,6.9318851706800615,5.0658967205392855,11.344255241501514,5.149305866083068,6.948454691644656,11.743668396688918,13.464928016211616
2.156,11.004611597270014,8.466275237927675,5.170729761989833,13.170768023414439,6.721406481063241,8.174364625713679,13.000235383865629,15.11399114771939
2.16,11.53800205874984,8.92488377550012,4.436777376365171,13.847681839882853,7.370405459591666,8.291276363490397,13.343177680630106,16.202777820861456
2.164,9.949942917464227,7.778778125195686,2.6435042568912195,12.738742889730247,6.738670018434277,7.517840202367097,12.5478275680548,16.383430171810232
2.168,6.6392539364694585,5.08740920929813,0.13966500895958234,9.818785774855087,5.1458974859758655,6.198293034456128,10.839978408177558,15.494115745513227
2.172,2.735429088371461,1.5246208501888532,-2.354409921635124,5.739193656771704,3.3653975199688375,4.6964071895595225,8.720124069478516,13.603618584668993
2.176,-0.33409449934379154,-1.8004937394796343,-4.063972759007584,1.6452436942781787,2.2446623395198912,3.365702085841349,6.744978294970224,11.03493927550494
2.18,-1.41882413933331,-3.698167760305523,-4.46297753613203,-1.2139637923426108,2.3500133592463044,2.548866096380607,5.352979459612925,8.33793479995984
2.184,-0.09117358117987351,-3.2994128315924627,-3.4146877675684664,-1.9127011045100062,3.7871285155465557,2.546173573072565,4.794730011210731,6.155004719689259
2.188,3.192011065216775,-0.385695328664724,-1.1764795628319007,-0.17124355399164415,6.225049935134393,3.511312424975813,5.129518893770182,5.010830025287532
2.192,7.311213857471785,4.513848681463287,1.7581689501078017,3.587817110738797,9.09863485578694,5.346379730990066,6.267450831300721,5.105453610241966
2.196,10.975377293934685,10.300406884856102,4.857729977192321,8.450031772516809,11.853383700808763,7.655751972498365,8.009188259028633,6.203685277571822
2.2,13.23225254281931,15.675703043636076,7.678859343924842,13.356555183661044,14.107489397485551,9.835168604861792,10.057550156094294,7.714041832499788
2.204,13.794289152374176,19.578471906149048,9.927725232030753,17.448753388352884,15.680518075982945,11.29462398254691,12.036748381384314,8.92963692392641
2.208,13.018785624122302,21.479496800511356,11.415028236549233,20.24028505771423,16.49506017012436,11.701674719839502,13.52423096959319,9.336666262209974
2.212,11.608408345141015,21.447557518762096,12.022900111320723,21.607436013091956,16.459818078245462,11.138249870368782,14.139484306614577,8.84211803602443
2.216,10.205564543954779,19.982680492233612,11.710723614270478,21.646629812851188,15.414081446213004,10.058205886004544,13.664322563805626,7.791269903073044
2.22,9.071501052707163,17.707488168479586,10.533107593686168,20.497349572523262,13.185713124689528,9.047726606984725,12.135743437693918,6.775097212859237
2.224,8.032407424155622,15.113491632386513,8.683839996078405,18.26324963990919,9.755765862346834,8.514288243161218,9.884628825135223,6.318811592098882
2.228,6.656649658602532,12.444067562143118,6.466778735550861,15.029041591491932,5.411374130028207,8.452691164014595,7.453148732340196,6.623674005054454
2.232,4.570102099214637,9.763331509523596,4.233580423840294,10.965172326628362,0.8012220089271977,8.449392281402652,5.445800624573508,7.487106576590122
2.236,1.7355127820663938,7.14102281707676,2.303993252059172,6.42705496759902,-3.1738169647485392,7.925652633039363,4.365464937119555,8.4349469293619
2.24,-1.4778037060132192,4.788755018157531,0.8831011629367822,1.9489280475235091,-5.631096756036413,6.494136232497567,4.4630076930890255,8.996638439351159
2.244,-4.439203644189149,3.0589403453277555,0.04665865602407848,-1.861867839842148,-6.023676680305243,4.235823239630463,5.667296057361227,8.95531341565129
2.248,-6.558784338185205,2.2752261143697865,-0.26092401083383265,-4.518218992330048,-4.386086878903825,1.7135815605188327,7.581251351417336,8.438835835572036
2.2520000000000002,-7.55407357601689,2.514985485555144,-0.17314810608127118,-5.812187974549033,-1.3599713262644855,-0.27576872769236616,9.567467938341906,7.806302054204707
2.2560000000000002,-7.536115820467785,3.4985435005318095,0.17384717615414047,-5.860436860885102,2.032318597944368,-1.0963676182034305,10.9182931978836,7.400095501701685
2.2600000000000002,-6.885417940183288,4.670672322265432,0.6881849792108596,-5.013077568003155,4.783103512962953,-0.5916297002580677,11.067118289931273,7.334325573076512
2.2640000000000002,-5.980771832649111,5.467426116706008,1.3623927354284433,-3.6557132003264314,6.298191549166859,0.8595018076700853,9.794098863617478,7.430943740817611
2.2680000000000002,-4.978032751223395,5.607691263521474,2.245300272732038,-2.0388839738952242,6.600032828347594,2.5597017231771133,7.331040792541444,7.349760643944592
2.2720000000000002,-3.7478045661026727,5.25287777349854,3.4090466951878398,-0.1972551261181934,6.256433433086158,3.8862936170307876,4.321766299452747,6.826292483585121
2.2760000000000002,-2.0186635631077934,4.916562360764033,4.895659993271693,1.9881372025679411,6.050050661460773,4.615894753434532,1.6174364768678515,5.858221865991254
2.2800000000000002,0.3354048013952706,5.138685078572621,6.624391501425123,4.605566206647609,6.543487507525526,4.991484624807072,-0.046668084264069876,4.734921076525097
2.2840000000000003,3.0634375074285174,6.111645705656258,8.333757884096599,7.535169503462157,7.76390598125306,5.506953084847282,-0.3567679092362823,3.872061745513406
2.2880000000000003,5.478883315219349,7.443194711578599,9.540105140943922,10.348328123607644,9.139108869027382,6.510734148959045,0.40627024268729883,3.553007780726489
2.2920000000000003,6.682515544177193,8.258107613260904,9.636624200137476,12.40470296290107,9.76636835696155,7.912893192935485,1.4690099267386927,3.7502000063215064
2.2960000000000003,5.985811933351869,7.628596797509886,8.124699058262536,13.10814211065184,8.880989573977217,9.172630519416543,1.917990799986626,4.141641175805205
2.3000000000000003,3.3036471934681515,5.103541974880045,4.874577884339203,12.184782584048037,6.284300756617483,9.58377489800165,1.1370608040924708,4.33803315494572
2.3040000000000003,-0.6749235943167093,1.0721790530227224,0.33058192795010655,9.86288753287505,2.527878074205603,8.703821823086969,-0.8524634199083607,4.181523074419488
2.308,-4.699821998183268,-3.2960612302516665,-4.535864803390041,6.804088153056,-1.2785515275382409,6.651093667990494,-3.360231455128769,3.9300672093617663
2.312,-7.4710779247945425,-6.53905686914419,-8.51556779590635,3.827073065286868,-3.9397216188639277,4.1065995340616155,-5.320503105958721,4.190915889163591
2.316,-8.219644216262367,-7.607629893507067,-10.62062852140275,1.539431496444081,-4.715978775377096,1.9777079065198677,-5.79496280037398,5.593250748456967
2.32,-7.092119829652006,-6.447796233108363,-10.536913598454248,0.05626704871684751,-3.673885678943293,0.9129199376923225,-4.461916090356283,8.372909003114387
2.324,-5.086356819022257,-4.094250325158271,-8.775632547571263,-1.0019824555466244,-1.6347384584075257,0.9701407230653558,-1.8068488308301198,12.106982901130095
2.328,-3.5711379838559765,-2.209158017343327,-6.466307262993553,-2.2544646187388366,0.24093649247316762,1.6084910670341515,1.0666457160045866,15.784165300654081
2.332,-3.577731005110479,-2.2433672939855,-4.812096951414844,-4.143370421915279,1.051825446305088,2.0459202230691744,2.9508197479747196,18.218993019473942
2.336,-5.2149996404269245,-4.637416462355304,-4.479904025098904,-6.582981537306523,0.6286376822753823,1.752599468424819,3.1194078884757346,18.600933693803086
2.34,-7.541049753946595,-8.497592662208888,-5.265126726347944,-8.886769302267737,-0.3653734257889596,0.7833883928475416,1.6800712728579583,16.90692273448451
2.344,-8.968844997426231,-11.946041552086797,-6.19950348657369,-10.030578204176322,-0.7758835229944907,-0.2559996852129416,-0.4881070340408087,13.919581613100945
2.348,-8.060728845215124,-13.025359475490518,-6.115807079442789,-9.161927867228599,0.4165502408161501,-0.6144069151935128,-2.2080923208127388,10.835577068652583
2.352,-4.294534807368507,-10.678413995944311,-4.322507338884066,-6.0623243781839165,3.534417115698375,0.0990601926225736,-2.6156389801004707,8.672107191891428
2.356,1.6076437127841245,-5.300497433100929,-1.0105344814464843,-1.324439254717504,7.991702929077633,1.6118373737034517,-1.5889086796782976,7.781835986197052
2.36,7.937498459727578,1.4022859052671492,2.812062317940672,3.8393697639583024,12.537186647525573,3.0769072058760685,0.21535031880989663,7.753240372913524
2.364,12.764241029733455,7.21530094924907,5.882487711473573,8.104282676835965,15.854135572259565,3.547747862490951,1.7772007727323853,7.749543548915085
2.368,14.797836087318217,10.441681929148729,7.389432338595498,10.577740539009994,17.18370676959944,2.5512394251738897,2.3332863962228885,7.096068819764582
2.372,13.929648112492941,10.63182749753446,7.441152379318851,11.130743414825702,16.656869708565523,0.43488971000817855,1.8706461338281315,5.760056374003739
2.376,11.175065930452263,8.646160434273781,6.992650623302666,10.335457712165066,15.145524503265733,-1.7615714373770288,1.1946294320832749,4.409770476709923
2.38,8.036991664738423,6.020338572177309,7.2131238169987455,9.034115815543714,13.696811073819163,-2.8671470910046537,1.4648655248339537,4.000204202640475
2.384,5.666974368096248,4.02789923864475,8.68373407356762,7.798678222808576,12.875281368155015,-2.26410790908335,3.444036748616554,5.096008800333379
2.388,4.245821154723046,2.928440229892601,10.82461754119629,6.5307934547921604,12.342323202248053,-0.3454789902025368,6.822346162045733,7.320519806074458
2.392,2.9358042797639428,1.8344158538616284,11.968136369830631,4.455885716411672,10.935906443027193,1.5600292071708282,10.043522921898216,9.291985895777884
2.396,0.4327297476562535,-0.7270972162899625,10.108512838655543,0.5421352846116179,7.245478857993135,1.7858749844887143,10.8244441623915,9.149681335440619
2.4,-4.20389879420452,-5.886472148188204,3.955527035480827,-5.861268341109735,0.40578359676953824,-0.8395707502608047,7.186220128382502,5.463202468635814
2.404,-10.853700923297197,-13.608771975599325,-6.182191097265786,-14.437211329313072,-9.253120862279502,-6.319213925758731,-1.4408418083341985,-1.9205523358108394
2.408,-18.186774971751106,-22.44624641082936,-18.221327317113605,-23.710356939912344,-20.05504293144827,-13.339065775237259,-13.62756394959456,-11.542337749322883
2.412,-24.128758385274807,-29.993245809476946,-28.928946968992136,-31.368874910093155,-29.406990205818715,-19.706814945364613,-26.21100656641738,-20.721712766149267
2.416,-26.701025788247705,-33.82275891543259,-35.09568791391041,-35.008736887042915,-34.65277459209187,-23.19009309231751,-35.37977445703075,-26.543712175787846
2.42,-24.841485534933724,-32.47185338942438,-34.763898412975664,-33.02933993552983,-34.013225612788915,-22.38547568148533,-38.16092955262798,-26.99578475277235
2.424,-18.80731834797092,-26.011100629565135,-27.934877543285893,-25.30201455663041,-27.23201831665949,-17.2430390434929,-33.632826514295516,-21.77460888823134
2.428,-10.037678895006934,-15.99957036304113,-16.521163510515066,-13.351092030248878,-15.700440459016704,-9.074436656339003,-23.32641758133343,-12.405917341935492
2.432,-0.56310652107544,-4.8593409882112155,-3.55266732187215,0.0981393680143583,-1.9967250882208418,-0.03647878932747517,-10.581924397936632,-1.621036529561593
2.436,7.7301489795978,5.016130952067897,7.966601014689331,12.028271392665147,10.952509497775281,7.653159003906239,0.8505076072993916,7.701411637951196
2.44,13.6276773133431,12.008501570238082,16.025149876129376,20.12008727695911,20.75935029107245,12.445549834636722,8.306455930200059,13.57293832173309
2.444,16.772614695085792,15.638827525974193,20.080194842102173,23.464582678529155,26.214084498324837,13.90057133699861,11.148910850442007,15.481235582820318
2.448,17.495890354663118,16.445608314878655,20.87070574861309,22.676630702658485,27.449996640296945,12.673124422461115,10.72186438763731,14.333496606108838
2.452,16.474430784814558,15.525702847726848,19.79181302688346,19.421464457148204,25.646517567426258,10.125119137521779,9.41383538337152,11.853640858999825
2.456,14.416695486715241,13.988464485583563,18.163583295206877,15.585881556229538,22.423514668028815,7.722994763188581,9.341894043418392,9.73477335715802
2.46,11.877582497225944,12.540027148077684,16.70218639436075,12.467936123497452,19.188400920667732,6.461322645398241,11.314805620037077,8.96096016860497
2.464,9.24217526702688,11.356912037702955,15.420262907960364,10.376734365165817,16.706122171917286,6.551070581015438,14.586614046673276,9.55476134966807
2.468,6.761212149814753,10.20755553002482,13.856453475847616,8.748943132465229,15.000161815783372,7.437950369777127,17.428572953446746,10.801440820638618
2.472,4.584190214884302,8.729230202178996,11.496488480182393,6.693915015775588,13.590934242884373,8.155971379145967,18.172743460284664,11.79021254906479
2.476,2.77010148821455,6.706933786832451,8.142651060659205,3.644829288604683,11.898346540613147,7.839223308975306,16.140858894905932,11.95903152409619
2.48,1.2651254083382355,4.202625263211303,4.032334600091758,-0.26225915050849835,9.58653895166583,6.146889513314136,11.96047435788546,11.386764390180588
2.484,-0.06923817651386344,1.5196717033395544,-0.26345967388397185,-4.235746865318674,6.714413703726791,3.43023569126035,7.1755363018360185,10.698562773103276
2.488,-1.3821138382170375,-0.9747298265442623,-4.110979498414281,-7.2704594960948725,3.6455534518098602,0.5482406167175213,3.3974959719103026,10.671360859692413
2.492,-2.7363605324968603,-3.045320652506007,-7.060270415931427,-8.694091014205583,0.8267267342284867,-1.5575467869323347,1.5136411429095915,11.764277096984642
2.496,-4.046176944014405,-4.690541895331876,-8.947661313294702,-8.505023792748261,-1.4263687863897303,-2.3207998934044554,1.371929700564806,13.808856870532736
2.5,-5.106097028454769,-6.111074765650869,-9.851130930179806,-7.330296474856027,-3.0114379596046774,-1.8058715914489767,2.046049762921484,16.03819663098602
2.504,-5.658504698354363,-7.529209107602469,-9.90466921745724,-6.0133244783296504,-3.946776211156248,-0.6166675518952616,2.511965388030603,17.433627242091006
2.508,-5.503401517068937,-8.991768749115295,-9.157300881210631,-5.122850382235129,-4.222865570508475,0.4525925254331469,2.277648070120449,17.214976437975338
2.512,-4.578535689190176,-10.266055133990562,-7.539690196790161,-4.653377911339476,-3.7136455255640612,0.8481306874355141,1.6166545954238245,15.223200619381942
2.516,-2.95799550569825,-10.886344055347308,-4.946862864871946,-4.076472306848814,-2.2229949825261883,0.5268273599749591,1.3150758160243186,11.996022656509922
2.52,-0.8229640907994735,-10.374108016291757,-1.419802232944221,-2.7352270544214434,0.33752010297257584,-0.09167066917711963,2.09746369078357,8.506624387674947
2.524,1.593701039005623,-8.502061482403747,2.7408861189001072,-0.31410453832006624,3.775577626731547,-0.43152344674535925,4.123612333020901,5.693484133070569
2.528,4.020798936354481,-5.492516856875,6.9558638522107685,2.8574753694812216,7.554262546084146,-0.1619447965586005,6.8293402552938005,4.0251701600550405
2.532,6.149214481628292,-2.017321476852544,10.510162115230969,5.875850255218211,10.93025791749983,0.5766042533291511,9.208892379452891,3.3299542192733043
2.536,7.666461380683131,1.0330417863315233,12.80128864829885,7.6803799826524255,13.238724821372443,1.2533092994160597,10.364647096121644,2.952649917380768
2.54,8.317249029654477,2.886081108166877,13.535605136035429,7.571779615003834,14.161121358398077,1.2744567239910793,9.971643839508488,2.152398191158454
2.544,8.02098211643795,3.2086491348331947,12.836059379692642,5.598054063284735,13.8604664583454,0.3861081504139747,8.432085102909014,0.5258035868982915
2.548,6.958028555596911,2.24289147440777,11.15850076511083,2.5767334694437523,12.880135221887258,-1.1164634044596369,6.634020116651982,-1.7587929582336983
2.552,5.5569380066934855,0.6898606881138676,9.081729411016568,-0.25084250343979875,11.857915935752771,-2.497861012568819,5.469529356821795,-4.038770829271243
2.556,4.347695410866777,-0.6109632327484178,7.075206523946008,-1.7710108606074755,11.197627022106644,-2.9683103373113227,5.388452000477173,-5.506565452071754
2.56,3.689449901070475,-1.0856914198488994,5.309325436341624,-1.521080902509084,10.846259901736175,-2.144500568799913,6.186762535631942,-5.630590784192464
2.564,3.5415825798565947,-0.697207474104971,3.639502805073107,0.09070176254977014,10.310005133746472,-0.29870135525993646,7.141082029249901,-4.433004697114029
2.568,3.3966726234259568,0.019185363881888406,1.706722564201982,1.938072599974248,8.879400631545877,1.7275859399946967,7.36470006649165,-2.479462541464727
2.572,2.4626218539881393,0.19345575333784382,-0.8625554012296561,2.649115522189504,5.973836174063081,2.9277072473064436,6.1962186749524335,-0.5982562759231769
2.576,0.06787376070360551,-0.9459702002067161,-4.2264112065824975,1.2113181308022831,1.4655627988013293,2.644914236072964,3.4677345973400406,0.5133867362537785
2.58,-3.9191066852827134,-3.65843705877478,-8.197710930541234,-2.5653462411348755,-4.16441176698936,0.916628032155586,-0.4549475303304007,0.602735066218429
2.584,-8.832801432909037,-7.455211146212832,-12.204790892955316,-7.8896078323186885,-9.87573147921762,-1.5076004210686733,-4.794149467997386,-0.06336921005936347
2.588,-13.330704958520982,-11.208413099104291,-15.427014147644513,-13.253811806042904,-14.349895569314413,-3.517042426449734,-8.600849161168298,-0.8821092862340265
2.592,-15.886707161259324,-13.586595182477595,-17.049990593366147,-17.015970569917044,-16.413406733677675,-4.167228931344198,-11.028645417049574,-1.2549204570777874
2.596,-15.436722106832008,-13.624102509180375,-16.542426782531493,-18.06174561215994,-15.459201333986812,-3.121296394414003,-11.559557156680285,-0.9087659947035718
2.6,-11.911118243575174,-11.195250010505333,-13.893333475687314,-16.29044852707193,-11.733406579733582,-0.8059750522206741,-10.174446863611593,-0.034657788357662866
2.604,-6.350420306898627,-7.132649322873931,-9.660725111884858,-12.674440458567915,-6.338297521849199,1.7931227577805657,-7.397530178771831,0.7981821687749289
2.608,-0.5513233587373634,-2.9206386418304646,-4.8457674413621135,-8.874644233518666,-0.9326560126216918,3.578398144822586,-4.192679179041988,0.9116957029198147
2.612,3.632487862299513,-0.0715129797767986,-0.5932885538225037,-6.543083587530873,2.80976949208889,3.824630291579979,-1.6906321993312758,-0.16143599712495416
2.616,5.035976355400862,0.5365827501696003,2.1820272641418796,-6.615005599981032,3.794507016758189,2.4627338808736567,-0.8062662763154549,-2.472843547307548
2.62,3.615652917858597,-0.9715433472154018,3.071934682793426,-8.929281847387301,1.9065018767778383,0.05864997664139082,-1.9001541632499084,-5.629265282575943
2.624,0.41922827784230776,-3.5509421670240044,2.294207478592625,-12.318225903368102,-1.9503112139645964,-2.4517575646400473,-4.6064189990170235,-8.940660942766954
2.628,-2.9182993431054456,-5.7729614039051285,0.5416923911750473,-15.163731626182653,-6.245440818678389,-4.170439252630786,-7.968540530346218,-11.67499032707883
2.632,-4.895435509378331,-6.541629125510553,-1.3423780251662265,-16.14224194373128,-9.476159942031927,-4.581034420583364,-10.843924403816118,-13.309206448793248
2.636,-4.735664418970714,-5.6168736241234,-2.706716594151885,-14.79920975022037,-10.795145494295184,-3.6987710857642924,-12.393758710709108,-13.686448173069493
2.64,-2.6280455127032383,-3.703814371195449,-3.3395183027423627,-11.709326982598668,-10.330744352463398,-2.0071502937207697,-12.44530814614518,-13.020131712049988
2.644,0.47747252265548923,-2.048465230843931,-3.47491536870848,-8.144128180929783,-9.032080962603231,-0.2111264501727419,-11.519687616043484,-11.771793894370148
2.648,3.355052057999842,-1.776159370562027,-3.6179777562006166,-5.46003835669012,-8.141380400843218,1.0547515266125629,-10.526239562646879,-10.450516446603615
2.652,5.023819055682793,-3.3171867591779574,-4.263276708768217,-4.5018357545884555,-8.54687928615499,1.4645906042705974,-10.27473756302743,-9.40672494036562
2.656,5.07837028523727,-6.212324159394484,-5.645699790940853,-5.309198840916906,-10.349012630247671,1.0891978907970952,-11.060515654508436,-8.721631482540943
2.66,3.710053955353942,-9.395390144186194,-7.658571224607385,-7.242475750756739,-12.857155305800006,0.3182098882821265,-12.556782410690175,-8.216918454107144
2.664,1.510779748718278,-11.737271768347455,-9.893675867755974,-9.370909288678831,-14.960431104080271,-0.317400001310034,-14.017594098104837,-7.58144247349037
2.668,-0.8261561229141989,-12.57336688641908,-11.818201872769123,-10.928652639024222,-15.6893763716364,-0.3837313664885187,-14.699487631234206,-6.565824408472508
2.672,-2.755563558288486,-11.93493701225043,-12.965400592882816,-11.586889180718572,-14.655108359434507,0.270808665963159,-14.249343856010455,-5.1472369612001785
2.676,-3.9722463281318596,-10.378198488457656,-13.047097927833875,-11.431555084332786,-12.149178275105442,1.4552362708777764,-12.837099576727269,-3.5899149452061465
2.68,-4.396615937607976,-8.58220168702951,-12.014146634353438,-10.754184232910575,-8.91666345015301,2.7177473354122412,-11.002671662604826,-2.3517111463261244
2.684,-4.0909343540322425,-6.9455158032030795,-10.01561821865289,-9.78568167196704,-5.744297803010113,3.563524091545787,-9.300581753177084,-1.871098158937457
2.688,-3.1917576417981763,-5.429212313307744,-7.348670968080569,-8.562263546377153,-3.128095931821008,3.701008545075638,-7.986735126501571,-2.329290560229765
2.692,-1.8838816183831568,-3.7001753988013206,-4.4063855327181045,-6.969346309770572,-1.1766506622975612,3.217490764687227,-6.925284263258618,-3.5102666871262045
2.696,-0.3835903544197663,-1.4429810573549275,-1.615366799439471,-4.901931148097219,0.24891343999865967,2.582212186018296,-5.753973972945005,-4.860044877212658
2.7,1.0694196343345084,1.3472143459907784,0.6048122328138561,-2.440048084635009,1.2819148831649727,2.4377262398161292,-4.210512999596631,-5.728140042954692
2.704,2.267283801882286,4.306702806074782,1.9411148794597466,0.11853707338946151,1.8996192526751656,3.2899176990677006,-2.370747752461739,-5.680771070989522
2.708,3.0804230202879808,6.868227986448119,2.2637007409612124,2.354736282099566,1.9486298941046698,5.209606795415311,-0.6759185284272462,-4.724568682032441
2.712,3.4718356682321883,8.539416724539251,1.665578514549452,3.9087757855636482,1.3246411299264764,7.7256006558964145,0.2869888160994378,-3.30739552434261
2.716,3.487440050267878,9.13666149529331,0.45901571277090625,4.653277084518322,0.16878818780696747,9.992418860572343,0.14513527761528167,-2.089094963635489
2.72,3.2038868918400567,8.825319060777247,-0.9234787874006543,4.742901169797506,-1.0910986840108308,11.1669388453397,-0.9983190258617469,-1.5797407461709554
2.724,2.702657018110358,7.99718824997899,-2.0470968680556325,4.544540631423615,-1.8896202003779763,10.833268376692104,-2.531387914486004,-1.8487067258138268
2.728,2.0593139825159597,7.051453428773584,-2.620681186469028,4.451453244450249,-1.8164470690658163,9.228623403128495,-3.5889224705820197,-2.4719217213823867
2.732,1.3542018549835575,6.2158197773137545,-2.5939078190076543,4.679701011555835,-0.8665822281363944,7.1515378367039375,-3.4618698292283625,-2.747875878048035
2.736,0.6909156217726604,5.512195615277278,-2.1516805328039936,5.152930958118532,0.5166865971330026,5.57871685609598,-1.932135022788998,-2.0747396983938415
2.74,0.16509942538959876,4.82884418034223,-1.6423330018033084,5.507377811952438,1.6327334813713605,5.17128776814161,0.6133761201842844,-0.2750736261577913
2.744,-0.1713261785416762,4.064508676693322,-1.4064186669361334,5.262405128597948,1.885845223434444,5.952035785975568,3.3769051945987485,2.3029521272510465
2.748,-0.3522138421724321,3.2249292013418653,-1.6228004461756882,4.063034436010867,1.1013082279694117,7.307316249371979,5.52287744360865,4.964226596641311
2.7520000000000002,-0.50662484728241,2.422809089705879,-2.220413858972961,1.8933870116482012,-0.3722421758186556,8.334557771122945,6.533289928708655,7.018044096208996
2.7560000000000002,-0.8094939522499089,1.802863421402435,-2.8889955383469896,-0.8496726430532817,-1.8426107953155224,8.332045935378119,6.382265884756407,8.076985520478047
2.7600000000000002,-1.4177586971239862,1.422792877924394,-3.2338102634512325,-3.4950021181959983,-2.657514161504423,7.152221252166328,5.44003678193053,8.152497663886152
2.7640000000000002,-2.3877107405915012,1.1925517749366463,-2.9590262042927407,-5.364344256850018,-2.561746428916649,5.2529186041397224,4.21417226754329,7.505624166736197
2.7680000000000002,-3.64939402531445,0.8792441515442988,-2.0451304596301725,-6.089355069215344,-1.8634913107180182,3.3941469392125327,3.0548312477053514,6.364928175962632
2.7720000000000002,-5.035672121108178,0.19360879269947873,-0.7978205260715185,-5.794839982968369,-1.2981510915280978,2.1894804693120022,2.0064666077792026,4.727691732739004
2.7760000000000002,-6.316949572654835,-1.0562379774482906,0.28958721181652436,-5.0258326448952175,-1.6487268806336033,1.7754484208662689,0.8880074389567199,2.375559173484362
2.7800000000000002,-7.252737520174946,-2.8420659627786335,0.7581447411100726,-4.465117326279142,-3.337431721572557,1.7748460934662944,-0.4981542049267773,-0.8959886341031051
2.7840000000000003,-7.606619236790834,-4.842613940036472,0.4445961952546895,-4.5433866632834,-6.169272781190557,1.593367881127051,-2.1260106299432664,-4.989056635612087
2.7880000000000003,-7.18366580359384,-6.501625342583338,-0.415028423837839,-5.205393523314569,-9.391759609080509,0.8244555462924836,-3.664628544468769,-9.371532113175817
2.7920000000000003,-5.9130309829968155,-7.226827443233105,-1.3003393662029339,-5.965781291376061,-12.030902747083246,-0.4838014913398183,-4.611635643834234,-13.211471578812962
2.7960000000000003,-3.9306886593250283,-6.633515714478335,-1.663952829379923,-6.220860675066206,-13.307225266883961,-1.849584225585204,-4.5350065697316495,-15.72235777521064
2.8000000000000003,-1.650190827465849,-4.7659777956312155,-1.2448231097791904,-5.68009253614332,-12.946187458040868,-2.676304592469023,-3.3211400312834485,-16.52657179588732
2.8040000000000003,0.2913087373178769,-2.15130261692525,-0.20875348018535078,-4.617751500878057,-11.219135096602486,-2.64781079466502,-1.259364234448185,-15.82719144276416
2.8080000000000003,1.2113654673113388,0.3592028908599332,0.9280887210404671,-3.798704357157476,-8.738039861854759,-1.9701180132688023,1.0692632876803145,-14.274984513857362
2.8120000000000003,0.6498440794759972,1.9235266699279236,1.5725942419571766,-4.075617997181098,-6.131162111948015,-1.2903572383752362,3.045463793586123,-12.59444010120933
2.816,-1.3738629756873024,2.090323948968262,1.3865488330288827,-5.860966553598928,-3.7859380296285963,-1.3308059257892637,4.273988452201138,-11.19882679977627
2.82,-4.302630202475484,1.0096634304823056,0.4376467189699724,-8.81402529063871,-1.8093708191267979,-2.465066102800847,4.696517152577371,-10.009178210912069
2.824,-7.2195085736854026,-0.6262318257006427,-0.8666611348403421,-11.910807943533428,-0.18013063321632217,-4.461461647641045,4.528833161561579,-8.585897816278703
2.828,-9.225318515579943,-1.9218748900136688,-2.0626136917978783,-13.91041945600682,1.0189747599383736,-6.569742365015827,4.051564583739719,-6.492698915296614
2.832,-9.83108764654196,-2.232575381594188,-2.935521091052351,-13.969391227461983,1.4775675823461825,-7.89601738598094,3.3955791043156296,-3.6669093031468947
2.836,-9.1396454802358,-1.4825448339463492,-3.632565087995772,-12.05575305796151,0.7510377585290371,-7.8589926478480265,2.4573144198222963,-0.583059259190577
2.84,-7.73400643854086,-0.18366710374948525,-4.532830226117994,-8.944883524661918,-1.471117206777535,-6.477961026211688,0.9849258202903002,1.9148172064540177
2.844,-6.299068983275049,0.8842229989430166,-5.896575546769441,-5.77535665361944,-5.058464157399726,-4.322317758100326,-1.1865384553580043,3.020838122415057
2.848,-5.215608146827492,1.1334299984412155,-7.558042434335221,-3.4524638135061423,-9.315550281064702,-2.1966605358046536,-3.914781430814628,2.392297811920457
2.852,-4.365452461024347,0.5093899749349475,-8.864343384173935,-2.2315507616078776,-13.143444133505,-0.7326878908083927,-6.674383700574936,0.37010541201561864
2.856,-3.2598232834266128,-0.4804082832960148,-8.930047817622153,-1.7084873803917162,-15.444911169343868,-0.11764631061919317,-8.681710151571679,-2.1468193199523284
2.86,-1.449424564154583,-1.0970279513655896,-7.140595968895468,-1.2209646698008783,-15.598806599105046,-0.11152447039512481,-9.215575151505845,-4.10307001662386
2.864,1.0693515097976842,-0.8418692728954511,-3.576652034866356,-0.36740926190623213,-13.74473050789311,-0.2893031738403806,-7.960301796917065,-4.774450263982544
2.868,3.703706382532232,0.19908750063734715,0.8610250530264238,0.6619928285117567,-10.743350716151099,-0.3559149580032681,-5.220006915106296,-4.0993583265603775
2.872,5.500915925130016,1.3618290144477214,4.754011914906414,1.1629264079986115,-7.8052451338526225,-0.3164052901834111,-1.8810358934699707,-2.6873271586059673
2.876,5.681773489043508,1.7916994505352477,6.798000431576838,0.37185177405990544,-5.95633673617408,-0.4077130560281148,0.8997952755375991,-1.5147757711577015
2.88,4.136887299633258,0.970488407259495,6.408448067247264,-2.0007701041768087,-5.610834377588162,-0.8631426859208204,2.1314054150384436,-1.4435039345653422
2.884,1.6118739081655349,-0.9061574577514193,4.04095835841963,-5.4576330567506375,-6.4303963438387655,-1.662664050860485,1.3965230441920085,-2.802869269620942
2.888,-0.5891798969400952,-2.9596650062240997,1.0054818607588913,-8.860364291000792,-7.551515645991913,-2.474778069502918,-0.97524904927036,-5.2372658252174915
2.892,-1.2648399415368203,-4.083881613664175,-1.1484376874245754,-10.973262510795621,-8.052063349641458,-2.837220696703298,-4.05847871816195,-7.881291138610777
2.896,0.027730564056696494,-3.5653425300621393,-1.3496071289605425,-11.090167389180579,-7.414223996367127,-2.462782830940796,-6.731487829053094,-9.776532714214682
2.9,2.6613745618556095,-1.5408169381024663,0.48558164202268017,-9.421441913029753,-5.772470302427905,-1.4815712941926904,-8.159470587559326,-10.312528766301966
2.904,5.210872658946187,1.0127497203130815,3.46489409249898,-6.979857614908838,-3.8090358040815318,-0.4172894546297812,-8.10327492007059,-9.472676928264264
2.908,6.18177344649348,2.765074285092396,6.202021357659305,-5.034067574646656,-2.3748019188822127,0.10728711273077352,-6.933662356717605,-7.760789805338618
2.912,4.8080664643614455,2.7380511468211353,7.516889583818056,-4.4279479163050155,-2.037858712113348,-0.22532399405326942,-5.366702084779263,-5.866683159306149
2.916,1.5094706083102665,0.8594304692420565,7.022262426720999,-5.127644604257966,-2.7841949497417318,-1.170068945960793,-4.0501862893529506,-4.275296599451622
2.92,-2.2844562831153326,-1.977639382419511,5.253613468556068,-6.274390552058435,-4.041307494009061,-2.01431517170181,-3.2605787809923186,-3.037989866118778
2.924,-4.841667102624058,-4.370271068183229,3.338256460761272,-6.691323447933087,-4.993495577950057,-1.9903306114413226,-2.8476980542286583,-1.858730990088361
2.928,-5.017390657430326,-5.1454776617358675,2.358030880636761,-5.58421661080456,-5.02883582027448,-0.7914167093026663,-2.449969623852212,-0.4336998675128143
2.932,-2.8559268458098472,-3.9843647516318015,2.7589300059203197,-3.039748088408828,-4.072827407846717,1.142724580759932,-1.832773352386198,1.1830647067952214
2.936,0.4373805495868055,-1.574324551374275,4.14157977907405,-0.02004334286152698,-2.6265574988748313,2.778879585939876,-1.1124546936659954,2.427537827363267
2.94,3.11767870481151,0.7783814816848462,5.505578315699381,2.136089775051005,-1.4968907265661073,3.030553095713458,-0.7284621283175738,2.442300262604931
2.944,3.8169145082865157,1.884498591819579,5.8600443611032915,2.4717336735773188,-1.3407227061267122,1.4246069884541157,-1.1437135957953615,0.5729992077367569
2.948,2.245182874767579,1.3254418278711455,4.816389859368201,0.9815067717918282,-2.2920603578875216,-1.5276516421122324,-2.4790037373395535,-3.135379855373344
2.952,-0.6864146134387283,-0.3283148348943996,2.846044090638543,-1.3268605159146318,-3.8649856727070073,-4.48210909217687,-4.317149811539821,-7.739467228752574
2.956,-3.3651641694004297,-1.8431950136292699,1.070281014706211,-2.931117407687111,-5.193696193469236,-5.904126405296665,-5.815729324742961,-11.691798768971239
2.96,-4.358335127246619,-2.0350210777642133,0.6404669535189669,-2.635210659963036,-5.503384943143942,-4.8832950757723665,-6.124069006607101,-13.517882397795347
2.964,-3.159171844025934,-0.4302153187289264,2.1098591170498366,-0.25860372157364964,-4.522455607442225,-1.6374983773521308,-4.837153481729501,-12.533324193924955
2.968,-0.42080932452961406,2.4705841602238934,5.104872613801831,3.185831535054035,-2.625612199162333,2.557753766160886,-2.2298084280261037,-9.205260357720817
2.972,2.4145379569055194,5.44959534495672,8.474566286455229,5.946657703099845,-0.6279594669776998,5.994477264433726,0.8667869118994531,-4.934550200159038
2.976,3.8922167574598916,7.221018740893612,10.861062293668624,6.413433069114603,0.6559530539896059,7.37095975573493,3.502549459332613,-1.3737285781737683
2.98,3.275346433583138,7.0885974286061355,11.341973824137881,3.9356626204174745,0.8282490668739229,6.378977218401133,5.093453382713619,0.37392899755377584
2.984,0.8705156291674143,5.27202323884319,9.839039136563429,-0.8279128819304447,0.07515730396050913,3.7491772544558444,5.678383729255074,0.22542849335127357
2.988,-2.212157889185505,2.731406251678834,7.053425482097509,-6.236660085766744,-1.0137094890676508,0.7488325342178541,5.788092313966331,-0.9877446263827778
2.992,-4.687040308464475,0.6291502936208531,4.01376768748446,-10.474877464394751,-1.8360710193992418,-1.5262767312405003,6.033260462677731,-2.098974253572237
2.996,-5.727437617165833,-0.2506132820489597,1.5373681965857031,-12.390724886547048,-2.1388037852024127,-2.6596881394825687,6.677610028288882,-2.3310822581140656
3.0,-5.306308871557519,0.16117990884350775,-0.12622903591568502,-11.95281480849627,-2.143054353468017,-2.9718622978978146,7.451170538413862,-1.7254304943274974
3.004,-4.0653167996538855,1.3071093941861704,-1.232614568388101,-10.074577526955522,-2.3386258724724485,-3.1292593536319373,7.7424701820291375,-1.0443558056820166
3.008,-2.855595450849364,2.3997076921463076,-2.1863598832073876,-7.976408066159252,-3.1014559220973297,-3.612294754399727,7.028497591838345,-1.2306622647060976
3.012,-2.242872833585011,2.8697674498120023,-3.153381733004096,-6.477245947194774,-4.376424002113936,-4.379566912094674,5.27088033523944,-2.7534375185456383
3.016,-2.245803621608161,2.6178196952353687,-3.895087353464646,-5.618012354880818,-5.6434712844993555,-4.9338160331478775,3.022740665622564,-5.272829979747598
3.02,-2.4502199815653967,1.9255286166281849,-3.984519332006016,-4.839527129026521,-6.222054837809139,-4.725574144838333,1.1389104200749784,-7.814178553784927
