Timestamp,O1,Oz,O2,PO3,PO4,TP7,TP8,Fz
0.0,-5.684341886080802e-14,-2.4371615836571436e-12,1.1795009413617663e-12,-4.376943252282217e-12,-3.318234575999668e-12,1.8332002582610585e-12,3.694822225952521e-13,-3.666400516522117e-12
0.004,25.32531764067204,22.89041835300091,67.62231185980275,39.12360593580985,37.408048865523085,46.19690679906107,22.95500251250317,10.879981674868787
0.008,41.16168242319227,37.30679689234617,114.48921357948637,65.09214027395166,62.07275363117084,77.20208248170161,36.268950773029886,15.18235556161612
0.012,42.64229963060092,38.90097080093357,129.49578907544566,70.97123149621741,67.32995934761286,84.95090212572191,35.21399523098863,9.808661854899213
0.016,31.731547763640624,29.417721265053785,115.80819734412665,59.02554982408635,55.499400065218836,71.92555990124994,22.262276594069334,-3.2405543609443015
0.02,15.95267075366299,15.55380531238221,88.26830366792066,39.02977094413683,36.20701187891828,49.232216034819956,5.605106251637736,-17.942103652315495
0.024,4.360190355168456,5.371090609236099,65.1407336815839,22.919094661268716,21.12862600198728,30.48284313810811,-5.242846446758662,-27.370588783930515
0.028,3.0108010730696293,4.275400865422327,58.92531865904053,18.819240366386914,18.115691966182425,24.9630162291823,-4.262710542250467,-27.138299981867647
0.032,12.326526096096494,12.691736514885918,71.13453847478118,27.63843859620841,27.82961663571676,33.7241642072545,8.404310794244942,-17.324393169904795
0.036000000000000004,27.565719117224052,26.50982812240281,93.39696700441424,43.77258393195076,44.43747970722933,50.379820189613156,27.184551891791955,-1.9919845661866304
0.04,41.87185694145994,39.78634444487305,113.5900558143159,59.104805375135236,59.581598236209395,65.69128544583194,44.504958094633515,13.199732075837005
0.044,49.95691530297854,47.965101572123416,122.90270944833279,67.66291364355978,67.0632011884918,72.9127222723102,54.75976803778677,23.8230516605647
0.048,50.426592229868945,49.85712989165536,119.89118961608452,68.3385095095368,65.65750822750522,70.92771528318745,56.65991064489994,28.41576882403983
0.052000000000000005,45.725360732389134,47.51159110716324,109.76694056636876,64.4658702730415,58.80887627479057,63.7910175815901,52.94995616494544,28.39085840482082
0.056,40.09723907241802,44.38266123377805,100.10179464302023,60.98750215255153,51.85548351799252,57.480292967180674,48.06269310686898,26.50727158457029
0.06,37.00060859579618,43.10665099861814,96.05495129847637,61.2293628599701,48.736510437491674,56.156722768836,45.375639810986875,25.012232190932636
0.064,37.4180757473991,44.15870168168972,97.85080182106122,65.14399069497591,50.066045948533876,60.053746555223306,45.61463263210317,24.56507386035291
0.068,39.85918679799573,46.03450768271321,101.68218737409376,69.86603874577165,53.4781478409445,66.00011310991871,47.138074871900486,24.400241269459187
0.07200000000000001,41.770317429097055,46.610001234499705,102.97122881530606,71.93594644658785,55.69931332250952,69.89096608260544,47.60937705273361,23.388221329397382
0.076,41.302713529767104,44.68330838258319,99.62056675247743,69.61904180646849,54.847444199470885,69.36178403893392,45.803309233744066,21.15315387789917
0.08,38.36632490302594,40.73231193432025,93.24035244734638,63.897865121494576,51.52756492622294,65.04985810023419,42.413599585198725,18.470274429102773
0.084,34.40860429521234,36.46630077445327,87.69014562466239,57.605539037355086,48.14276571937836,59.78150960409032,39.42841141730435,16.7472756993877
0.088,31.283385854595288,33.622978279465144,86.24048214374832,53.483073662997455,47.09197970193874,56.50046044489343,38.66683636153873,17.020555582314785
0.092,30.062135937318928,32.87182023593948,89.37942092146912,52.51981744382641,49.141686193061744,56.41453231684533,40.533003158630756,19.199572339067153
0.096,30.529614424680968,33.52056106629221,94.64704176688821,53.59817045800645,53.00059103465237,58.490927591223134,43.77290941700283,22.06477469965425
0.1,31.577851294837906,34.14044922745036,98.45262416895582,54.54371680604258,56.26087923959246,60.4579112048284,46.31255162949462,23.98395805679902
0.10400000000000001,32.04326252278369,33.56553463067492,98.37226867457504,53.67452879383541,56.910324153041294,60.38534831277713,46.48604953394566,23.84159737020213
0.108,31.41499487910151,31.618501672576116,94.46868191765341,50.84190173682809,54.442233303331776,57.81616025265223,43.895424252138376,21.59332338428205
0.112,30.00580063401698,29.1392893937433,88.9322938775702,47.3734454926966,49.94679773543909,53.83269808220971,39.4335650695402,18.148996189722737
0.116,28.585525325867096,27.37318399466451,84.46961609017808,45.07700280357284,45.25686618047176,50.186821503765245,34.58845558350532,14.738010246922698
0.12,27.825269063504685,27.173325354508243,82.62852319781209,45.04862405307366,41.7903350016924,48.20188906285419,30.568517062821087,12.193223458542008
0.124,27.870622896396267,28.471466720352083,82.96828866769874,46.96339850476638,39.75947988017167,48.053911358925944,27.738959346649153,10.586666959567076
0.128,28.30917603184573,30.330775652586215,83.54705647742165,49.2818429370564,38.20559431766781,48.84355142779952,25.66131090858564,9.378224216530569
0.132,28.494913510972122,31.513664388670946,82.31370931909484,50.204763128621174,35.76570913299895,49.31596318951435,23.6108372611437,7.925040264826855
0.136,27.96676949618655,31.18279218926887,78.45410731330252,48.74519541222298,31.639401222370438,48.68759514825689,21.16110721366514,5.983070895747673
0.14,26.707078832800107,29.329428583451232,72.90681669408414,45.289070259531925,26.169052848819348,47.07464929736979,18.473763924971344,3.868832486331982
0.14400000000000002,25.056727221832396,26.665861534876488,67.67933008539447,41.27537103180222,20.660430582676295,45.21944382610762,16.11556100982596,2.2138896350749064
0.148,23.44057967779728,24.136378572788388,64.56438951911139,38.296686159673406,16.650257027037995,43.83326598983315,14.634308287293155,1.5059117963353614
0.152,22.149135143349085,22.40676436693034,64.14407924547984,37.227086953386795,15.130735046862267,43.07772299009106,14.235662499714515,1.757676220777057
0.156,21.315642620965278,21.63290420093447,65.65830583044797,37.880039060702416,16.181850273600876,42.52273803681219,14.765279135751932,2.5253534566626854
0.16,21.059206902668606,21.59788318315458,67.73349449736227,39.338907471821436,19.153918048369686,41.570134314544774,15.955093987593795,3.2227470336526167
0.164,21.557067834076946,21.996536891372017,69.26004340229792,40.588166912358595,23.11720771927263,39.903818876997235,17.625745739347103,3.4967500181085853
0.168,22.96345227685196,22.664137666886397,69.91409379618716,41.06585376097138,27.285733386946255,37.69832215790893,19.69902750940038,3.415022330734409
0.17200000000000001,25.219347762491033,23.613624799101352,70.10964785836504,40.85405193819935,31.204751209847338,35.49272707355682,22.033589563632063,3.3643787566117425
0.176,27.90303556859849,24.895518138424993,70.51940959175255,40.46243256170527,34.674097794293374,33.84798439252438,24.24524372508096,3.7549882733283155
0.18,30.281912803016773,26.423721869018458,71.55822441590894,40.41031728427711,37.55185752657117,33.05058901686901,25.728506105269236,4.716955710993332
0.184,31.522506001194387,27.852994364966776,73.00705975267054,40.79276798228356,39.54692645934184,32.92783681717625,25.865329076920386,5.962981799709205
0.188,31.016133830483163,28.641725845407187,74.05044510116124,41.132593767866176,40.19311476530049,32.92080414485122,24.35612011195778,6.8910380365833745
0.192,28.66433479788894,28.286106457989902,73.70946064015452,40.62342480973278,39.04527688768585,32.3844503652003,21.475908139112367,6.872421807926756
0.196,24.95789850510264,26.581261763589453,71.40005106656099,38.60901379733462,35.959810542418445,30.929276384789965,18.051316198250635,5.5590403695194155
0.2,20.80586044625933,23.760907127603847,67.31361753656961,35.02282410054319,31.277093019325747,28.63358712018978,15.131914722399003,3.0384929887328482
0.20400000000000001,17.125836255646277,20.372869005404503,62.2667403919883,30.447214403575103,25.71281955336711,25.92061558989755,13.44482546930869,-0.23316641203274457
0.20800000000000002,14.454270015426012,16.99495042394332,57.2128179019371,25.811956160950253,20.05013020864684,23.25965661991033,12.979487794846484,-3.6650135249306004
0.212,12.799895551677318,13.978851122727018,52.767391954450474,21.94796447884629,14.842725826286504,20.922600385052124,12.974744217241259,-6.776481314876122
0.216,11.792164813232738,11.370904638792513,49.01644223852246,19.252373632736525,10.297236431883736,18.93985452548757,12.339773771130876,-9.316062642314137
0.22,11.02652306574266,9.050965837799335,45.71284906984737,17.650330086097572,6.393930447440312,17.271063326601652,10.313208246559995,-11.22963476162684
0.224,10.31674723185966,6.918549724867919,42.54809754423126,16.747586867306836,3.067101919988122,15.936219283560398,6.92057200259298,-12.547792794603069
0.228,9.74294702590319,5.02722575872715,39.40924433213053,16.107667681787333,0.35070876246199845,15.06021979628433,3.0027327110282798,-13.285273143321874
0.232,9.505352166059474,3.5900190996804078,36.51430350415393,15.504658265847919,-1.585237541381268,14.812900768957238,-0.19330863928311715,-13.420455664198794
0.23600000000000002,9.6614502508899,2.817082135567132,34.254012511375365,14.947148256598929,-2.572742337590727,15.211423990903555,-1.6841143348783376,-12.969787689271826
0.24,9.985047543273927,2.729655973095909,32.94290770726759,14.543230413463458,-2.6029443353716193,15.990106924042077,-1.270380805738526,-12.090373356782337
0.244,10.069346540046674,3.1054213481490756,32.6817238939176,14.350855895511607,-1.8545576443780742,16.67133214236096,0.3962831172610741,-11.111359227262543
0.248,9.596719654578546,3.588713908766243,33.36426457994994,14.305559013049482,-0.5825996316511883,16.798762366701272,2.2104491903070524,-10.453116579604469
0.252,8.579693425105361,3.8819430954886887,34.748097156004874,14.244690945809024,1.0404396035915475,16.166737826069113,3.2261467696305317,-10.462924867400133
0.256,7.4027689416319,3.906646617075017,36.53436520484543,14.010376882669895,3.018328528251768,14.917200456343377,3.1411282329052153,-11.238792576492077
0.26,6.650843017069853,3.8566528953516546,38.488983348971516,13.600269847986697,5.517601042888158,13.506100732946077,2.4202978198297203,-12.525563120456734
0.264,6.810570677722448,4.0921964876524415,40.52268649028224,13.239051988610067,8.725517425475095,12.53170923839187,1.9970468349321582,-13.764587803548142
0.268,7.991881058477655,4.9057395825565715,42.63562592050951,13.275430457591925,12.62024517949207,12.469121623934605,2.7029968782806453,-14.313382486360773
0.272,9.82339532950719,6.280976889353251,44.72862907953856,13.928611587379411,16.77383414844134,13.40779197207287,4.739628821686752,-13.753886698403655
0.276,11.603085534763416,7.801702845831816,46.4417871577601,15.056428690949401,20.349949022279095,14.951012294294683,7.492690209075866,-12.1326820575017
0.28,12.66343938258824,8.817459850415206,47.25502704664483,16.174550695422734,22.399457838516987,16.417394079390967,9.835428188534863,-9.975793085389542
0.28400000000000003,12.747049234999613,8.788579631690084,46.80700748548563,16.73135488603542,22.326149824081668,17.227871562859676,10.74897287351964,-8.045304136509264
0.28800000000000003,12.157810516447679,7.601216847019257,45.19673106975981,16.456838704327026,20.247981781420584,17.23108808055281,9.896561676570514,-6.954315629351552
0.292,11.570269320316363,5.652517484552153,43.00943976190002,15.540144189447215,17.006343637335355,16.74520233569109,7.809104242236025,-6.853788840956652
0.296,11.615282495370172,3.658964937957352,41.02932838059843,14.521910651970508,13.795424738972455,16.310877567165832,5.590799280056649,-7.356381187384454
0.3,12.527070304426449,2.3277106716804887,39.88698736985897,14.011179916903423,11.646546916346008,16.381407045365016,4.352461831468782,-7.736427189917952
0.304,14.038363086645738,2.064211799724294,39.81333886221496,14.377048587698305,11.025893626101276,17.12232966896929,4.6788215590509274,-7.316883618320373
0.308,15.558798506154156,2.8467388874677404,40.57942583397289,15.562911377373482,11.719136952662982,18.39217721351725,6.389949084982215,-5.8439854999875465
0.312,16.492872252779378,4.2892201937181165,41.5925465959687,17.087946654782726,13.01519756264263,19.837149576536554,8.675225946178971,-3.659536287724352
0.316,16.522293345281966,5.845880068248747,42.12217475092095,18.249988537863445,14.098406505312235,21.032534596686887,10.518229436980112,-1.548190900015415
0.32,15.759924415466848,7.082858192071084,41.65842481306041,18.48702533362733,14.492640881306247,21.663845067739302,11.214261899881032,-0.3111097978756323
0.324,14.708623767450778,7.876270250719838,40.2237526303212,17.700635098563772,14.323992810754756,21.6540133862054,10.709483451675487,-0.2920285432382794
0.328,14.039131273377894,8.433538641953723,38.43207573108164,16.350762814580012,14.247750433028383,21.162599687293568,9.582348467798745,-1.1312702793561975
0.332,14.281049046067494,9.128716520674576,37.20075267180977,15.236644036261758,15.060537482144799,20.444682011334095,8.685420586214173,-1.9078922932878406
0.336,15.567303649032567,10.250667227295725,37.250631677809466,15.079508792337013,17.208558534244617,19.67189627405051,8.65823922963467,-1.6093415821761212
0.34,17.577287555272502,11.839609749050672,38.74376984132456,16.189958538457795,20.51048540169753,18.895148309298282,9.613904502581459,0.34187751112268927
0.34400000000000003,19.681374256918097,13.677875276629686,41.223547577459506,18.369645497976776,24.234146945758305,18.141102450576554,11.145495551874651,3.787674419025114
0.34800000000000003,21.18925572234163,15.404364933797114,43.83423289414342,21.048602636557273,27.45319493627369,17.521363299143758,12.60282963567358,7.914544667157056
0.352,21.581183450434803,16.66854950417868,45.66444612383686,23.54188804128661,29.465459936572373,17.230121669064992,13.452732286323567,11.659620847867924
0.356,20.654596470998168,17.248837828763556,46.06359221162086,25.28894466131942,30.054940412958317,17.41367478683952,13.519730575832096,14.2113874796854
0.36,18.59635647892482,17.12920243142831,44.90112405538774,26.033422976790916,29.518921954576665,18.057815092654863,13.020893409398926,15.348987544046912
0.364,15.954054211101049,16.511285674863302,42.65100361384076,25.88525618877835,28.46032389927079,18.968099146013927,12.397052828286641,15.444481540792559
0.368,13.47815095725403,15.741360756852693,40.21000465207037,25.233092211440663,27.44492215972361,19.846231223220183,12.040549551808382,15.14326998962366
0.372,11.84948133373052,15.15832175716994,38.465648811312235,24.528838533438126,26.67897141257162,20.391569420898147,12.056988691664289,14.919598387068575
0.376,11.384013310143473,14.923137440932138,37.81605603651204,24.049274828286734,25.883649524256192,20.378453882872446,12.183374749697911,14.771477057341896
0.38,11.895404466797288,14.944368834251378,37.97562627982894,23.794529536527037,24.482660652602775,19.75078681111254,11.941727305759553,14.245122559159086
0.384,12.793059532983547,14.936532421925083,38.160270186305695,23.55580036503425,21.999700746314986,18.67776268911853,10.935684457004214,12.764439366368002
0.388,13.36730809886776,14.573943065191491,37.530037897811724,23.07735329868732,18.425212422153837,17.518094290309875,9.092346045439369,10.045179968712878
0.392,13.122072063353638,13.657065858383948,35.615144226305084,22.197941213414104,14.319743080760425,16.66832423845767,6.705155315725328,6.327279807702695
0.396,11.99596854173149,12.21541249888504,32.522296737622256,20.915709810366494,10.59480325824291,16.364698543961225,4.262944578110584,2.290168882092365
0.4,10.397683094514985,10.525950762112828,28.914997607249482,19.41172113836535,8.130086239092048,16.59896014991444,2.2137271782836763,-1.2764965445187926
0.404,9.028239894549216,9.02942205637737,25.77034649165813,18.024015327574823,7.418916253094597,17.170570251721134,0.8063283377383321,-3.8467562507051163
0.40800000000000003,8.548670212471634,8.151155519338548,23.985714139863592,17.1460096370835,8.389292200580933,17.804115866623306,0.06903735944631961,-5.371986644532393
0.41200000000000003,9.24365647238832,8.09324443863536,23.970860997497248,17.047807761047146,10.453799754294561,18.23319115246135,-0.09944703518547549,-6.224911772240447
0.41600000000000004,10.849728629542621,8.705001872078642,25.422811466625234,17.69373470320121,12.751359629441652,18.224052037971248,0.1941347995847913,-6.926071386072287
0.42,12.682116698064174,9.547619173759301,27.490013742251957,18.708151780685952,14.505041732746648,17.627483328208534,0.9330281064443957,-7.808265634382561
0.424,13.987857672093186,10.124174978368766,29.22871167029495,19.51678456509186,15.323639849592405,16.454069462514195,2.1869059537952484,-8.81852682129062
0.428,14.318362550124366,10.142490630271311,30.07436264588689,19.594340018316267,15.297205913927698,14.919299828540073,3.9958219075568584,-9.566680501286486
0.432,13.704632409723153,9.645526417485629,30.034418230115232,18.677974587246084,14.836962537346494,13.386596646445241,6.213975331545885,-9.593063207655208
0.436,12.554464659106577,8.937328963678208,29.51540296203362,16.851952649705005,14.373406317004527,12.212573494191243,8.434884044861112,-8.678837599800564
0.44,11.388115048811892,8.386372292917214,29.00078287006158,14.526538848836203,14.134794031171996,11.614324859432545,10.1065597688901,-6.992966487602658
0.444,10.571081835842723,8.21485784490449,28.77129562298132,12.313879999612364,14.107339458062162,11.6103164066268,10.800306593404786,-4.9957756896384655
0.448,10.16696775720793,8.38293005646691,28.797116003045076,10.829833345397777,14.150266116406796,12.044726255843232,10.472551356703304,-3.1707402430166978
0.452,9.968014910062957,8.625150125144174,28.813327918820615,10.484665616323893,14.149884287831572,12.659652993557566,9.527150797414858,-1.7627307883117496
0.456,9.65329459902816,8.602857451091744,28.496458343193048,11.336418884551335,14.095735066363192,13.180876569902114,8.62263050771518,-0.6901984285322382
0.46,9.006237503049293,8.106885718853283,27.697942322917594,13.113651529542402,14.074871598353905,13.440370191914822,8.342276544571007,0.331671161116589
0.464,8.0633361698527,7.18995996018019,26.586139421862935,15.374027066886535,14.20033796363724,13.459219931564975,8.901856388735204,1.5318932059849688
0.468,7.106535934260218,6.144872872666411,25.58479127844858,17.68788975412228,14.522093767796058,13.42577907697438,10.04849276385131,2.8477032923518806
0.47200000000000003,6.5035123623084665,5.323875182794351,25.10744007492393,19.730461791800934,14.958930334048961,13.541849519135225,11.199133931099347,3.860127075694387
0.47600000000000003,6.493059052856996,4.916483106916241,25.253026275913342,21.26036636089436,15.296856959398461,13.82253905729333,11.740805246499187,3.959693678233699
0.48,7.066993203923108,4.848574169692925,25.732244980763028,22.08861514938572,15.299261988823275,14.03992236634655,11.361413111349059,2.6766013181657504
0.484,8.004205212632474,4.862583512159122,26.073379500677724,22.096467100984157,14.859220248524261,13.85251127280379,10.221512105875151,-0.00509336078369671
0.488,9.008024387961088,4.720720138239387,25.956922006530416,21.30025709183302,14.089239131816067,13.037946149646348,8.856559960132099,-3.5433563557163206
0.492,9.837353389938304,4.390476053339697,25.428963782391094,19.897255198437733,13.277262654838843,11.65678880024516,7.856707823136306,-7.037614467963323
0.496,10.36081687271011,4.096586807171921,24.85070486015487,18.236671074561194,12.733633863767672,10.037317903611298,7.508766481551193,-9.649995506493562
0.5,10.559464969523557,4.235088183288815,24.6884989595789,16.742813529640156,12.659990969265062,8.637966156530325,7.64557811057502,-11.012756107400403
0.504,10.498777692606678,5.188252144251898,25.26272168553287,15.793258383407165,13.105407383868954,7.84786257529414,7.790205327299635,-11.40405647141838
0.508,10.287709717275426,7.122008693169034,26.576398037534062,15.579028192867034,14.0019624261228,7.823769359645706,7.492011754327347,-11.587081016671801
0.512,10.027000957464018,9.851017962095302,28.277087867736896,15.997111442288691,15.21222263562949,8.427707073948344,6.633146288001626,-12.384643640410253
0.516,9.755485569671752,12.833760705079735,29.760227184744878,16.64333051414886,16.53707608281843,9.287848857888104,5.507118762867329,-14.209646233335892
0.52,9.429115987659017,15.32630976631983,30.421391774532076,16.975363414728307,17.7110418101341,9.994489278947274,4.6360632077686486,-16.78954922050727
0.524,8.932567167194756,16.631828242033645,29.91576729725223,16.567871149537407,18.401532821989605,10.305092718939067,4.4338734380568425,-19.24038823815425
0.528,8.108968837181601,16.33257474139856,28.27860813745275,15.321092471868763,18.24254776986404,10.228350620748488,4.914438658441576,-20.477082610464844
0.532,6.796616339016345,14.414888477714946,25.83841714283197,13.494497061782933,16.92410270864679,9.932968347235754,5.622423886785887,-19.751524452806404
0.536,4.875657236585294,11.248811608917782,22.992064516049375,11.540734106439734,14.316566382263305,9.549558950102615,5.849890282631151,-17.04337047992547
0.54,2.3555728394179014,7.471650970598452,20.05898177127114,9.880804672602725,10.615607025415478,9.06430801022916,5.0562583922101645,-13.092073347679948
0.544,-0.5328186477751888,3.8238728648269906,17.285819278444976,8.748011573143861,6.421013073143106,8.376555623908754,3.2568101907566787,-9.045947632099177
0.548,-3.3195100654583953,0.9728867033324888,14.938073104192089,8.16581178226042,2.6502266960421093,7.465236530204283,1.1296506601912935,-5.922463410966284
0.552,-5.401596151765972,-0.6455922233550282,13.336037440136566,8.02899745075088,0.2558946220532774,6.502172715487566,-0.26793276993157966,-4.181132504160581
0.556,-6.253480156876726,-0.928532179005233,12.75270801449124,8.212727877920262,-0.1522302304866372,5.794815475588195,-0.04940077919327246,-3.6269498065882564
0.56,-5.6292281205126535,-0.0925427056456849,13.283624221745598,8.669168571129592,1.43080011358518,5.6116906591950855,1.99891227362364,-3.66502065793897
0.5640000000000001,-3.6612114118407093,1.4428114632815277,14.763031389259806,9.448177116835204,4.39458009367296,5.985873794160597,5.2345354730685925,-3.7368745048136818
0.5680000000000001,-0.8171846725743666,3.2204516316784826,16.78116312209878,10.614368034561938,7.757706969511638,6.625770842721392,8.40692546890419,-3.6859865917646046
0.5720000000000001,2.2528408254322763,4.8758394881202145,18.78716281002949,12.100942555973896,10.542773958253688,6.998346603320801,10.209588983787341,-3.8485389406871278
0.5760000000000001,4.910539039961337,6.1792148700549685,20.22836396313371,13.596135849805801,12.099246694231939,6.562461028325956,9.855067016453816,-4.8220861139449305
0.58,6.7169987492626175,7.020445280587513,20.73560086303275,14.591957477983902,12.274913995547418,5.083244508979089,7.416515644672556,-7.043048649225695
0.584,7.538636861544299,7.363353130036154,20.254160556933826,14.576857583439322,11.374450998845635,2.827639956086732,3.7570362097535632,-10.428039844235004
0.588,7.528875149743941,7.201522010974678,19.0381297859025,13.260909015526416,9.935553522084005,0.4907644163618805,0.08538896267337748,-14.292677320072876
0.592,7.001469439070799,6.538950316387459,17.48986951040857,10.700015830094317,8.43848024671022,-1.1528932945446346,-2.6308198470986426,-17.61086707076059
0.596,6.262791757685598,5.400684079311457,15.924627266052607,7.259363658447803,7.092368228047734,-1.692340805464461,-4.088676294217805,-19.473921159093877
0.6,5.509178901528234,3.8817346991491464,14.451828463353145,3.482023178802505,5.824404846368681,-1.3083427847766949,-4.675679238022889,-19.489946479157176
0.604,4.820742395865228,2.187385112512697,13.018203788309041,-0.06398640816220791,4.439677060667087,-0.644186953113338,-5.101802502523454,-17.908932487072295
0.608,4.220100413107765,0.6141377263292256,11.549597726194307,-2.897511262459008,2.823592990860636,-0.38824203403908,-5.87260046206211,-15.427720424552932
0.612,3.73519524272022,-0.540145829784314,10.059186180945384,-4.686330012007431,1.0514457126034582,-0.8338921829633072,-6.9350133360507975,-12.803756971312493
0.616,3.414474649693293,-1.1054710826148204,8.631743777603244,-5.285518437104951,-0.6625130133749,-1.70152340867571,-7.7016275291088,-10.498180583380028
0.62,3.316855419878882,-1.1142918276035352,7.364205990192364,-4.732726637831998,-2.0929158161000037,-2.291805113786099,-7.4090150090611155,-8.519257928993522
0.624,3.498069439869932,-0.7668618342625568,6.322383977965012,-3.2159672145157434,-3.0949118550469104,-1.8922045060614678,-5.585975283105936,-6.511128188303466
0.628,3.9980441963250266,-0.30401819412814834,5.55157837261282,-1.0315125976230348,-3.602088852163221,-0.20716674542183888,-2.35188355067398,-4.008639082086606
0.632,4.827114396007915,0.13663909761414006,5.110174388708331,1.4620348005456423,-3.548950685920716,2.42408429225505,1.6265140972517855,-0.716968612468202
0.636,5.941550756419374,0.5959418625972073,5.078577643683653,3.898293477825318,-2.7914804678160032,5.149015002412452,5.489437115214965,3.326435484304202
0.64,7.22742690953239,1.2688521234866714,5.570615621162313,5.994770590474073,-1.0862274845897018,7.034204198804223,8.647367636062906,7.7556572016416325
0.644,8.488522133200986,2.3786317512947557,6.6949304710323965,7.630499827774889,1.8116449000977717,7.548570799280172,11.05912877955631,11.996090405395982
0.648,9.451886898028107,4.006989264404366,8.459876176839941,8.849190954935702,5.959092806091334,6.814556152310755,13.137275782438046,15.413254961210932
0.652,9.81235295393553,5.968711721684214,10.664388579907266,9.764257351571784,11.045217845945826,5.478505794979236,15.350683354681848,17.425658281406804
0.656,9.331171536455583,7.817709389544997,12.86187307112359,10.41974235530893,16.353294578741128,4.287568470647624,17.783364800831002,17.59475417506455
0.66,7.983968820422435,9.034202744974273,14.52290239010063,10.742117421540428,20.972071714061883,3.6900528093303038,19.97779227353444,15.747787453600015
0.664,6.080604212401918,9.30807713010548,15.326151575937114,10.615876802536167,24.172762384257908,3.685534111105604,21.19200721997661,12.122893389730898
0.668,4.255816629348921,8.75815790243297,15.406285449197426,10.034338199657798,25.755263326947386,3.9842567259740314,20.922350984629894,7.451388385329623
0.672,3.2593030994145065,7.929281888255924,15.34110286958232,9.187434771851624,26.12911226023609,4.303081678748228,19.31082880288769,2.8487956731012747
0.676,3.5801095064835056,7.509589905451296,15.79613296772044,8.369035637005132,26.02493463400532,4.53716831857138,17.115823797517287,-0.5451978172657672
0.68,5.0930407348079285,7.899399820723168,17.032619278027205,7.749010741649755,25.98871109499622,4.712975724678099,15.211143983426267,-2.0763238634698546
0.684,6.9295278322590415,8.852732592821528,18.538991364088165,7.13030862628386,25.92883437116963,4.754766196428101,13.8929423373745,-1.9964414635247754
0.6880000000000001,7.6975573375456054,9.416109976039799,19.03383510965473,5.866060054758077,24.995178475967666,4.264714916722523,12.453114311077826,-1.5259613370123035
0.6920000000000001,6.009829827958015,8.259347143946112,16.91233790249131,3.0545534573972573,21.910810921331198,2.5349067555004896,9.375594302207586,-2.413871614715223
0.6960000000000001,1.1184030468721673,4.2931305688031545,10.973743269709635,-2.016674923246331,15.635978683763149,-1.134272712185163,3.1642552323295217,-6.114188451698651
0.7000000000000001,-6.607385131237191,-2.6786636655145832,1.1539934445217606,-9.337045625232399,6.075071394691386,-6.898806255175299,-6.574783021447729,-12.93087227224791
0.704,-15.615383131326729,-11.613370028352945,-11.12898517549964,-17.846619443869823,-5.558634135056526,-13.949652091964161,-18.42558887504,-21.571161417220353
0.708,-23.597081837428703,-20.415739162354548,-23.25416923977959,-25.56072542933297,-16.96187301605252,-20.524805786085757,-29.32075713347523,-29.412619269885795
0.712,-28.27775765499863,-26.642971673268164,-32.26728128371333,-30.19283193373938,-25.514982540166823,-24.475247248013854,-35.63497125608063,-33.46169122833211
0.716,-28.25525255665763,-28.450597009933176,-36.00539563480399,-30.054583356711397,-29.28485112831426,-24.184630069172435,-34.74653223487862,-31.60494804427949
0.72,-23.50783397210321,-25.3288178776461,-33.907425300596586,-24.78701403851914,-27.75576913559012,-19.343945617606863,-26.274088930591947,-23.564019600085395
0.724,-15.36231194585849,-18.280650507827495,-27.13680653867178,-15.565087833735898,-21.945082352294108,-11.167198165617513,-12.351133228953584,-11.090362737101781
0.728,-5.954650246441437,-9.365645812126344,-17.98410304527026,-4.668424481650993,-13.868204996736516,-1.9120456603438036,3.2280484870639023,2.6987827716165547
0.732,2.5603307810688536,-0.8430444585578714,-8.878211975541598,5.377436212655348,-5.651537763295929,6.055687901429057,16.559879859723615,14.518523938032885
0.736,8.691422223562865,5.66563748385949,-1.5074519940314755,12.682447781520244,1.2545119396698299,11.166903137959375,25.100377248577573,22.082889478369246
0.74,11.947147640733972,9.634252717981445,3.610011282498972,16.53191780965663,6.426456540582105,13.119978137051843,28.38330868466032,24.724287459434784
0.744,12.751098828452932,11.546698852778034,6.967866793991783,17.383095093947325,10.274306390059593,12.723770568264081,27.72801595601866,23.262291181824708
0.748,12.053721998337513,12.394698771997094,9.501893301012483,16.394909390196283,13.49739745432605,11.272795690352105,25.21741434782773,19.304187843576656
0.752,10.860224849077618,13.06834183359123,11.955716485483368,14.773413293577551,16.529470346531358,9.831086628589409,22.56401033085134,14.41062425906743
0.756,9.875477688216714,13.954139992383608,14.489302990547959,13.258391001010494,19.26484682157611,8.796547227268274,20.448598473804296,9.568314293307417
0.76,9.388344041580282,14.910225004471814,16.72529546361747,11.985707285031939,21.19282070920218,7.964845294511566,18.595453600961505,5.1624322854231215
0.764,9.369246851821176,15.550585299884876,18.11897747378263,10.713531781750351,21.79745788946866,6.956860344547598,16.392179374669887,1.3326350013657713
0.768,9.649090495224284,15.596724378149187,18.36781763705482,9.202305049871264,20.940171448823307,5.6753525115241485,13.570513127481888,-1.6128300576733965
0.772,10.046607831960877,15.062589928284574,17.59229639815748,7.481967095572283,18.980034586878165,4.464492408832125,10.512751599820628,-3.0568257471600977
0.776,10.388169021676127,14.182330680792212,16.18096748768414,5.848676632459551,16.567549536663943,3.86387229806437,8.034482613447082,-2.309537954881209
0.78,10.47610020806938,13.185531867478252,14.487947132578455,4.651183122651327,14.283704884562795,4.180828186878917,6.8661193299290355,0.9378718812404694
0.784,10.08069602202544,12.111929052622148,12.603368971605466,4.033815591954966,12.357243712168085,5.188191598683268,7.190850317799945,6.247295728579272
0.788,9.006841287525337,10.801302614400644,10.349547464213666,3.817811287313656,10.61815279679207,6.1773079996265,8.530347593017808,12.414083628025825
0.792,7.205692433407632,9.047269643205427,7.474385528868741,3.5847207544837767,8.669801068491047,6.343729836008897,10.016971091660999,17.840439515642466
0.796,4.842839502965571,6.789503143037116,3.86804539578738,2.893417328007869,6.142486865708301,5.258926082392952,10.838073521857465,21.12790656102005
0.8,2.2890772412044393,4.217612387850728,-0.30709897396266417,1.5292291177713748,2.896166515545847,3.168505245357773,10.593498150217648,21.60645789958356
0.804,0.017677971705689632,1.7145070368935196,-4.652273289341972,-0.361160906470015,-0.921454234921727,0.9121736707674251,9.38671954659338,19.5533260355575
0.808,-1.557418459724552,-0.31685201752067194,-8.686408234608942,-2.32111545613461,-4.942577584612456,-0.49968280814989585,7.657462927152281,16.00966198385136
0.812,-2.227132873717239,-1.6269359306951472,-12.008318683980761,-3.7886711929916834,-8.686103044849082,-0.4244592114621355,5.909171752512883,12.309407392044553
0.8160000000000001,-2.0491449438824523,-2.1876918238787426,-14.383276938619586,-4.3546436791447976,-11.638030914661194,1.0428050222055003,4.501783473014596,9.551459943211063
0.8200000000000001,-1.2819674189907975,-2.1039364896582162,-15.672964438959777,-3.9103205721383207,-13.27007139950615,3.106906559703618,3.6128499133513383,8.247281771959557
0.8240000000000001,-0.23631920942147588,-1.454151015918839,-15.708125589941107,-2.62926076635184,-13.061471715946855,4.681139532220871,3.317963498242616,8.256467538713311
0.8280000000000001,0.8759882451866703,-0.19157558625866888,-14.238736333343528,-0.8180335872090219,-10.602088690977588,4.945445316114795,3.6750762473969694,8.985740908777881
0.8320000000000001,2.01041702116014,1.8102239243273834,-11.050960102535186,1.2524604869982587,-5.795253601262123,3.7460281872777608,4.71282412556582,9.710932961480898
0.836,3.2343650165500435,4.58596889707097,-6.227475272113686,3.4162533786141154,0.9213627682169774,1.6182512488796008,6.323072596895058,9.865553995643825
0.84,4.6062403380599815,7.916020668181957,-0.33315628582166035,5.573594128480131,8.517994618504623,-0.5183031441496633,8.179065366218756,9.20022850032621
0.844,6.065448054976093,11.294653201560102,5.6235866853091325,7.586308191447218,15.576327188138814,-1.814006851751886,9.779753803246471,7.792002365218197
0.848,7.398952598574505,14.072137742209891,10.490464280191091,9.192418463620879,20.715976130122865,-1.8514329948602928,10.63051134708402,5.941155638217409
0.852,8.298690293070866,15.692866433107618,13.394135038209312,10.012694063242979,23.059208629943697,-0.7588120535444007,10.469050378183097,4.022571789949751
0.856,8.46928375133834,15.885808466119766,14.041194090033603,9.652717053245087,22.49462853658477,0.9197612715427694,9.389156732357977,2.3589308200525663
0.86,7.740323342206057,14.714586487637142,12.767388872911534,7.880171097381752,19.62347040844154,2.521471583195968,7.790422718710611,1.148761438667167
0.864,6.130610944109103,12.47902330169607,10.302711031248219,4.789352435553553,15.421449236171082,3.5612430078510604,6.170631322680016,0.4620796222469137
0.868,3.8440498727233803,9.551010988023748,7.39884340822821,0.8625730758242085,10.801832715875475,3.900349363016569,4.879055085530917,0.2842897218333498
0.872,1.2057637708260247,6.251985388533488,4.51442764762015,-3.1245682633485643,6.297465367049226,3.7310747064864564,3.9533164833597434,0.5643822808354875
0.876,-1.4424245030321012,2.817120564217093,1.6788353184790463,-6.355966509526146,1.9860149508173497,3.4009342351890988,3.112214368642054,1.2253189135908773
0.88,-3.8242390966127533,-0.5539752607157498,-1.3755968920320139,-8.252574168469254,-2.3250181453909544,3.2180067965712222,1.9160636830282707,2.137339475256371
0.884,-5.768109451131481,-3.643411848969063,-4.932097675201968,-8.655952896882521,-6.807239282062358,3.3212740446010685,-0.001411102834944833,3.089247784991898
0.888,-7.208489242024737,-6.238685534535254,-9.042437747389378,-7.847951564761497,-11.411631476897075,3.6624982252428984,-2.739835069121842,3.7942683060961215
0.892,-8.171432647974797,-8.2428395206999,-13.467575485818628,-6.409008973506527,-15.880221035150015,4.079472772530084,-6.061654581006639,3.952590920547191
0.896,-8.774756059014944,-9.79887889771645,-17.841346340219012,-5.0070109382008,-19.94693102737321,4.375130225930871,-9.484640088723122,3.351856169577507
0.9,-9.223820229591187,-11.299916039631619,-21.887092110701666,-4.192187863971569,-23.544348158449356,4.388025886866371,-12.464408378607782,1.963135716064339
0.904,-9.783179057011253,-13.234548954657958,-25.536261540081785,-4.279854862421551,-26.85268222661294,4.014911921528864,-14.57953434177238,-0.033886211472005545
0.908,-10.711286546307448,-15.91525916021439,-28.84822870357518,-5.341162740337985,-30.122485592239343,3.2043063913463152,-15.6510187565974,-2.322936673522654
0.912,-12.170868937450855,-19.238432675202123,-31.786381928688364,-7.268248931843659,-33.36741854036231,1.9419422653827665,-15.755781754783278,-4.594757781572943
0.916,-14.153764965184816,-22.639032525260887,-34.03970787355347,-9.8602141484922,-36.13743616751169,0.23275533431605755,-15.15284859097966,-6.682053640260017
0.92,-16.443288163271884,-25.282292359515544,-35.00362959791383,-12.856820647848185,-37.54200004901885,-1.873254309962464,-14.153583828207282,-8.603831617117775
0.924,-18.64000861970305,-26.411902369032994,-33.984121991647356,-15.917185997835814,-36.56806272379477,-4.233348606178237,-12.99677354167418,-10.478609380357563
0.928,-20.249491551627976,-25.68182296155308,-30.53756912002961,-18.581751137133438,-32.56342475329811,-6.570163645676738,-11.78879625864598,-12.351957861448458
0.932,-20.81472179030213,-23.295565899018776,-24.776403080326485,-20.299438902958897,-25.658198609781714,-8.487428371766338,-10.544007510951428,-14.058252264805908
0.936,-20.068496815192297,-19.897240245836237,-17.50578205837928,-20.579458765948722,-16.91026432892069,-9.59248355297769,-9.311585334003162,-15.221777306830482
0.9400000000000001,-18.040035537842968,-16.27384904628272,-10.058629487719974,-19.204692275839516,-8.052778388348303,-9.65825685666244,-8.289638385669972,-15.419340901180806
0.9440000000000001,-15.07094470804942,-13.028447340578285,-3.884213535199546,-16.400960184720603,-0.9339762527421716,-8.750459595192009,-7.83597605535096,-14.421835727867979
0.9480000000000001,-11.726334808474526,-10.389510378728156,-0.051078907479929825,-12.840728017364134,3.124372214969452,-7.229728235827191,-8.324908254444146,-12.363792310716454
0.9520000000000001,-8.637806728577617,-8.244569419673917,1.1062461619282935,-9.44138217924397,3.758460220512294,-5.610620062243744,-9.905165455351595,-9.736315733048789
0.9560000000000001,-6.335833388675412,-6.3557849180758055,0.021723911247526928,-7.03286800248506,1.5994437953713696,-4.350801287632105,-12.301733081594662,-7.177649799166028
0.96,-5.107044817532043,-4.594820747581935,-2.3412010310932327,-6.010542478823368,-2.0547730442780408,-3.6369512091374716,-14.788309336612965,-5.156356701985846
0.964,-4.926302595474532,-3.0539007593162886,-4.883583630966423,-6.152002534284605,-5.767440075283255,-3.296789043130376,-16.405946552014793,-3.727885755868
0.968,-5.492392902098803,-1.9805415223817073,-6.745097695336858,-6.709371343856567,-8.460023741922688,-2.8920326126580793,-16.36013543145592,-2.518137072815934
0.972,-6.359268683800394,-1.5957481437917913,-7.51908509503676,-6.758209487393277,-9.691959850470855,-1.9605418213614234,-14.40618820885283,-0.9611248234871486
0.976,-7.133033244058554,-1.934956197141375,-7.294142349908373,-5.670443134688316,-9.667796251233163,-0.3186943670814877,-11.017469717571089,1.3385343015682647
0.98,-7.640766886817715,-2.8005249106989254,-6.51458727222297,-3.455245472464039,-9.011256096905864,1.7717059981921324,-7.206129125254782,4.326865270346298
0.984,-7.989575203195653,-3.85298178594255,-5.756437020929567,-0.7895838982148469,-8.449418582262105,3.6702128008353716,-4.065283685608582,7.4675312674286936
0.988,-8.472566591782368,-4.777717159614692,-5.503535496047774,1.298872125314035,-8.53417190471843,4.655322516816003,-2.261958773122648,9.990087867424723
0.992,-9.361291994102201,-5.423201303884049,-5.995931766064828,1.9528497371021136,-9.482928985213064,4.307354778192957,-1.7501505565485074,11.274269283227841
0.996,-10.697561760103593,-5.8420332398600685,-7.212904291084994,0.9297783784567466,-11.170621263304557,2.7460904514630835,-1.8874003812662092,11.140372189659129
1.0,-12.186897729761727,-6.209289519752992,-8.933377545632528,-1.2419111694298126,-13.21815031728757,0.6174349766593266,-1.8788370425232754,9.886193245103021
1.004,-13.269341816392187,-6.67689655377288,-10.835462071452733,-3.48467755490662,-15.12853629623943,-1.1907887903918506,-1.2951418170606503,8.058783877108926
1.008,-13.346104645219006,-7.250331084830309,-12.578630136500825,-4.650084904755618,-16.420857649167246,-1.9515294915179995,-0.3630001824635496,6.110207627248393
1.012,-12.06018903859795,-7.753376179517916,-13.848689973238361,-4.011730003849279,-16.743298564578826,-1.4126561273888847,0.15161270244151215,4.149593714712042
1.016,-9.498472434543094,-7.8994192177134455,-14.40028162842442,-1.5470035861489633,-15.963954713277532,0.10741451072450725,-0.5973067493163242,1.951785402491288
1.02,-6.191122638027787,-7.414565525979839,-14.07629101849179,2.1320796337726264,-14.2028983689655,1.9095508604834088,-2.994392055413549,-0.7812187770238914
1.024,-2.9002044427079943,-6.149126185034589,-12.822872815913986,6.123951149382197,-11.791666076950262,3.2704314341959604,-6.644390238340906,-4.078262379207103
1.028,-0.2957351618155921,-4.114557225012495,-10.686497475012718,9.662911732961144,-9.154084263880499,3.7878291866794713,-10.465274639544788,-7.493007434760981
1.032,1.3125832744595343,-1.4542909735448406,-7.80866192839914,12.380353426267657,-6.6614950677014395,3.5335810660302114,-13.162471876498557,-10.19226646208532
1.036,2.0389200205823865,1.60442024367919,-4.450569994602093,14.262679385066429,-4.540961443063692,2.9268929392667085,-13.836456590536184,-11.319636651041593
1.04,2.2636165551885616,4.789616933600966,-0.9908681421986669,15.403638913741684,-2.8629164271406005,2.4449046199119517,-12.391124312257803,-10.4370263000649
1.044,2.353343259818063,7.799583783009203,2.113598023988094,15.742816153844018,-1.6076502705992786,2.336640991364397,-9.537080627347697,-7.788393397036604
1.048,2.4297057031034246,10.312317302137384,4.428533714566735,14.992166375803382,-0.7474352882440192,2.5113396404202453,-6.397259194018808,-4.222605811542527
1.052,2.3213105648361205,12.014599141517852,5.686831312990474,12.81713873962419,-0.28146491353925995,2.6539847336372975,-3.9365698940239984,-0.8080577143309284
1.056,1.7160443193015444,12.662975415933396,5.884148306077661,9.140057381894108,-0.20219742029173737,2.455799031226954,-2.5329352173601887,1.6520389716811277
1.06,0.4264431837635083,12.172500529468426,5.301027925510367,4.368654111927434,-0.41192147979957117,1.82986247269883,-1.893853422619797,2.935428859910239
1.064,-1.4087272219234528,10.682856525609301,4.407372492288681,-0.6352745157758664,-0.6781441049576302,0.968587467078818,-1.3327070017361589,3.3846657098344526
1.068,-3.3118455177247643,8.556537283688606,3.6827115174831255,-4.8631423799700215,-0.6939871144636367,0.2285098324349315,-0.2247486534065386,3.5944516305695045
1.072,-4.671752489706876,6.281459165957252,3.41745946950877,-7.596275396850983,-0.2527918325897307,-0.08180387115200238,1.605947857021477,3.9912300206471985
1.076,-5.070931537871104,4.289209507680293,3.5409270339683157,-8.745829724342862,0.5287121966364579,0.10011625096591059,3.7585591738265283,4.555511334299309
1.08,-4.537042138385031,2.772415714889627,3.596048035815997,-8.877108223108754,1.1072784546415884,0.550968011616308,5.441095607673405,4.84766601439045
1.084,-3.572039826539611,1.5945972192325675,2.8899103868695892,-8.894724911690707,0.6446286608130603,0.8884556425033101,5.850490064431577,4.309962517571175
1.088,-2.91686907673241,0.3623144145179982,0.7906877735102036,-9.543518593308342,-1.6245642726679224,0.8042031572536108,4.546469156018013,2.6582080981417686
1.092,-3.1619829915907145,-1.352717571692028,-2.941106839346107,-10.992862834413376,-5.94060483423722,0.2645822796124393,1.6437177107314227,0.1175124061798245
1.096,-4.414948714361645,-3.7456279212927086,-7.963590155114403,-12.746192368791297,-11.736871365307834,-0.4627843115803123,-2.254857108070521,-2.644073464455663
1.1,-6.195853321341786,-6.589474445660139,-13.37760877496066,-13.903420335645785,-17.70735088496714,-0.9481508217324635,-6.325567053228436,-4.8462036740471
1.104,-7.632964352519598,-9.245767678181696,-17.993853583880302,-13.639929134515317,-22.259246948005188,-0.8393365720355392,-9.852241588424238,-6.002796728409877
1.108,-7.866338741564572,-10.888748712801279,-20.730320248021016,-11.634752638108473,-24.1568153945512,-0.052571595568670526,-12.451440925901853,-6.165888619549647
1.112,-6.454968166430127,-10.853004377785712,-20.974790520868986,-8.231508818932532,-23.04758636941592,1.1942675225395236,-14.107063037367247,-5.870090062556273
1.116,-3.606054051245615,-8.955348999520153,-18.803877587747884,-4.29343139289467,-19.618039331283587,2.4900654890051745,-15.046414717741765,-5.813891539477437
1.12,-0.10712898536078619,-5.624093682726988,-14.944780789671155,-0.8396916052221943,-15.283461804990852,3.4334696504421096,-15.538343705443452,-6.4601795035139595
1.124,3.001991327217624,-1.7669487968567008,-10.501516074687895,1.332655170746305,-11.56149997709155,3.8040853081604364,-15.722930378045337,-7.779689404432684
1.1280000000000001,4.867160657143696,1.5773402056002759,-6.547887441541739,1.883141071645916,-9.425646185782199,3.632782971630304,-15.55198299244481,-9.265705004014098
1.1320000000000001,5.164374609604998,3.643557604144167,-3.7515196632555625,0.9478946335386151,-8.950330377832653,3.151681700033839,-14.851404024690543,-10.197312511792052
1.1360000000000001,4.18259596371993,4.19679784783278,-2.221282428173666,-1.0296783845118052,-9.420816169364308,2.6360875146145126,-13.473223528153653,-10.002359808544197
1.1400000000000001,2.6381067276134145,3.5436377083470685,-1.5924427106741081,-3.5131882691159078,-9.799674167130538,2.254869356907361,-11.437966001648991,-8.526945817839618
1.1440000000000001,1.3201078041529155,2.3126371253582474,-1.2971184328992054,-6.035964539159917,-9.284677843373153,1.9930089942693334,-8.993673002737616,-6.0874569879156635
1.1480000000000001,0.7606748092969204,1.1425219740941062,-0.8528573966063551,-8.251516952765778,-7.647821427405574,1.6939100325996725,-6.5449498800445465,-3.289174773646659
1.1520000000000001,1.0890941240140664,0.4444788386923797,-0.02019967331996142,-9.894764963744135,-5.2059282658656585,1.1960473262591602,-4.474941016273279,-0.7209902328112534
1.156,2.081771890467446,0.32215345076877355,1.1812303646471958,-10.758771033352676,-2.520737427855634,0.4520084228569248,-2.972120377448027,1.3024839167063291
1.16,3.349472937014462,0.6401840160591323,2.5726613074411824,-10.728865611706674,-0.043723130180221226,-0.4216843046426275,-1.9552230082103188,2.829860092851547
1.164,4.530984278820207,1.154065418291986,3.9245020822762378,-9.865801237516973,2.0611527606606437,-1.1983165943525451,-1.1526630120624635,4.175836824262133
1.168,5.384145898038122,1.6056617353793436,5.009695694630885,-8.466325478041574,3.823961214371992,-1.6500249137062433,-0.30455353339002134,5.709586118020987
1.172,5.768421290373297,1.7523009585959954,5.598041456847659,-7.029479694782443,5.213554991796785,-1.6405996558558602,0.6280931541149855,7.642858350026405
1.176,5.569343687123884,1.3537856422616663,5.409671171912616,-6.12524449996436,5.919129661603481,-1.1807570846022806,1.363845863437965,9.909669434935829
1.18,4.672263500463486,0.19614837758615877,4.14260660013357,-6.188192110831004,5.367226724449598,-0.400444682766091,1.3918807299028702,12.18268128695925
1.184,3.0356582350728485,-1.8127159244150484,1.6015703339270013,-7.335797483393057,3.001680752861912,0.5253254074276184,0.22275036579485885,13.997133294795042
1.188,0.8355854172438422,-4.505906203160338,-2.103475672358175,-9.28322756015888,-1.3098934835494855,1.4652522046770224,-2.3152226682656067,14.92094188794711
1.192,-1.4319798033433941,-7.380050083673186,-6.413734154247567,-11.40143919124873,-6.993207481805754,2.3880999722057656,-5.898516901728891,14.702943055212927
1.196,-3.025036586790362,-9.691817999000229,-10.399441225792225,-12.932933359709523,-12.832631595302445,3.324559387332506,-9.776711200361,13.350141933203528
1.2,-3.2225735820867376,-10.723117674873306,-13.059182880654825,-13.268644702720607,-17.388579359690564,4.277760474853834,-13.06457115206009,11.124460256644973
1.204,-1.6803828113900485,-10.10397739326525,-13.74134806031151,-12.18358934217162,-19.585182025414888,5.1275688948224865,-15.123785551206506,8.462245014058759
1.208,1.3266518961132734,-8.012888367445942,-12.451855516237414,-9.917210353477632,-19.15783975633136,5.607791738683855,-15.82752657103558,5.851245451672603
1.212,4.939736993397574,-5.1191454823832885,-9.849739697168872,-7.060735013723672,-16.714844511229064,5.3962072412675255,-15.560382723172836,3.7091009608269454
1.216,8.032670519741476,-2.2884016538481435,-6.943923637711009,-4.334206004589996,-13.401471052623883,4.249396374383063,-14.962610541592799,2.284242171081949
1.22,9.683615368748889,-0.192122264413368,-4.615295837997695,-2.338767800283768,-10.339381695477813,2.1401638930836255,-14.550110671204285,1.608233965280919
1.224,9.563098101280564,0.9652716757199449,-3.2241636784529897,-1.388631388418677,-8.13819104163838,-0.6837961526706741,-14.41990436336803,1.5189611871524695
1.228,8.043244319707231,1.4652920172262547,-2.4958242864360862,-1.46506820470584,-6.7112625876844,-3.743730641867587,-14.192731654152825,1.7455097650074731
1.232,5.984895460526021,1.8480283418545045,-1.7338984432718645,-2.278243099056853,-5.461864678240254,-6.456807894831038,-13.220685768856779,2.023524335877781
1.236,4.315303109829374,2.5686217572323486,-0.2638134175194611,-3.409124421504311,-3.723044683523301,-8.324861968398793,-10.954985860687326,2.196596457823003
1.24,3.626919050283073,3.7487367891189987,2.1681528306905715,-4.452283209142273,-1.1846312219205053,-9.090771685217454,-7.2751932079973765,2.260488676464547
1.244,3.993976429822163,5.154374563714528,5.246714140109677,-5.114594743124618,1.9230414026627114,-8.812742518486267,-2.6222334667702687,2.3378586135698605
1.248,5.073065715323871,6.390810554148019,8.272387411579967,-5.2518672805303765,4.964230071961184,-7.822977102785627,2.1362000383201405,2.601954773306896
1.252,6.375280731719892,7.172152981104694,10.555713800873201,-4.865002760812698,7.243320399477204,-6.588342684041343,6.032556884705268,3.183658621924215
1.256,7.500142388713026,7.466124114544991,11.725849613338458,-4.106149146722323,8.322990498172837,-5.559794629325566,8.339253711268231,4.101321148017835
1.26,8.212446467438934,7.4357930300252875,11.7933859395353,-3.2780068283327815,8.14458416303977,-5.0426378798333875,8.777069884393924,5.242594224674498
1.264,8.356850363175521,7.238343269048697,10.946734495423529,-2.793174539124269,6.9089141740196816,-5.130832991681038,7.524075429746336,6.403147881578044
1.268,7.743985533592205,6.844780966198489,9.2731893171551,-3.0489546614751615,4.847588307474466,-5.691676719444926,5.074412426938443,7.362197751440236
1.272,6.1620988609736616,6.030668973716646,6.638807277531907,-4.2318526753390975,2.0710491072543666,-6.398512377030421,2.035081085030293,7.948152381828876
1.276,3.5351826165681617,4.5477136426815745,2.8048941022891176,-6.15950852655617,-1.4149188828386174,-6.84671891590949,-1.0654423931321828,8.05659363341558
1.28,0.14396846168728517,2.3750951165256096,-2.2528962588448156,-8.250812770114809,-5.521223576403326,-6.707059252485767,-3.8789426225669215,7.625973144451622
1.284,-3.274846713522873,-0.12261574283410814,-8.044448866395088,-9.69068762169849,-9.853200485927834,-5.880265011527147,-6.250207047943909,6.606333476596484
1.288,-5.682015934184093,-2.245754139850006,-13.493210072237728,-9.737206539441221,-13.620910865989694,-4.570599659826721,-8.151247949050772,4.970219929093622
1.292,-6.123300276540606,-3.212664516789772,-17.190473758350514,-8.036421708987007,-15.785209791932008,-3.2184957283042577,-9.57844829689406,2.77684933347108
1.296,-4.186838619743245,-2.4972814137922494,-17.930249927600986,-4.806707988501602,-15.422666107020861,-2.328623683842217,-10.474586145672983,0.26051245742925055
1.3,-0.27096432272919635,-0.06616839791095463,-15.241724171443188,-0.7761385795307917,-12.13749421531652,-2.2422575134545006,-10.70364661218729,-2.127382778789859
1.304,4.503287809192548,3.6022433481360085,-9.662107614198884,3.096369580933705,-6.321104082435662,-2.9806059066641843,-10.107612179918103,-3.7909380502392382
1.308,8.72144610097919,7.716482122664471,-2.5859634897420336,5.991180111776485,0.8893521972383711,-4.2311766617159,-8.618021736436813,-4.174311362736894
1.312,11.257037810940714,11.475143998298229,4.265396500395046,7.520382713034306,7.964257558617263,-5.482941602470153,-6.3599287546107375,-2.9932483338494666
1.316,11.709063130085724,14.316200735340392,9.474873380191568,7.795066943445308,13.488257878224115,-6.272905433611193,-3.6816843299776734,-0.3913055158812635
1.32,10.498859165589128,16.020345588186395,12.397649689091278,7.273265447023695,16.61899510297715,-6.388264564266361,-1.0540289227069124,3.0778007363362114
1.324,8.60074758639264,16.65946208457332,13.266658569266749,6.495087958970721,17.313528841054737,-5.921421388589204,1.1344632964520267,6.658626181593708
1.328,7.074385439724623,16.472111282126157,12.946330376599075,5.874549350721461,16.254879590566347,-5.140483423937386,2.786190387974714,9.70686580726664
1.332,6.638565880715717,15.751937010935759,12.48845572776579,5.637133278032525,14.525665856509157,-4.257015379933399,4.178005321489644,11.944364372215933
1.336,7.434017905762481,14.757748693598987,12.635632392479657,5.838843935985025,13.129977443826789,-3.290718072634375,5.792003968746882,13.49222379228825
1.34,9.026693336587858,13.634729546884317,13.474212173806093,6.386416905185667,12.542974081172797,-2.1283347592012705,7.926267034935565,14.647787437093264
1.344,10.58418700033393,12.327903369409858,14.34148191744707,6.98791761940657,12.454279334570789,-0.7645827625852345,10.270237116475197,15.52321900337348
1.348,11.130092158238675,10.521426084589399,14.029721544916416,7.082937430235182,11.830316247902834,0.4513704910584644,11.731422266668737,15.766725417050829
1.352,9.813776088769771,7.678889209097402,11.24740446134091,5.880234528859683,9.310167838498474,0.7805506335808836,10.713917264885627,14.571890196300727
1.356,6.15515392813421,3.2239597779787497,5.1623623668496545,2.5844589090489114,3.8034709403294906,-0.6506419170284552,5.805412456219509,11.030028642619225
1.36,0.25929732138328987,-3.139070054077828,-4.125294488125396,-3.181690814793525,-4.905194173148303,-4.363016971154028,-3.386769989828175,4.682111178645252
1.364,-7.053015012404883,-11.087764784348908,-15.377113546842528,-10.94354861232828,-15.803346060043628,-10.065218726655033,-15.684572996920727,-4.01447606217809
1.368,-14.279830375394233,-19.499484604765303,-26.376385814958596,-19.190593820143988,-26.729730489821755,-16.494417220535944,-28.408082254731546,-13.563076151694686
1.372,-19.528488395558984,-26.58763171729271,-34.46319061795793,-25.65221243159963,-34.93160783064044,-21.71091715142138,-38.1445909710729,-21.777570465850737
1.3760000000000001,-21.071824273842335,-30.407094264195912,-37.3572875758014,-28.05597177087819,-37.96946860830114,-23.81069910454994,-41.96886413150711,-26.504148679785143
1.3800000000000001,-18.004698759353246,-29.564727396722095,-33.97246304835523,-25.081400901170188,-34.63214995542593,-21.731458676564216,-38.58961974802448,-26.41141819417544
1.3840000000000001,-10.727263128199779,-23.844435180065027,-24.90490935056001,-17.062230414648695,-25.48316602754156,-15.770525250262729,-28.904156359076495,-21.498506309481627
1.3880000000000001,-0.9750179805409966,-14.43634567742494,-12.32997164763882,-6.036420418146323,-12.760929877104974,-7.529711403732665,-15.67482784894845,-13.090282251585998
1.3920000000000001,8.70793792500284,-3.6143190569525627,0.7183715145727412,4.963353992130928,0.3795503731565777,0.7180289269769875,-2.45964959336321,-3.3221974260159577
1.3960000000000001,15.859214682717514,6.0234692778709995,11.371205930050364,13.069106260463858,10.963721286944917,6.920792519761479,7.7069461834295945,5.6399924851271
1.4000000000000001,18.98447321132518,12.441497592190634,17.854087462227263,16.668150890751257,17.18697456140233,9.993996132814416,13.315222986032616,12.30850034955603
1.4040000000000001,18.045324043521376,14.803347800009293,19.93200446304315,15.91277796514453,18.881438157038012,10.077622875111814,14.65896176416738,16.232106647613694
1.408,14.32942684926479,13.607429278452468,18.72647654671454,12.44006556804096,17.29543747795356,8.253178942742986,13.347617006984908,17.908481988821595
1.412,9.785221099280244,10.310844218632274,16.05552608177787,8.492028502647615,14.348613877624455,5.925372779806187,11.373301302893758,18.35901729722206
1.416,6.131882251614185,6.624261119239509,13.584146140715712,5.87545506034895,11.721886766980914,4.169401097313869,10.193506164166056,18.59048878398582
1.42,4.1775118071382,3.8226878761082532,12.20155261823952,5.278643890716475,10.224040560381528,3.3634279624390495,10.246671680579487,19.19589795380257
1.424,3.639896825468231,2.3662782959368966,11.858472113384497,6.220111000862734,9.685501441742975,3.215930367556593,11.048211519124202,20.231913199464305
1.428,3.5034657592957736,1.9464828180051408,11.871960689934927,7.562062950962019,9.347902882914491,3.1056522217356477,11.70374457917741,21.364082216067146
1.432,2.6824429750590424,1.8554775917729072,11.477460436213724,8.24177932330223,8.472994485191705,2.5129903537592053,11.521042044060243,22.160972323999985
1.436,0.6109487388468098,1.4286823958751835,10.272022982163971,7.786930961037576,6.794116164758421,1.2832499471758911,10.380275824880375,22.364509631664458
1.44,-2.519466607456293,0.33529265336019565,8.351007474621817,6.395153588345703,4.593035397028915,-0.36157662015975955,8.719307441069851,22.01113807040057
1.444,-5.952535513289071,-1.3896430945639615,6.114964467428677,4.619610568904111,2.4179506596871336,-2.014060627057787,7.2052960846923755,21.371038305099145
1.448,-8.825200922387506,-3.5058042392074573,3.94209123366971,2.93690283678681,0.6795615426437478,-3.308303001681168,6.329330486903496,20.769413171446935
1.452,-10.602418633275754,-5.758901574808586,1.9715847237838275,1.5003082536183157,-0.5817915113683392,-4.039075411549518,6.16651334484513,20.4001432452904
1.456,-11.285697564524611,-7.985450443938962,0.08536661822178115,0.17436464020469278,-1.6418239402586376,-4.169686087994742,6.393339173896392,20.218216406871456
1.46,-11.30988201788924,-10.075885656739938,-1.9122360736436312,-1.2175753961780285,-2.8046490310481422,-3.7584855842466727,6.528948108946447,19.954055714532025
1.464,-11.232736322491302,-11.867823848651106,-4.070710144792182,-2.6473884486215375,-4.099276280692018,-2.902857891118858,6.229249764590217,19.244791874808104
1.468,-11.414291535054733,-13.095395818295723,-6.179451473581278,-3.819110649848491,-5.182081967928269,-1.7371819511509683,5.462471886803504,17.809569345832628
1.472,-11.85241389896331,-13.45674623838423,-7.826063274372395,-4.315639700001508,-5.516837278084004,-0.452084279068532,4.489015455598666,15.594460141344308
1.476,-12.250804418470228,-12.78957084272546,-8.624324868898494,-3.865230745063739,-4.740347609741475,0.6843796092531531,3.6623478382721384,12.82665561249201
1.48,-12.236960437491636,-11.23859441829833,-8.449576341937872,-2.5316361713732927,-2.9629565813686725,1.372322335493054,3.1959154151580105,9.948476159676083
1.484,-11.58971877953534,-9.282304337019003,-7.536929195349221,-0.7023270378790665,-0.7942241344529197,1.3842252036604206,3.0330405994067053,7.466750244697125
1.488,-10.343913593557303,-7.561217208030532,-6.365960218829537,1.1173099870695062,0.9558112951686404,0.6852564258319509,2.9026320232922105,5.791324366362712
1.492,-8.728442338462317,-6.575850799822442,-5.385665997001077,2.5742440229528056,1.7430818685078995,-0.5027601849999823,2.5321242756409195,5.124845855879969
1.496,-7.022371872433889,-6.434310929385989,-4.782745647870648,3.605789730906003,1.6235303542690618,-1.778661618468918,1.8647551768279165,5.435819688703286
1.5,-5.424319014610138,-6.802113822066738,-4.411749378164597,4.376463677185884,1.2476385767673452,-2.7359067707932176,1.1589688307593664,6.513190162202532
1.504,-4.015399484117135,-7.103733718925971,-3.931095749049466,5.0695790514422825,1.4956720181160308,-3.1525006531896276,0.8975187927909318,8.065189115588227
1.508,-2.8229035768932085,-6.8678798636867215,-3.043402422759759,5.694564827409902,2.9577740363237464,-3.0831321616428022,1.5420530600556033,9.809609337537264
1.512,-1.9087434031737927,-6.01379023223088,-1.680252797225253,6.060314423172251,5.567188935732467,-2.7855136750257206,3.268835215532904,11.521443821410914
1.516,-1.4178697439289742,-4.9250969118194465,-0.06359875084773492,5.9068118219335,8.576465318961887,-2.5592686355267693,5.814060746381857,13.025097845424233
1.52,-1.5366418849063144,-4.261066196056063,1.3865608714801478,5.104478474299443,10.896349873150342,-2.5829387773594394,8.523822885125144,14.15371116929911
1.524,-2.3823807189941117,-4.606830983054665,2.226541065493728,3.7683791271265914,11.608814096818564,-2.848904815990328,10.592019061959494,14.713684435571025
1.528,-3.893297012074158,-6.154389994236007,2.157367395020369,2.2074142110668737,10.379742610248279,-3.225797789727927,11.381047437179669,14.492756163745327
1.532,-5.787260177364226,-8.585994657615338,1.1262965000456306,0.7466531279088607,7.570217634537608,-3.5830997233780346,10.670650301927374,13.320897608109885
1.536,-7.648508850432375,-11.228564372445886,-0.6996912959761135,-0.47733128688652837,3.996063428730103,-3.9148349955723267,8.713473650686112,11.153043538961125
1.54,-9.099533638325621,-13.375424216507964,-3.01958471274856,-1.5919908869860537,0.5070281439362785,-4.356663784437714,6.0877137733666,8.137475413087323
1.544,-9.96671618601314,-14.594316597550456,-5.4913075991926705,-2.8828535411787843,-2.3827473509217185,-5.092729504734661,3.4186833256426907,4.621038292638352
1.548,-10.339475942945928,-14.863492472895292,-7.783402016940713,-4.564482161650851,-4.623547935410534,-6.205032718154046,1.1111272091808904,1.071556247889081
1.552,-10.477254819127042,-14.474389314139831,-9.578072780273098,-6.560323381062007,-6.479284879681206,-7.561156060205659,-0.7678902003191881,-2.058523672488554
1.556,-10.624017799240649,-13.795199429048388,-10.60960662486881,-8.461609776319062,-8.243886839409578,-8.853563447578805,-2.43414514133357,-4.479520753210984
1.56,-10.824060822164414,-13.042697869141232,-10.734522064334271,-9.693498383087864,-10.000285676919988,-9.76147647388839,-4.198452968434339,-6.151582563581242
1.564,-10.867405782618793,-12.196272282747305,-10.018571520865661,-9.809199354000308,-11.568458635600404,-10.150954942302256,-6.261325124918355,-7.269587296717258
1.568,-10.410197134286147,-11.090778203111533,-8.76646102255568,-8.748783321054814,-12.645736294192176,-10.180885962179408,-8.593655425798408,-8.156978591888713
1.572,-9.200615643964849,-9.601647751895472,-7.425802584954615,-6.906416362468487,-13.019564283491249,-10.219827783101668,-10.939059085303938,-9.111648172250613
1.576,-7.304433023952742,-7.815692841327148,-6.436446259760716,-4.99976314782112,-12.737775337031707,-10.64026139724363,-12.950983787904917,-10.283195029325208
1.58,-5.190157198494213,-6.079751724416747,-6.074617634911672,-3.8109825379247666,-12.136687422334653,-11.59886379918916,-14.372725668585556,-11.64706229090762
1.584,-3.602251855383102,-4.898277259581439,-6.385714014652445,-3.9311808968684656,-11.723055804830107,-12.943280250558745,-15.165897438277224,-13.08349928026891
1.588,-3.2594001079599844,-4.728864047127878,-7.224945334952102,-5.601028955094374,-11.963708553269871,-14.290407666856183,-15.520774043520642,-14.495381435363438
1.592,-4.5132533532424945,-5.772145712251758,-8.362518155704846,-8.676068192257311,-13.076716236460783,-15.223499068170662,-15.744975615576447,-15.883453359727838
1.596,-7.147223665163499,-7.864603462409065,-9.611828155533217,-12.7042399815798,-14.9284893887197,-15.509541433589309,-16.0983054953506,-17.30934934390415
1.6,-10.42869449562465,-10.521662780002416,-10.887496036922272,-17.04572088218206,-17.068499337679274,-15.187784868999282,-16.650418916425885,-18.762257328266326
1.604,-13.406010382569537,-13.112526655732712,-12.176516344825302,-21.007408773118662,-18.889436439642097,-14.49506400482083,-17.237497823737556,-20.021478145972896
1.608,-15.308099802608522,-15.089837862585306,-13.451074842334075,-23.977349898761652,-19.847150891427145,-13.676727333572211,-17.535035018220988,-20.62872396781721
1.612,-15.851326066061722,-16.182079964932296,-14.59045058002371,-25.558519902726143,-19.6681630429145,-12.805363388991807,-17.20855397412212,-20.038745850267873
1.616,-15.321072260546003,-16.47876174487142,-15.410399093163228,-25.700990524939368,-18.48627598061006,-11.756450454422586,-16.08649579249348,-17.910432812088896
1.62,-14.377669733531278,-16.356722697563416,-15.761510236556155,-24.74259988191291,-16.822574135658854,-10.33328501182368,-14.25529496390201,-14.383961968186961
1.624,-13.685838783331539,-16.27032202036814,-15.626081760924512,-23.29772777725932,-15.397833682157064,-8.462369871748109,-12.033172848124853,-10.167491558911241
1.6280000000000001,-13.55078818598827,-16.487772525967273,-15.116314784440961,-21.987063579831396,-14.824955689083309,-6.308982389807741,-9.833338231685662,-6.334816951264105
1.6320000000000001,-13.734849935404794,-16.8884507441556,-14.34292969427912,-21.098917496358627,-15.295297227974501,-4.216037047072009,-7.974998853803379,-3.8978609526998937
1.6360000000000001,-13.568712664221042,-16.95347020522043,-13.285199033045703,-20.389086564266158,-16.436612221238065,-2.5321926920695303,-6.55898308668239,-3.363787191912555
1.6400000000000001,-12.302514975578465,-15.978644713530834,-11.751969078715867,-19.155014795245094,-17.430648542229974,-1.4250011334436712,-5.465459218898945,-4.5017687762862835
1.6440000000000001,-9.52344265063455,-13.432565234859476,-9.502751586544065,-16.600176466077926,-17.369690209523647,-0.817952146819698,-4.475557815088452,-6.459981553138356
1.6480000000000001,-5.430585444002716,-9.281973003274205,-6.469625974693675,-12.320847169136082,-15.692338902836735,-0.4829918323305695,-3.434818000469884,-8.180273463528863
1.6520000000000001,-0.8174847633511022,-4.104780751299252,-2.925925561192067,-6.64088330922241,-12.475752932157842,-0.21064179776901626,-2.359044725054539,-8.888582902386366
1.6560000000000001,3.2335678178524874,1.0862963494538977,0.4994850475700834,-0.6007578408269394,-8.441121144543278,0.03967792541957649,-1.4236992319558461,-8.402013132526392
1.6600000000000001,5.815962303581802,5.253720190732961,3.051102362062198,4.452895476010266,-4.638225546258362,0.14135928190282354,-0.8295330077047061,-7.0993711621132025
1.6640000000000001,6.596580713721183,7.785382917259661,4.220793573407764,7.483079376445109,-1.963862698947834,-0.048616371933165814,-0.6306785040737466,-5.606222822628534
1.668,5.9370751098682035,8.732862098238288,4.020896404821047,8.231502679794124,-0.7803892272674091,-0.5239226457200594,-0.6521997723973905,-4.390601252083503
1.672,4.696279552362901,8.718737428282836,3.028846608230493,7.306949896066938,-0.8071585950968312,-1.0453525470104592,-0.5437860890979103,-3.512331847627335
1.676,3.799011103392578,8.553872703355282,2.128975452212395,5.828745013413279,-1.3402656026267783,-1.2269859956795546,0.04019409452599643,-2.673594818710616
1.68,3.773052128162751,8.764079609855973,2.0432306550343027,4.803809612471698,-1.6823159349931118,-0.7585507321672762,1.2199907638624297,-1.5060075351905264
1.684,4.502827194536135,9.298451922782267,2.9275193498955083,4.59812953517824,-1.5302068409142398,0.3866216256903459,2.7775129232773033,0.10515041550377813
1.688,5.314510287830543,9.570629873423854,4.239850411729588,4.783722565855662,-1.1193942919577053,1.8867377115594846,4.214036499043333,1.8774986008302208
1.692,5.37388805652048,8.834083590102571,5.021540374337398,4.471373343081387,-1.0288416698706406,3.2399843371250396,4.993196169359431,3.273086650869824
1.696,4.188821166301889,6.677623486201174,4.446299482779327,2.9242782521763493,-1.773976244712344,4.0581274130226594,4.842380737050025,3.8309254637327874
1.7,1.9335008238235831,3.343138776948063,2.3201257922487892,0.07486775731018547,-3.432932759783913,4.284168402242191,3.9308164612997514,3.4761069839471745
1.704,-0.5743600326938854,-0.30761218892394115,-0.7257791461284464,-3.354810329773776,-5.51529308250321,4.1959408906568685,2.8278281093062767,2.593923860322816
1.708,-2.256118559355021,-3.1702607646586194,-3.4926043136081013,-6.203970930895312,-7.153045679558323,4.175132536642205,2.2351957761528,1.8202140263046571
1.712,-2.3014671261735957,-4.4016439674083205,-4.758107250024813,-7.46534242890773,-7.493949962022297,4.425548637796496,2.646448342760435,1.6672349677609697
1.716,-0.5604337260377665,-3.77753420472283,-3.8347556304143553,-6.784998442672389,-6.094479558111588,4.825208866349791,4.102711020833152,2.2121729308218843
1.72,2.3934944292843148,-1.7365277957712504,-0.8936649849618379,-4.6056489820515605,-3.12628901252302,5.0063620140307545,6.15063419577139,3.038329837665989
1.724,5.57720475440939,0.8988398718358545,3.1117735026294264,-1.8794636356523313,0.6935754603500861,4.631215365416988,8.043706416106268,3.4595416068115346
1.728,8.10762406924345,3.344177326724411,6.8496174403450665,0.4536071729534973,4.399542998782938,3.6712649005349762,9.077488619539695,2.9202549907574307
1.732,9.636653245983634,5.199436600272259,9.183609650736836,1.9397803112100025,7.1683184261624415,2.519806276230247,8.901403954286284,1.335531730959853
1.736,10.46559454812552,6.542904266813894,9.63496066332755,2.772122332836182,8.616619378225586,1.8335440841892774,7.671734645930522,-0.8208743759327333
1.74,11.267823100543836,7.740364502593391,8.509067363022485,3.5576788752411836,8.882909948231667,2.1721658238352344,5.967967527749073,-2.721149309570992
1.744,12.59778025232486,9.116199247454347,6.68107755667072,4.861294336225892,8.487768170663632,3.6594750267463803,4.5402132453181,-3.5746559889206457
1.748,14.46127335055755,10.667957545520395,5.132798098614273,6.783822364327998,8.036479676805309,5.855284603673111,3.9970511389792494,-2.992140979561206
1.752,16.22977027628842,11.998733938574954,4.506522050168771,8.838935861839625,7.924437267286732,7.95633877873785,4.57408874607765,-1.1279040713334432
1.756,16.966847901605906,12.495808245061866,4.867510506757376,10.191351318812229,8.171684701508916,9.214962005066052,6.07519341421221,1.4588394488004761
1.76,15.977925968273286,11.645763256577741,5.73713882715452,10.110638300779652,8.443285083994123,9.328100832407419,7.97890943636955,4.139581138922635
1.764,13.276308736466262,9.32926044774116,6.377391044635798,8.40213317868723,8.24738994385363,8.582190638401684,9.660819402998083,6.5470712896903835
1.768,9.671918004287045,5.939389012538132,6.156809849749068,5.575860136463254,7.213175509995026,7.663610704442773,10.626250292061943,8.73539969063035
1.772,6.425143729314259,2.283359555084888,4.872859053445258,2.6933674533678347,5.33878036448761,7.2790089978736034,10.683603177961919,11.083845182612784
1.776,4.637653073270811,-0.6860468556634807,2.887416829657648,0.9522962561841135,3.090196245872196,7.794715279040303,10.006031970926543,14.000597793776654
1.78,4.689610717195425,-2.2109852855612626,0.9895091603616741,1.1802255331022966,1.2760229638535012,9.071256199042379,9.055120551312465,17.59859590670777
1.784,6.041686552202793,-1.9964169953691773,0.060192623428266145,3.464335561919956,0.7349316856382391,10.57192791364069,8.398287089225912,21.503370088435265
1.788,7.505950171671768,-0.3138030989344438,0.6638106953627867,7.056147317481967,1.9623266341587353,11.641692806608106,8.478543460056507,24.912377502961032
1.792,7.861145524044011,2.1127644745715513,2.7959832281751265,10.6298795070111,4.874444516655716,11.82422436690048,9.440594225937742,26.89495012203564
1.796,6.485077839080317,4.399874968526463,5.9022986792050185,12.801775905109892,8.827313775942741,11.059395338738582,11.094083986636509,26.798877098347013
1.8,3.6639062317427245,5.850160434939033,9.129895353791152,12.69529750376882,12.884978748957995,9.673750647287134,13.004647960126125,24.573811991766103
1.804,0.4338268378024812,6.219073118218104,11.700266022295986,10.330578135563595,16.213472235850947,8.207310008991012,14.685499774064528,20.838359060972756
1.808,-1.955037041501082,5.781418523716528,13.19563885724735,6.648413042070179,18.40076896345498,7.170688255038959,15.784009471755947,16.65666396604324
1.812,-2.6338789222996626,5.181765566870986,13.673123782672215,3.1684720825967414,19.569431270611364,6.8768394953493015,16.19765436509834,13.129620941267904
1.816,-1.4698441213035993,5.131742551022332,13.56097571568591,1.3990695269251319,20.22827635257136,7.3875186120559935,16.062885108858435,10.979456395846535
1.82,0.9629017436827976,6.068059519294428,13.383814213478647,2.2198377525738904,20.937677165311047,8.543135647173704,15.622446541921242,10.317083652297288
1.824,3.7464100656200903,7.93501129073497,13.48313315922362,5.51896214851727,21.971972557149382,10.047207057476916,15.063053258356772,10.681224890536122
1.828,6.065720536841093,10.183140005077963,13.840710824640217,10.23422808874248,23.14008743359161,11.548289867840712,14.398950139965706,11.318793526327884
1.832,7.515288865223788,12.004147575395251,14.1175316921302,14.8068956165161,23.866379921101945,12.732573739828132,13.493053060077898,11.554562198900774
1.836,8.131711374314428,12.695431734580184,13.8656445465148,17.835925668453417,23.474877552242248,13.408357319886925,12.204965304638415,11.064607500991213
1.84,8.181899050127347,11.97489946033724,12.760362613888063,18.617752687723858,21.51209903732202,13.551025654952081,10.549648942469393,9.945611266651092
1.844,7.885198785657696,10.099483272599613,10.75082818343991,17.332482027485824,17.950566091487833,13.294279986388034,8.777432350007778,8.566359415715684
1.848,7.237050535928871,7.719542213406612,8.040295443571516,14.79458234632812,13.181889229138353,12.836927909587736,7.292191157853425,7.313036922798025
1.852,6.049629500498774,5.56894857408329,4.984367108502735,11.964268060045725,7.858688928794776,12.334081009247953,6.45589616448445,6.386842660242353
1.856,4.1621481185982505,4.156288003156585,1.9844541183341953,9.500896791487818,2.6965332337447494,11.82695295989946,6.392169817107618,5.764968976224198
1.86,1.6513392282797668,3.5958987943366614,-0.5894152546741709,7.57722316422543,-1.6750287973014895,11.24023218487871,6.894067224105882,5.322903959675
1.864,-1.0882745313306188,3.658474724652386,-2.416642287281687,6.025059880257022,-4.767454873143096,10.466442439977317,7.511300304366825,5.002434533905014
1.868,-3.469101395750907,3.9805768955055374,-3.2533131249283276,4.653118292023187,-6.241433949145444,9.470390115604118,7.774481445180082,4.9056735520906605
1.872,-4.9490393005036655,4.309385297200482,-2.9597152558049533,3.5215236737063336,-5.913360379534462,8.371382598696206,7.450291577124272,5.239531318162207
1.8760000000000001,-5.264854308645903,4.6300090457465055,-1.5525701067115403,2.965430125990274,-3.8155055563862437,7.421413245524917,6.679064245313729,6.132638819195879
1.8800000000000001,-4.544283683891252,5.106750744681037,0.7338932140023502,3.34723793581482,-0.2882473525728724,6.873710452201852,5.898903687683363,7.454820004512925
1.8840000000000001,-3.2312447639488067,5.89576028981878,3.4607709690830664,4.7263064711132685,3.9833578350345933,6.821982259679485,5.6048267944172725,8.758267199706216
1.8880000000000001,-1.8904887309654632,6.947775445067021,6.061710161747423,6.668263745352448,8.053483637099827,7.0959916880564355,6.04932803864141,9.406970365473594
1.8920000000000001,-0.9690136188269189,7.95572061322231,8.017319502783199,8.380264875789912,10.955877041009083,7.324321271684631,7.0596255260730585,8.841397594756344
1.8960000000000001,-0.624295092297333,8.492432174250581,9.043392413694788,9.114901707897495,12.015579361972865,7.134467034436316,8.078260653446804,6.838977668669093
1.9000000000000001,-0.7023275466305733,8.243727938205117,9.161854353005097,8.590102859058154,11.07583604182104,6.373197062026177,8.395465595373743,3.626186329051036
1.9040000000000001,-0.8498527225199037,7.203331233360135,8.633528646741489,7.165922349598586,8.520943208523617,5.218283232608213,7.4711386729997695,-0.23758088055250237
1.9080000000000001,-0.7159220848956265,5.687854829054597,7.757019654004699,5.633421459420285,5.0662668142902545,4.085329424895836,5.172129244994965,-4.132266768769142
1.9120000000000001,-0.13659000398686638,4.159758276996073,6.692575309702857,4.748139506740367,1.4374186132120248,3.4046573939532676,1.8270045931686145,-7.651494545356584
1.9160000000000001,0.7777758582202592,2.965458515633159,5.417140043115073,4.781910478997911,-1.8926126001735417,3.3926257971001554,-1.919517286298905,-10.72639376341951
1.92,1.6790601540050076,2.1459318339346805,3.81954807356444,5.363191410974531,-4.779387518887584,3.950275376925577,-5.374367988767506,-13.512910581528203
1.924,2.146038591422033,1.459574998673221,1.8956399756903384,5.729410235440085,-7.265124090308344,4.764437803656376,-8.031633414640073,-16.12843903924707
1.928,1.8917728912257776,0.6016850846101311,-0.12288009844710324,5.228114858960412,-9.338651741805862,5.531354879443872,-9.689805231422255,-18.401046252400906
1.932,0.9304832828319712,-0.5086859958575389,-1.7748856486080706,3.7725524652163323,-10.75944112266798,6.176577033352532,-10.407444524942246,-19.804122294824424
1.936,-0.38196672109055196,-1.5678087042105289,-2.5427166909461074,1.9552971282541547,-11.086023514256453,6.915820344357034,-10.354112039215464,-19.651440922369535
1.94,-1.4913916895343982,-1.9978627104801008,-2.1416471275534903,0.7223481762951576,-9.920184405784715,8.095498401828229,-9.671481265750607,-17.45688434010811
1.944,-1.9026589523683168,-1.2767129258762264,-0.7286242534140019,0.8093351223012721,-7.211359246857229,9.917095780239762,-8.40512744149255,-13.265122464958111
1.948,-1.443473642428844,0.686578822205881,1.0875188553277977,2.2690975947769996,-3.4226617255410305,12.201150137361655,-6.539874023223607,-7.7438542547863065
1.952,-0.37215002514443785,3.3961861808013833,2.521187543320754,4.4172307958955805,0.6025388274490862,14.386146642700755,-4.078828608927552,-1.953941588067596
1.956,0.7485792957820883,5.96198307137951,3.0426649132066017,6.245611564783114,4.038174992876449,15.779979009510864,-1.112121052499368,3.085176940699294
1.96,1.3574233490400371,7.55442046106992,2.7112787360090804,7.058180724456454,6.507822002123677,15.922679924756796,2.1573684639827078,6.806614192885914
1.964,1.231680451066115,7.8770438768776,2.2206809695357714,6.944444372421179,8.282159106778728,14.854954088060552,5.439024840179101,9.241775755026744
1.968,0.6376810537277163,7.3511334417134755,2.5491604323541974,6.756940377018241,10.07255395343667,13.105405867992538,8.377871133881213,10.813047931385253
1.972,0.20490274517652673,6.890026822474207,4.410115353710113,7.597781315616939,12.525263299137977,11.417476763504585,10.582548136165219,11.908609769123052
1.976,0.5786812664001177,7.372078953694546,7.7946142883231,10.108772395984861,15.708481272665225,10.369676352702228,11.682646275934058,12.517159851861786
1.98,2.028934248667678,9.1071199459296,11.856869972376412,13.985100378676709,18.916899440598804,10.103781706824492,11.41546783437261,12.178948795415767
1.984,4.266966322716149,11.630857554932932,15.267004779418414,18.041144384842667,20.97066248500232,10.329366194283159,9.760044120233474,10.315450745795012
1.988,6.573653870131967,13.944637959147324,16.830956021526532,20.798075474489814,20.855975608063076,10.570668611070566,7.047184986852541,6.744044969128316
1.992,8.194052775788222,15.075177085723993,16.088101322117968,21.291812456200834,18.3618358879489,10.507636855747434,3.965042807934159,2.0365019657564343
1.996,8.750677668765876,14.601901082497996,13.531225049863275,19.60880216984758,14.292298938623041,10.167342986057433,1.3752196011873656,-2.5818924739786384
2.0,8.399766919595008,12.813332353689228,10.278031109960772,16.79830712882181,10.065383604873974,9.820814747619739,-0.058323683553132,-5.811958219084852
2.004,7.640085395672758,10.407752887854908,7.38914421336038,14.20573417793178,6.901397409114084,9.66040819749457,-0.26951358702478423,-7.053919673279831
2.008,6.865296246201005,7.919205138870713,5.187120220296343,12.59554814248827,5.04717144025812,9.46426936040113,-0.013632625437920431,-6.897846031166951
2.012,5.977576224042815,5.277279184207258,3.029808276444755,11.620457169142052,3.5488780882571778,8.5324640825444,-0.7059027160635072,-6.972084223254764
2.016,4.364473327507199,1.8371375597251522,-0.28184002190762136,10.00110525010811,0.7842178613241,6.004938329180689,-3.834307714949407,-9.125663926018243
2.02,1.3024448469342955,-3.0982644204521756,-5.67279026259191,6.348121714150708,-4.498448857573171,1.423429846069415,-10.167911439378418,-14.31794275102712
2.024,-3.4078282875224373,-9.556634343381587,-12.977511131279819,0.1859021758297601,-12.206119513703214,-4.7679530826376775,-19.12104797551339,-21.83601562880132
2.028,-8.991783675432805,-16.465748246718782,-20.67169806320316,-7.44956456396714,-20.596663750456557,-11.13270709687154,-28.645344530424268,-29.329696490664872
2.032,-13.767040523607792,-21.848749179156542,-26.33655276383432,-14.223645776103407,-26.876884380118582,-15.664112749567485,-35.78186748812739,-33.73501150142852
2.036,-15.790528736716407,-23.62755332185451,-27.676015985043346,-17.484574540669946,-28.443723656037328,-16.580389582871632,-37.70823215160877,-32.671468344494976
2.04,-13.811311466392832,-20.651543533218874,-23.608881338409233,-15.545515575137085,-24.140402481945515,-13.130385798312176,-32.8648452088745,-25.601596208990077
2.044,-8.005534851698917,-13.373523722405288,-14.84409722491097,-8.576286698557574,-14.844458520848505,-5.988241372881099,-21.636558678065754,-14.147690210508488
2.048,-0.0703230394073886,-3.7764988727178945,-3.6586815768949874,1.3689233086473074,-3.082719461622621,2.9586089184083555,-6.286202487966861,-1.3832815778641407
2.052,7.457767568352831,5.468102201090138,7.057927160114388,11.24829806567467,8.139774973723009,11.366130096165335,9.853510262741533,9.535559966794812
2.056,12.340029706516743,12.173735146370054,15.002556420101591,18.39588059075889,16.652803012797875,17.364504006415647,23.563997755076482,16.682845285868712
2.06,13.629225990185143,15.510287022839865,19.28194737988731,21.634761879925602,21.873653415334278,20.198494751789163,32.75370380292449,19.960831943824093
2.064,12.009289491179842,16.14326202884322,20.509613289483084,21.60560412234447,24.665686753791586,20.315373251713908,36.90450526197382,20.732900109162806
2.068,9.297198325461263,15.598707704733885,20.1655033654719,20.170332653510762,26.452423364919888,18.893016882551656,36.82250844058369,20.78149177612681
2.072,7.41103076720369,15.273505427185448,19.666133407645816,19.283184901973357,28.175138584201633,17.13122118876258,33.94564471686557,21.215694118604507
2.076,7.372404537619434,15.673568150694239,19.659128697665373,19.950175677019146,29.70738264479941,15.684613154405586,29.609853870170923,21.924765777988828
2.08,8.86703582935052,16.284084817110113,19.86796887161856,21.805482667779756,30.025098364469798,14.503831650434744,24.62758292255105,21.833662078739884
2.084,10.584341362675518,16.098727117594215,19.513970567248712,23.484276302833432,27.977901078936355,13.11661715735619,19.328213713050342,19.727634994085054
2.088,11.077989899365724,14.420369945071368,17.96682680711813,23.49838942839071,23.143932717341475,11.105213356111511,13.88878320530998,15.1172105261219
2.092,9.632713573044008,11.418668792537165,15.226311606215177,21.097013832457765,16.24121361180985,8.490591903309822,8.666665858412031,8.627403308019566
2.096,6.6397429564140715,8.096649473797475,11.954619907114868,16.642326028523577,8.857532139301544,5.795946266081245,4.281976319897718,1.7170292942062932
2.1,3.2935000899804,5.700168653921648,9.06410202139074,11.333998370822792,2.6760575328384553,3.7721273046363146,1.3870091463923648,-4.051357322059886
2.104,0.8497869551980104,4.958086124538977,7.166532568016972,6.514592624724441,-1.327311265479345,2.9779044998836546,0.2957376853353466,-7.752440388055149
2.108,-0.11162250976789423,5.620621050115658,6.198163092775377,2.9738751675426887,-3.263398527927576,3.4516303366931727,0.721590534681221,-9.424931112178589
2.112,0.03229621217106221,6.5979615468874675,5.486874703885585,0.6648428902491728,-4.082213365244632,4.693786656350458,1.8447558458286162,-9.832000751201068
2.116,0.2661674351202086,6.608724758563707,4.207635369441017,-1.052359044620084,-4.889865864126228,5.948556705298076,2.7117475135333096,-9.854012037964086
2.12,-0.3852770030933761,4.9420751974328265,1.9245483802672698,-2.849600452636626,-6.258523408513009,6.597189495326752,2.738560371270369,-9.90132468797813
2.124,-2.2357556868977637,1.8926146783245716,-1.08702521080638,-4.9142313915080456,-7.9214942520221285,6.445591277552416,2.041012639688839,-9.701169355778758
2.128,-4.755950447349035,-1.3948146370388304,-3.9572281454843754,-6.804809645342766,-9.005404028735382,5.734751229593786,1.3752058972319663,-8.547916946644175
2.132,-6.903620243371165,-3.5562155559827664,-5.668112757773246,-7.723279888181235,-8.601580277475849,4.910786631210698,1.7081476361260406,-5.841143813185697
2.136,-7.737112965835024,-3.7338423287049203,-5.569561746705862,-7.006864319625063,-6.311521741709827,4.312869886715682,3.656843460689216,-1.5720156609871565
2.14,-6.943804022736833,-1.9940192495540212,-3.6951719161757848,-4.538132173812298,-2.4549036743485875,3.965196109952306,7.093933213171091,3.529001902755583
2.144,-4.960050958233463,0.7871906774434476,-0.6887444837470804,-0.8216559549121024,2.154178928711751,3.604233867353858,11.150900411045733,8.245814156899497
2.148,-2.6678696092595438,3.4460427889940615,2.5514286511827065,3.2660823456288584,6.659739507101889,2.8884394505350293,14.611981437718775,11.379804129891914
2.152,-0.868798089135844,5.151256904677982,5.320845009463031,6.9037009011113035,10.567088160891927,1.6763938672996286,16.49333234232842,12.233631736764181
2.156,0.12799859643395894,5.759571763365407,7.384663532291643,9.657942946187815,13.850196442597335,0.1834702519895407,16.488339370234808,10.825305763080857
2.16,0.5486483329178089,5.7161008617115066,8.916214573302508,11.524666106109072,16.71644248413269,-1.098072680875913,15.028159695044973,7.765512267110028
2.164,0.859437062588001,5.623443405123703,10.1979777379334,12.71592875671411,19.228325957758535,-1.6604923334537844,12.950116552567643,3.902544391658868
2.168,1.3417088807523083,5.763539770331317,11.2605736236976,13.350789167234115,21.04201437028707,-1.2955894134687818,10.963899793407801,-0.05046187060230922
2.172,1.8470263354582452,5.8798733628339335,11.733638436150645,13.28611046004086,21.461271224436032,-0.25734617746705857,9.24548648619338,-3.7199849040529633
2.176,1.897849649950234,5.350101650580532,11.01372095872172,12.203379977241958,19.79026236398976,0.8249280310333167,7.395428130792087,-7.042270433321208
2.18,1.0406682971244483,3.6090979178055926,8.625503526227522,9.868119217893845,15.763771447838252,1.2350376962464844,4.767940815902181,-10.071910801895338
2.184,-0.7669428258501354,0.5714712766176999,4.591331086153724,6.394040105282287,9.811246654213859,0.523026658904424,0.9831453547739908,-12.782780440102783
2.188,-3.020363195775704,-3.2241766998843326,-0.45569435688543547,2.305688973704696,2.9728746509522255,-1.283530689649863,-3.7024774157489007,-14.991216349938714
2.192,-4.870843617743949,-6.825339541492713,-5.466785782846736,-1.6347056958060011,-3.480907158330024,-3.689051428842017,-8.382135049914202,-16.440889727895026
2.196,-5.551622558409033,-9.304779133429278,-9.39421588544513,-4.747099327691925,-8.5291142979573,-5.963760201202062,-11.874316362434229,-16.984446302345678
2.2,-4.788669513182883,-10.192309364934808,-11.63027918017412,-6.725846468528947,-11.738930545482628,-7.481749984002071,-13.296637304679201,-16.72672450782228
2.204,-2.9419662183895885,-9.651747693485893,-12.21326236865803,-7.716130445434488,-13.29767835645216,-7.9767380503949745,-12.499894428741747,-16.032198799400124
2.208,-0.8196216344921643,-8.340343357766315,-11.738855614841476,-8.164863460639754,-13.768329534657585,-7.62279924449798,-10.136730912444964,-15.367702901685842
2.212,0.7343271064479211,-7.040021175054617,-11.01285067182789,-8.53008779712572,-13.721683291326858,-6.8996146132564125,-7.319616903175621,-15.052347021926446
2.216,1.241273863297133,-6.274642050899281,-10.646327564469548,-9.01998654779296,-13.462079857428957,-6.331580661011415,-5.068824163912975,-15.057471092166892
2.22,0.7470244551741052,-6.132011460284622,-10.832321055953587,-9.52465220087339,-12.989826108752887,-6.253345205004898,-3.873389031515476,-14.983794511727098
2.224,-0.30401890018409894,-6.347609896088832,-11.36960941439316,-9.746372278077983,-12.169406356886203,-6.6949527205064365,-3.5801682292987103,-14.254440802297339
2.228,-1.3856026067597034,-6.575914993751738,-11.904657207986428,-9.444252130189922,-10.97455391572744,-7.432424247699009,-3.654248271277069,-12.44071819645021
2.232,-2.18195950091284,-6.6510413528270504,-12.190956453141043,-8.624832246812957,-9.612623957540862,-8.134909043720848,-3.6131080341338557,-9.559893003631156
2.236,-2.690423221508046,-6.6739355495220885,-12.20368338798098,-7.569287402041992,-8.441195305691942,-8.521725997353748,-3.3550337017149547,-6.185146270319126
2.24,-3.1220203484606155,-6.892208709510826,-12.07017474373309,-6.694365302512246,-7.734912674073595,-8.45968649462645,-3.1971863398799907,-3.28405912674463
2.244,-3.683402103258256,-7.449348713313891,-11.862319726322392,-6.324742332615277,-7.449802797053266,-7.967195912434644,-3.6098808576862154,-1.8490937359871076
2.248,-4.410214641982687,-8.193068198578004,-11.451863691566,-6.528696562998801,-7.172957454138615,-7.177038227176347,-4.8504809201310515,-2.483600829760687
2.2520000000000002,-5.147091859793076,-8.675155943297222,-10.520668960162897,-7.091764567352037,-6.303798300272224,-6.275880289306874,-6.738752725714535,-5.14553700679255
2.2560000000000002,-5.662366850720706,-8.364704259974008,-8.736061243682325,-7.635067572158473,-4.38552055914655,-5.454350298621565,-8.711295030600933,-9.175165863965105
2.2600000000000002,-5.815680126399553,-6.976001330310525,-6.010018362514437,-7.819884831357896,-1.409131769210393,-4.882047186567169,-10.134219422803408,-13.57858481055002
2.2640000000000002,-5.639725439955169,-4.7034095984191,-2.6432419470960076,-7.50773327248067,2.103025693723043,-4.6729173236885035,-10.656353110826828,-17.42675760815648
2.2680000000000002,-5.30290502195427,-2.229722483751826,0.7133133967742473,-6.815336272453845,5.277933674558259,-4.85364230809004,-10.388564356431068,-20.16417903880015
2.2720000000000002,-4.978053213038508,-0.46134398808055477,3.3050502850797887,-6.026932057250328,7.268074257550116,-5.324111456107402,-9.808542182639846,-21.687415690694014
2.2760000000000002,-4.714274365680014,-0.10660230099503654,4.59591047356827,-5.422714674191816,7.621156302613327,-5.857807846989827,-9.460886852070722,-22.201582037437944
2.2800000000000002,-4.414821334773709,-1.3214202401894535,4.47639475754745,-5.126824407494221,6.442949116786051,-6.17942677393651,-9.656145091771442,-21.97721054076441
2.2840000000000003,-3.916112004538797,-3.592004802106315,3.2887116549801276,-5.028811012401974,4.2986550430151445,-6.081094692721534,-10.334267253550621,-21.17172028859497
2.2880000000000003,-3.123576956479164,-5.941210423072437,1.6329829701722787,-4.836378372808857,1.904955935507028,-5.5446903432626655,-11.162814238788009,-19.818578087388765
2.2920000000000003,-2.10240590120392,-7.354603116551194,0.09598722708221352,-4.223331979035882,-0.20061194950983285,-4.775735983715573,-11.764704419260037,-17.968009404423544
2.2960000000000003,-1.0534488501572339,-7.215636372473928,-0.950884991133476,-3.005422766000682,-1.8349480205284507,-4.119375173021451,-11.905693584324311,-15.854615129107202
2.3000000000000003,-0.20022171654684007,-5.554308617673454,-1.4200073968538138,-1.2654848307861286,-3.127598844078374,-3.8864829716128093,-11.527313282170592,-13.92636889598491
2.3040000000000003,0.34822552944731733,-2.9867798843611926,-1.4198133546427059,0.6498289689752497,-4.31437267625148,-4.162066271065926,-10.624002271709308,-12.672861238197319
2.308,0.6425608288196809,-0.4123509916807375,-1.1372652453759144,2.243803481415738,-5.52795225593232,-4.732719089929287,-9.117832783149918,-12.329182135717383
2.312,0.8307516123686103,1.3855651160286513,-0.7425242326161179,3.0752261554644775,-6.691941017041842,-5.1559121993559405,-6.841489136755737,-12.62985008100071
2.316,1.0339848679211987,2.03903983345574,-0.35163270884635,2.9633861812087217,-7.56020297654244,-4.954807191959646,-3.6619940300243723,-12.796113547620239
2.32,1.232206394948585,1.658832082765831,-0.05635831532310576,2.075172641459618,-7.860700329077911,-3.8573697042640958,0.3139603346893871,-11.816713819548953
2.324,1.2616033786183114,0.6851369873805053,0.07099647086320715,0.8616757461855444,-7.4277640281777,-1.936044718897005,4.6312475775463025,-8.923707109321821
2.328,0.9237847268960102,-0.372143009802655,0.0002505494970774791,-0.15318298640761085,-6.249695646333445,0.40508727944474376,8.579460907733885,-4.020397201612554
2.332,0.1460913258471077,-1.151090165452632,-0.19795134202930953,-0.6226733944584262,-4.418335330902382,2.6001840349519627,11.476380322497638,2.164011697179636
2.336,-0.9020784513324878,-1.5107942514690853,-0.3103901058540819,-0.5372579220829805,-2.049083884844158,4.155397759266447,12.982053152727941,8.291328758794325
2.34,-1.8347503361299426,-1.4752853111213104,-0.03126420538297481,-0.22290911024911964,0.7423413163694255,4.818206064697934,13.236992522514502,12.920925990781006
2.344,-2.2066326306228743,-1.1153853891530092,0.920709379464054,-0.14996977457741512,3.79460879467747,4.62218354823897,12.743282765203162,15.060038027036217
2.348,-1.7343526298919032,-0.4696258564618101,2.6437446020872604,-0.6617098402782182,6.826358200806018,3.7948474637383813,12.046097101819907,14.507662803560025
2.352,-0.4500131515874921,0.45548178792030924,4.965801003386511,-1.755560278229796,9.420277749287237,2.6160869359775525,11.423017278900453,11.844186182848775
2.356,1.3033802713189016,1.622029984565574,7.478490048916986,-3.036649168748542,11.112902217153039,1.312877151952991,10.768204090261662,8.093088508357836
2.36,3.0236233205239804,2.893941604700893,9.665980695582778,-3.8958125161128416,11.562941116622227,0.0319068649908667,9.725715615046866,4.250163857016368
2.364,4.278055784535688,4.038812230444202,11.091736335315545,-3.8184816323537256,10.711080768476098,-1.1114032281298432,7.989065955673407,0.9152975631634446
2.368,4.8743978892576525,4.7974370867949085,11.514890272974858,-2.6819286052127014,8.817854695579294,-1.9900954180811632,5.551689205654621,-1.8008888997270294
2.372,4.900639595541856,4.98924805620321,10.914930556166198,-0.8661172007330045,6.3498124693927025,-2.4607171939618677,2.753381764484293,-4.098943722705265
2.376,4.625134162636591,4.585040223279176,9.436561952073998,0.8891490475362573,3.7631476178961867,-2.4115506711784893,0.09891968966351605,-6.182468923037765
2.38,4.312209381528201,3.6911818654222817,7.287837713205205,1.8028863641414274,1.2978067512137357,-1.8427231793536614,-2.031685628043511,-8.01124086827824
2.384,4.071146300661869,2.4688064210499223,4.677373335346668,1.410601614721275,-1.0889144683226615,-0.9038830618751181,-3.567809870011046,-9.267280406017962
2.388,3.804020673782547,1.0325970077050324,1.7801889199636713,-0.23031268197713395,-3.6220571778401904,0.12960289461819352,-4.724982196989719,-9.531540476275104
2.392,3.28358322124604,-0.5875603244616459,-1.238918324704673,-2.5657524190350194,-6.487250221424695,0.958989237078554,-5.783491843333562,-8.551331376671753
2.396,2.303649350209436,-2.3974196459786867,-4.1891512828553505,-4.785617161265937,-9.624579482363954,1.3736118159169783,-6.832497041712327,-6.439675239676798
2.4,0.8068748037995941,-4.34664454665912,-6.863228791299196,-6.170943568930591,-12.669682894953395,1.3081898690044285,-7.675820517557009,-3.6789057413545696
2.404,-1.0557487850496923,-6.254765073238945,-9.066339708744511,-6.372419211833236,-15.077415610728057,0.8328679300079922,-7.960718994184604,-0.9354983519123308
2.408,-2.978903528136857,-7.842908874369664,-10.686565225523385,-5.531840051778563,-16.387124683026066,0.0694478940257226,-7.464830407303359,1.211012560203597
2.412,-4.628336290799984,-8.8703998406146,-11.747430543324635,-4.202606088875577,-16.479571208697692,-0.8868640013785472,-6.339160037535674,2.473112196689239
2.416,-5.771264266847513,-9.304862454153643,-12.411011000698421,-3.1261221706574496,-15.687103194296697,-1.9912098894403176,-5.130848736080827,2.887195253115477
2.42,-6.365924532820707,-9.419610188888251,-12.939696004609408,-2.9731622850504804,-14.688247453359882,-3.2104136998219364,-4.5458026059721615,2.6877625857786756
2.424,-6.559484102849752,-9.712390181710454,-13.583497968996767,-4.12038868854357,-14.205218584116095,-4.442768090870015,-5.059747082859227,2.1151497101314565
2.428,-6.6172238557155225,-10.666678471401411,-14.467300644922036,-6.541403216781158,-14.653052806145467,-5.485885240074696,-6.627057228254172,1.2855916605267357
2.432,-6.80535939348686,-12.45496703987773,-15.496283660304737,-9.818500814391435,-15.897435067532147,-6.071343888184162,-8.650855337335656,0.20225949573087032
2.436,-7.269903713160724,-14.747405703960329,-16.32542295796699,-13.256552917608623,-17.24862483287053,-5.977281380196997,-10.24858143696606,-1.124400471591691
2.44,-7.978303586213174,-16.77331521984388,-16.459087007628078,-16.089535431528137,-17.729317258276136,-5.169738690016606,-10.695076217619931,-2.5472350251929265
2.444,-8.727542590600036,-17.626065730100716,-15.433836421126006,-17.710635330405776,-16.50761795618163,-3.866600140082929,-9.775687564291093,-3.758921076261112
2.448,-9.231291874533882,-16.691540803918652,-13.058064292953492,-17.869999609921337,-13.310375121651862,-2.494321226605615,-7.883415308184643,-4.403433234693842
2.452,-9.246631568616209,-13.979193178308735,-9.579018837304108,-16.755447414361374,-8.620524916959074,-1.5234610716879347,-5.806236612877781,-4.266082150875676
2.456,-8.678272864727504,-10.160643687447038,-5.664802516804155,-14.899836344300773,-3.5393486979021698,-1.2541917467042496,-4.315962333263911,-3.419717420131023
2.46,-7.622596424845212,-6.2790570464918085,-2.187706727527048,-12.944232492443616,0.6464837785931039,-1.6723319137584667,-3.7962181803589488,-2.2263034488635505
2.464,-6.304690899404029,-3.2508768722340537,0.15575525701349102,-11.327017270599715,3.025910175696894,-2.431623331199484,-4.075609555946162,-1.1709685612567102
2.468,-4.9517022100164585,-1.43223400290588,1.176450100588852,-10.073017282540157,3.4717559421692092,-3.007619058307024,-4.553361970927648,-0.6147151708463028
2.472,-3.6667348047820267,-0.48811598574970416,1.2996029408079153,-8.794421580709454,2.689715461189417,-2.940793300508445,-4.526552538493747,-0.6191193620478206
2.476,-2.381287026737194,0.35664894357294097,1.3559028530673505,-6.927050608270064,1.8572904064164617,-2.0604067487909585,-3.544530928372941,-0.9551090875306283
2.48,-0.9376976603324305,1.802826341732934,2.111603970305894,-4.105981823426147,1.9989753970289557,-0.5891386294337995,-1.625945732635203,-1.2785378117054345
2.484,0.7465112443718196,3.997389836407173,3.8015089114969323,-0.46685751824913346,3.41724237799553,0.9402914494324808,0.7651192198223224,-1.370597465160083
2.488,2.515129662715487,6.358316706594957,5.895626862858845,3.291339788583314,5.471216017532505,1.9019527913337662,2.9280409395352693,-1.2796614103767672
2.492,3.927117058928361,7.826463302807059,7.279903228255703,6.158684719913389,6.848113379635774,1.847035999264377,4.217318131971165,-1.2677072463324048
2.496,4.40533771975041,7.434259811306466,6.80223470174385,7.285162147544109,6.221189406339654,0.7081817265786912,4.29217722055651,-1.583539778692165
2.5,3.5265711633390993,4.876588028354353,3.8973770302032262,6.420523866460615,2.964055132035135,-1.1611951269200294,3.219848819255609,-2.2026805286474183
2.504,1.3148431130966394,0.7671044839647054,-1.0203897936745498,4.086609661119906,-2.4433424636178174,-3.119301485497598,1.4195195860462855,-2.7253271480725
2.508,-1.655446643964738,-3.5876596692975324,-6.663293274280608,1.351069295764196,-8.551172939540336,-4.504810392447988,-0.5171626439040082,-2.5182246857575983
2.512,-4.429013333393877,-6.773409437040769,-11.40890226308126,-0.6805825135135182,-13.541323354493171,-4.907627191339937,-2.026055910269055,-1.0351880204125266
2.516,-6.061830069617126,-7.906815315809584,-13.998408618152308,-1.3949456219969738,-15.994400567500993,-4.332874337476186,-2.7134118260372455,1.8459017332778807
2.52,-6.073439707396278,-7.00115839532907,-14.053546212888559,-0.9522803705160037,-15.443484261834765,-3.1949775680161476,-2.4277045531176427,5.67252386110648
2.524,-4.703388876452281,-4.862094658122136,-12.121024270392496,-0.15129890606231378,-12.448651112219,-2.1344894116406534,-1.2441834781186456,9.540931422606864
2.528,-2.832312220447389,-2.6084678091453792,-9.287516294086748,0.030413755097624673,-8.211006817567293,-1.7589169325736238,0.5895177985973543,12.434014607642506
2.532,-1.5657666761265387,-1.085064010821685,-6.576853278601091,-1.0127078513976997,-3.94987282447613,-2.3965157484855624,2.7226399099320115,13.609872613180709
2.536,-1.6718591252029809,-0.48550957415721907,-4.467217759575246,-3.163650007716634,-0.38763110034723613,-3.9676351435540322,4.771702330292765,12.846513996697913
2.54,-3.174659354854975,-0.384375230901159,-2.8053734599040423,-5.625650243895482,2.3979785579288935,-6.032816626047165,6.3748825045208735,10.450252834316899
2.544,-5.299669886831467,-0.09380559225863871,-1.079510228893687,-7.299383168312849,4.760698162843962,-7.969695015104046,7.259958870360649,7.063316933686329
2.548,-6.82344969412771,0.8858777117169694,1.1221223912968272,-7.306664527624266,7.0868593289626745,-9.22460926259793,7.301621008165758,3.4085368589753378
2.552,-6.653214819746539,2.59746148596607,3.7787124243090418,-5.379940881471816,9.479534121637153,-9.517927904519755,6.558478349792624,0.10307106074568217
2.556,-4.346354720499601,4.674205479381909,6.419999795437161,-1.9372817743858466,11.694219952734686,-8.921130815965043,5.261151708275561,-2.4116120715200147
2.56,-0.32944079870470766,6.618959066402079,8.395226923187792,2.1430551518374372,13.311603786808458,-7.793861540377703,3.737545249067331,-3.856480299466668
2.564,4.306197809190367,8.121217524249422,9.273425171704103,5.9198577687654215,14.007922269273756,-6.601311905499816,2.310154995246183,-4.1013279239682525
2.568,8.294688170294588,9.184952638529245,9.07646455115541,8.720986809215237,13.711393561522794,-5.724048818200016,1.1855256864708537,-3.200867766289555
2.572,10.723008361115228,10.003261805184934,8.226361583135665,10.280872421906938,12.564004412264804,-5.329184547225324,0.39759868880259663,-1.4494011254319403
2.576,11.345226995959372,10.690275786160718,7.2535600763757655,10.672624468493858,10.744919110909402,-5.358523575290292,-0.1654987602710627,0.6178291869337578
2.58,10.54255960647498,11.059250221806609,6.428981516940409,10.121540897293041,8.298112211846737,-5.631677703134445,-0.681239419213779,2.3507172277397808
2.584,9.011464781209794,10.641120284851315,5.585563960953966,8.85868756339664,5.118628632351596,-5.974461995849634,-1.2854524840961687,3.2193075402845257
2.588,7.359387991636497,8.942214643418913,4.210721722073378,7.069843190059634,1.108327150617738,-6.325838795642459,-2.0142157773374407,3.046596309522992
2.592,5.84874679340592,5.803637046271881,1.7835409202691874,4.9443991761153425,-3.5863235244191705,-6.7428300950608175,-2.7982141407863885,2.115846406956835
2.596,4.412111719411026,1.646910522266488,-1.826739363567162,2.752189431222427,-8.415669267200297,-7.310276099420136,-3.4940283158187917,1.0666423798969191
2.6,2.8826985352745,-2.570783557776695,-6.1367267740361555,0.8506590007730002,-12.473220637113403,-8.029836111718634,-3.933328660639895,0.6157534678499825
2.604,1.2849123469747568,-5.6865944599039935,-10.103619351982433,-0.38514074803635,-14.74631752943687,-8.749974305286857,-3.9420748851320493,1.229344340880958
2.608,-0.02643048787822444,-6.795644071884929,-12.47922416752473,-0.6910322353921718,-14.476525582141313,-9.213954493094144,-3.356625195324571,2.9193561340549916
2.612,-0.47355464962049343,-5.618297879156385,-12.297414261883908,-0.022538434191011536,-11.458793108716218,-9.197509493572053,-2.0514112577400505,5.261390064178791
2.616,0.44613465092783056,-2.589090897110505,-9.275665267208135,1.4188923074724644,-6.1526061201326,-8.666456047400068,0.008735878138506514,7.6058501439691355
2.62,2.837461653606968,1.3592466511379542,-3.972739243622821,3.2568878677286657,0.43316881600094614,-7.855558596421509,2.6940936649413514,9.375828295835564
2.624,6.275851031400251,5.212382057604495,2.4034322915826936,5.096096866807015,7.0513980998633174,-7.178280917954236,5.684400328512741,10.297296755509144
2.628,9.940976958249665,8.26780018977378,8.427534196264027,6.669068910483308,12.582685481965171,-7.024482440906501,8.522852163679863,10.458230872604412
2.632,12.970267064635674,10.336460124490674,12.967096307834545,7.925358765705841,16.33812769025331,-7.53515241896851,10.767054801935284,10.198805292031418
2.636,14.851422011208024,11.685913253144328,15.55888935634123,9.020819466659574,18.204851233165634,-8.49106417157418,12.177048433828261,9.898619361944057
2.64,15.629385884043316,12.781061069261591,16.469322427325864,10.199855449245627,18.585866363789677,-9.405527880213127,12.820569908271231,9.786999306732788
2.644,15.823945054784469,13.980080665036711,16.45204683599124,11.633540840316998,18.17472228406933,-9.771341310452414,13.02709799808141,9.856623141728086
2.648,16.089528269124255,15.33372124967187,16.297591708059397,13.268442961576028,17.638986134278852,-9.35011114129395,13.185926953204062,9.911629479307809
2.652,16.82205776769056,16.591011594985936,16.430299665264346,14.786322787592335,17.35783594607179,-8.309179008222518,13.517406935827623,9.730179710535406
2.656,17.94206638837391,17.39205152536042,16.76418117569711,15.713520396389528,17.32832480684491,-7.11451552119385,13.977145297455634,9.25581889113613
2.66,18.951310700162466,17.51618671052138,16.853378089868368,15.63325964430442,17.2615891814823,-6.243556319532623,14.345228749648278,8.719476156347065
2.664,19.250686369388745,17.057527594760636,16.266196437113777,14.435569126036308,16.8282738495109,-5.860742768598014,14.463718407219263,8.608766665840754
2.668,18.503595032828454,16.390187209987946,14.904897264617171,12.436535737078904,15.885185949076162,-5.691780828815559,14.4329834621268,9.456443217378087
2.672,16.82080530788805,15.924308779591097,13.06477781974901,10.27124128513771,14.534862684998828,-5.191814665428528,14.587880295964895,11.500293300810828
2.676,14.657340803647497,15.778768444267733,11.171533838390069,8.57156501411103,12.964837018391488,-3.941606672457009,15.205845646137195,14.356203682217433
2.68,12.471800415879832,15.54516303573521,9.330684626927564,7.5553935502708045,11.15431292332947,-2.057844153557916,16.086183794837257,16.899373277123118
2.684,10.377690922810391,14.330351629114343,7.042204542010152,6.777512137963309,8.682392774416433,-0.33158768890121293,16.320459907543935,17.487914008730186
2.688,8.008930099193295,11.111420959843834,3.310368466947991,5.216743546087541,4.825285255944392,0.023665943639309794,14.485513728343783,14.543138068993324
2.692,4.721723377475693,5.284146344645604,-2.7991025365623052,1.7395632974103519,-1.0183085511407097,-2.053181212082299,9.292585842118665,7.297096004156245
2.696,0.0567912033372,-2.840221873430344,-11.40319534842125,-4.230680237919036,-8.752369211156573,-6.849046530360001,0.43539902749269466,-3.623773577963547
2.7,-5.80427592091727,-11.870955165599124,-21.307248306630047,-12.190612193337927,-17.19970257639372,-13.54607056430884,-10.835895545431383,-16.101291561970648
2.704,-11.85030924227068,-19.639777911820424,-30.102639857909587,-20.479680812542824,-24.21099703204001,-20.378005985182114,-21.8039312402861,-27.07337504976563
2.708,-16.482724742249662,-23.907108750180004,-34.95643501615051,-26.77894956188272,-27.34958091919336,-25.258822582392234,-29.139216476258756,-33.56925152510131
2.712,-18.111113789770215,-23.19266121276093,-33.762705406700455,-29.00218827367461,-24.88925793145078,-26.582975461989513,-30.199044630492914,-33.818535658571065
2.716,-15.831611277275835,-17.365999518478517,-26.1063264899112,-26.182798967476423,-16.655169783365828,-23.836043610146294,-24.176356431391397,-27.946420296999754
2.72,-9.880411695388176,-7.741212234859116,-13.568093312660013,-18.93912695122448,-4.27282423906316,-17.752744091607948,-12.537410275932567,-17.913102807053875
2.724,-1.6196593425921693,3.3844607003135625,0.8396939980084515,-9.260365641715183,9.360409462132113,-9.954019471026237,1.5062480239346296,-6.71757304002141
2.728,6.927777873006687,13.527714596767915,13.809401735297167,0.27928979617899974,21.146485689065187,-2.286049500615844,14.25569996229466,2.7702751360267435
2.732,13.795203825799728,20.81272524198761,22.924391184872015,7.521761410920243,28.904423107814342,3.8348750175206607,22.935580872772437,8.816264164504062
2.736,17.736025875871412,24.45859563162045,27.363565357488305,11.481443596211678,32.02376516869038,7.7910493711751325,26.6198442957941,11.234438431777797
2.74,18.55464044929746,24.798285818119105,27.83268676396161,12.508900863463158,31.382258292268695,9.730932717479828,26.273910450362777,11.086763188526835
2.744,17.024002530289525,22.91708582941657,25.90465643309492,11.874103820778398,28.66869756547566,10.262804887362163,24.005988595232466,9.898907033820922
2.748,14.461137199038195,20.126537307570914,23.15672716790722,11.022964715150591,25.51445232436622,10.065683417949879,21.958690063036293,8.864901386081623
2.7520000000000002,12.17105306506356,17.512300118679104,20.562196595339493,10.903886360903032,22.881736850858296,9.625272281719948,21.403307044589006,8.435113846988418
2.7560000000000002,11.000404876728258,15.709458488970633,18.37387863331976,11.679286405462928,20.949681800913336,9.175725703973754,22.427225259121244,8.420559029059993
2.7600000000000002,11.12709024385309,14.884861229279037,16.39265738073937,12.871279963416034,19.410537196988685,8.776597019408246,24.237405945551693,8.449105183539867
2.7640000000000002,12.130562888472568,14.848023893838608,14.372108979986741,13.788449068398124,17.89204428353752,8.428790003662204,25.807370169557167,8.416483912658792
2.7680000000000002,13.246958584258989,15.174100470537153,12.238881949203163,13.931175093130742,16.1995877165446,8.111216636856305,26.43939733721795,8.635323470117036
2.7720000000000002,13.688403964056013,15.311874282238447,10.05918185091492,13.174712316577942,14.293777692333563,7.747643336817589,25.977103732784908,9.613882666507319
2.7760000000000002,12.912992434690834,14.705522276745436,7.865699143583996,11.689721448520432,12.122790627268298,7.165055160924899,24.654431176090704,11.629328832786841
2.7800000000000002,10.76424405997559,12.947280870120876,5.525544270079649,9.715774390029365,9.51894358632371,6.107528509055925,22.763272104331616,14.402022219260145
2.7840000000000003,7.4853127434271265,9.958116551281366,2.8255513323394066,7.397740758652574,6.311085306113412,4.357252952603818,20.41336195973064,17.095930828088356
2.7880000000000003,3.619541094828701,6.102572784847053,-0.30192223243691707,4.781393957621846,2.576337736571779,1.8809298913552948,17.524929950301946,18.667124131678634
2.7920000000000003,-0.15615366291731014,2.14419743157094,-3.577046947674863,1.9514308836469367,-1.1687036191899338,-1.0766527434804427,14.027689100177428,18.358380835840613
2.7960000000000003,-3.2055777703056947,-0.986629261242677,-6.3676096285203,-0.8177901964729162,-4.040692048633205,-4.024667836801075,10.09548252406727,16.057366363471367
2.8000000000000003,-5.0876218859175495,-2.554641078240329,-7.95831058096954,-3.0527475053546995,-5.168560252615084,-6.3978941799892315,6.208996553667833,12.3302616326072
2.8040000000000003,-5.63732657565786,-2.3348334955860555,-7.919440121357868,-4.232333301361272,-4.172138046054389,-7.761627744644514,3.0049355760324894,8.12350585120534
2.8080000000000003,-4.980217525130101,-0.7283365176468055,-6.378016514806399,-4.047566566217157,-1.4583636689141264,-7.9708724158503985,0.9884749375082427,4.319821784540268
2.8120000000000003,-3.479698805930071,1.3952186359036385,-4.002841850422377,-2.605384270976802,1.8811259769605444,-7.202360345755357,0.2785592569773381,1.3959417184597163
2.816,-1.627144510454189,3.0716104340208417,-1.6953348558818142,-0.4379097113550756,4.550672122388985,-5.85166989352329,0.5494991463047683,-0.6601725203772277
2.82,0.08682520369700786,3.642754396407814,-0.18413414415860352,1.6997139564931931,5.644621195185229,-4.366626712563271,1.1897531036054714,-2.161662138832689
2.824,1.3026287749800565,3.004017997614523,0.28173367640296476,3.157777130906415,5.033742620914823,-3.0863533251067086,1.5908156486579341,-3.4189217841401724
2.828,1.8657775893042938,1.5762344404982223,-0.0585039635708835,3.652732833830308,3.315769268220879,-2.172209579422754,1.3889351293300392,-4.515247449708963
2.832,1.8329183195130356,0.04438381300168759,-0.7259448176832164,3.33696507163922,1.3877088635509325,-1.6209760732126053,0.5445491307234827,-5.281910669549726
2.836,1.4198312979708958,-0.9818500685319225,-1.321102452844706,2.6545592368878497,-0.08892552880852095,-1.3199651484118886,-0.7412746904710596,-5.462554533424518
2.84,0.8894004213967986,-1.2274019823862505,-1.7349599781464475,2.061331011847073,-1.019655574629101,-1.1146236140697283,-2.203173133941002,-4.935967570763244
2.844,0.44176989437418657,-0.8073056135140443,-2.1058580496887984,1.7892699598974706,-1.8119361806672205,-0.8413998837098424,-3.637740293241957,-3.8509082204018417
2.848,0.13700389652281464,-0.09548171718224241,-2.6163113913789973,1.7575731448914929,-3.001938649574106,-0.3576975680405221,-4.933664995708698,-2.5852034148716365
2.852,-0.1163331489928412,0.49049264770058465,-3.2907609959382214,1.665152781944538,-4.8359550880017705,0.42241446132245386,-6.013093511577679,-1.5611030852718903
2.856,-0.5025197809442057,0.6632299879595198,-3.9530260526713854,1.1921555530387087,-7.078369346286324,1.482336916110802,-6.770381381133442,-1.0398817366988924
2.86,-1.2097909735182384,0.3184680244495999,-4.399200910331534,0.17231514799823522,-9.16664786914191,2.660161009564616,-7.09613836529415,-1.002230338325289
2.864,-2.333838397137888,-0.5022296218187123,-4.62140036078822,-1.337841712358193,-10.578878062816706,3.6728906503650016,-6.972992574022641,-1.1866431855986423
2.868,-3.8333595282402486,-1.6909157547503262,-4.936207946353834,-3.136761016955927,-11.1770162046613,4.2003736786002985,-6.584248858135885,-1.2565066148047581
2.872,-5.545429040717478,-3.122859393399143,-5.880657866892741,-5.017489729740657,-11.293295615958657,4.023513224352504,-6.328741982878552,-0.9957835892663205
2.876,-7.239521293624097,-4.650868963450163,-7.895510144158923,-6.867206850286454,-11.505401761589171,3.153610884691601,-6.683668810041501,-0.4352519551553149
2.88,-8.68801625207334,-6.087811420579632,-10.995867437658237,-8.673222098116252,-12.251853327965282,1.8623787887419554,-7.977373758973468,0.15582034759469465
2.884,-9.708504231356489,-7.213923905352743,-14.606688411314005,-10.420481413749116,-13.519387564987085,0.5981002071876076,-10.183218983700598,0.3842324359335265
2.888,-10.190660409638165,-7.849304286293463,-17.725554910759193,-11.987056134120587,-14.819065207306771,-0.20766833611905566,-12.878490796476335,-0.11593124156515833
2.892,-10.102261161800111,-7.944943498860192,-19.339607637399936,-13.11161532717616,-15.452812565360102,-0.33869769121452675,-15.412310453085475,-1.5592813847169051
2.896,-9.489590919575438,-7.626164511489477,-18.89095058964848,-13.479720206614076,-14.915959726661246,0.10005872536806759,-17.211593409160496,-3.9644681849866217
2.9,-8.496473014497838,-7.161898163936703,-16.575478967366564,-12.912119664629678,-13.215682968620609,0.7203682582204347,-18.067691193502423,-7.1755928548587065
2.904,-7.35719112584624,-6.832983052811139,-13.269224556598706,-11.521443506488376,-10.906654284772047,1.0434916911044865,-18.22962712949758,-10.911759982079909
2.908,-6.361189496796442,-6.7868130107648685,-10.151388963084402,-9.755971291586361,-8.850088141755844,0.72795763722976,-18.25854418826169,-14.806845306376719
2.912,-5.772289235544305,-6.958443261782249,-8.194138597101212,-8.268254768997782,-7.8194900089880965,-0.26406064319518663,-18.706719704924158,-18.426343247829667
2.916,-5.724640848640104,-7.110737280788925,-7.766830519970533,-7.651122519418571,-8.159867004214778,-1.6514066654813622,-19.80274902800431,-21.29940099692944
2.92,-6.165353947233115,-6.993557474628392,-8.56153555688638,-8.177925788281582,-9.672939697683463,-2.986762420755472,-21.323728752911645,-22.98858350849278
2.924,-6.870743700198266,-6.5172185361203026,-9.817564967886756,-9.659154382955338,-11.749852390662273,-3.875950259579777,-22.713213986107114,-23.215631869597523
2.928,-7.558858958638312,-5.8503471614922535,-10.749066737396408,-11.5150457640019,-13.6821025819336,-4.1688529485778965,-23.39020531400969,-21.997775263221918
2.932,-8.03639626476331,-5.368631683674103,-10.937684392649906,-13.023557113189447,-14.977943025050996,-4.009946117428037,-23.060207131975524,-19.715473833888456
2.936,-8.293129000370378,-5.4751420987912,-10.499741137243848,-13.626777030564682,-15.542592687659447,-3.731255954878818,-21.85234814215727,-17.05307224100524
2.94,-8.497782962295393,-6.399409844089047,-9.996870070512387,-13.163440764854293,-15.668237977822603,-3.6633441973714875,-20.229066378876162,-14.791652710059271
2.944,-8.85864916902268,-8.061271501730879,-10.107992778829265,-11.897641701690333,-15.83890683053514,-3.939676548083824,-18.715557334878042,-13.519450264958381
2.948,-9.45822817278847,-10.095015575862659,-11.28141251604114,-10.372379907460765,-16.475444311354007,-4.431839675516571,-17.638318877190848,-13.394619694160646
2.952,-10.159307859765082,-12.016364903146902,-13.522704228149344,-9.162809655168713,-17.72858224790144,-4.833818843330377,-17.018769874262574,-14.083279107734963
2.956,-10.646196134232396,-13.428606008762138,-16.39098553400409,-8.643184772997628,-19.401992779558114,-4.846362078456368,-16.655629776950207,-14.927210753873865
2.96,-10.601987663439388,-14.168742934024532,-19.207172487593777,-8.880330233458205,-21.032255225334293,-4.36760106468821,-16.332571926905217,-15.260370524730742
2.964,-9.901285252412661,-14.312979723496692,-21.321678980992708,-9.657034870759029,-22.06878374695568,-3.55744134960424,-15.994713077506582,-14.726686193289646
2.968,-8.70948185109324,-14.06294925148784,-22.339652232406088,-10.601481473191194,-22.087384267910302,-2.759039271892768,-15.78412913211125,-13.433205984285895
2.972,-7.407824125414598,-13.577757170657105,-22.194996229311265,-11.330393101312861,-20.93399217137667,-2.301868712010921,-15.907238729784481,-11.854197270954424
2.976,-6.367921307039905,-12.848588481284704,-21.06233759788481,-11.541833537900114,-18.74222629098653,-2.2951208223383572,-16.43740849663351,-10.550174930919493
2.98,-5.717816189583637,-11.694288413096045,-19.20946120995555,-11.055792668512836,-15.844437855814647,-2.5441564149702307,-17.203874014238163,-9.85290726492487
2.984,-5.2343050306910195,-9.861903449313075,-16.84444258617149,-9.799923381098509,-12.620222493460847,-2.6186209587556526,-17.834813049550572,-9.703343335737683
2.988,-4.455189948350922,-7.191846949011348,-14.06892089305068,-7.801423476677163,-9.377132605662261,-2.0716582453729373,-17.953257605470554,-9.736019537416764
2.992,-2.948878680832222,-3.7525560427296005,-10.924461521008794,-5.18914252464741,-6.303720250856817,-0.6888804290914883,-17.38362566108925,-9.547343157507235
2.996,-0.5878526833441589,0.12627273299265562,-7.477066497211393,-2.198453620145526,-3.4977542033609095,1.3635579160920122,-16.23671544293319,-8.986698579933456
3.0,2.3183960931544094,3.9141388839293247,-3.902974166713724,0.824130432749894,-1.0421555754510274,3.556691072818818,-14.824175100372015,-8.282215517224461
3.004,5.136489048583529,7.0223301875684765,-0.4854935663603954,3.4670020134865833,0.951905142497131,5.202915224994154,-13.436574878554024,-7.923013747440542
3.008,7.199423336558736,8.963744038627528,2.4463485096629425,5.3316317926607955,2.3625208795999506,5.734003792653095,-12.146512638587794,-8.357628330927007
3.012,8.116604210152921,9.484566456465407,4.601807127762537,6.127471041012807,3.1228607072736128,4.935868106355986,-10.771380246668635,-9.68852137835967
3.016,7.947205858739379,8.643169802753818,5.804208382281421,5.764161351415078,3.2911262002261124,3.043258846833544,-9.017887305996286,-11.548323412564525
3.02,7.124017031097619,6.790923337768674,5.997188287948967,4.387923449458103,3.0463346636927913,0.6411823832336965,-6.744457995172702,-13.239042029122839
