Timestamp,O1,Oz,O2,PO3,PO4,TP7,TP8,Fz
0.0,-5.968558980384842e-13,5.684341886080802e-14,2.5011104298755527e-12,1.3073986337985843e-12,-1.1368683772161603e-13,-1.5916157281026244e-12,2.5579538487363607e-12,5.115907697472721e-13
0.004,-20.28673397927659,-8.610533813105405,-1.7677239316944906,7.397115431687098,22.018543399639782,17.04108547528358,-9.51971729700739,6.612574022005646
0.008,-36.90955783245042,-17.218973100945135,-5.56729554739627,10.604145452651096,35.59615672706849,27.63886371998035,-19.474393117278908,8.50738455958151
0.012,-47.31108112678605,-25.098444967525126,-11.870180639363866,7.992074052323801,36.72126964214516,28.683011408164816,-29.21316566203535,3.9073374353045836
0.016,-50.6964725120573,-30.649035031490143,-18.989317810602813,1.533431670508719,27.814698779079322,21.898600537840593,-36.69715373900664,-4.789565511142513
0.02,-47.96895796634216,-31.988910143374,-23.782512087728264,-4.263625616967772,16.254351315444694,12.752775162197395,-39.24735899779847,-12.196092122421135
0.024,-41.099166960826054,-28.002476339345606,-23.306856263430234,-4.913514061590433,10.317640311808248,7.417791016566184,-34.96065944993336,-12.853897947340101
0.028,-32.267323127223946,-19.198720629608857,-16.433164932479883,1.5273283843031322,14.87559414425192,9.564128054052162,-23.91978787381754,-4.19842371233662
0.032,-23.20047947789054,-7.810388095186852,-4.5016988598917465,13.443275183459264,29.213799241586628,18.748014618644902,-8.452456998416324,12.102398472710377
0.036000000000000004,-14.95731017578575,2.9989037018680165,9.316010785326,26.65548735313996,48.01144951446872,31.135429101448494,7.743858234831862,31.10677045806534
0.04,-8.067088902699851,10.466251395926292,21.57803235324087,36.7573018687209,64.63436924314328,41.9301875947217,21.155789091681015,47.17087505377532
0.044,-2.795099767570619,13.39298935165644,30.105597692011543,41.33955346724969,74.65479847108332,47.92345998740825,29.80851090882021,56.586199743911465
0.048,0.7350602961499533,12.548255469482683,34.70723363180821,40.88522260795409,77.64143776797027,48.752271824705645,33.74728300394486,58.87171529077145
0.052000000000000005,2.5981219131239044,10.11565296507331,36.788408272267475,37.989475455118395,76.49656980600514,46.384730385299235,34.48995540142022,56.23554894402366
0.056,3.1671544997794143,8.504382553765822,38.187965368164726,35.57305567745118,75.10524521084528,43.444765642248626,33.87860372054109,51.81348432729399
0.06,3.103282381780815,9.173569943769223,40.015273619343816,35.2601110892447,75.89025404466531,41.5806116528596,33.06823914698526,47.87442081021254
0.064,3.1324609915017305,12.039067838056383,42.10480477337774,36.80309860525469,78.66992495220907,40.815496356560686,32.15416846537829,44.99762150543731
0.068,3.7086228315461796,15.709815923921354,43.32671071637645,38.72213048679072,81.25573966481679,40.09283931121013,30.53154267011803,42.485310413943296
0.07200000000000001,4.745942887150662,18.328734604845778,42.44070687627391,39.559413806292326,81.14995224883111,38.442709749713,27.6203955890565,39.487484249539506
0.076,5.609891266510871,18.5292784367999,38.91492481377287,38.87007376030502,77.15710554555139,35.87678372813059,23.425124079277055,35.96881192241506
0.08,5.453887420710359,16.03975216212828,33.25818803582848,37.3692380053933,69.94815334759,33.41998240407327,18.610501833506362,32.87205213424443
0.084,3.719422434697492,11.677481519949907,26.70352244485133,36.23653883209954,61.39799249546866,32.30323598407131,14.092022133102432,31.4480000945305
0.088,0.5338897280671233,6.849237823242589,20.545948659501732,36.17535994677121,53.33174341878899,32.980123803395315,10.507808780869595,32.31642380558026
0.092,-3.2567635413090414,2.875581191778906,15.558233664068041,36.90821380883804,46.60441197130254,34.70606674962198,7.9188901680198,34.95601614107916
0.096,-6.4609250416011434,0.49072994181648255,11.810428812378404,37.43088605430677,41.07041849924212,35.98465078992439,5.908748057517499,37.96867300096427
0.1,-8.086478535832867,-0.26816180287079305,8.953645515909272,36.79517526808522,36.27168431772117,35.55334959987897,3.991747478061882,39.8933212059474
0.10400000000000001,-7.784262424178451,0.15612101540551748,6.662257439768098,34.80493908051125,32.17683677506787,33.177410671952714,1.9820476566766558,39.98898892256379
0.108,-5.927702090610126,1.2175648391828418,4.957675510224249,32.169854274701834,29.40192142556259,29.744795828394103,0.11279853395359396,38.501830413873535
0.112,-3.331195254736926,2.569526759572753,4.2223246267580805,30.047367831308776,28.801560348503216,26.64820550362026,-1.1293832773985173,36.333720027671276
0.116,-0.8137951323048753,4.150687931564605,4.921372798709257,29.31222625403575,30.794030695323244,24.91386548123137,-1.3205802170847107,34.41889202652109
0.12,1.155769438783004,6.077812813579129,7.268136618772729,30.051005596827764,34.93050360625978,24.659586381597535,-0.3329422211247106,33.244340686423314
0.124,2.5262199489863377,8.419950470776413,11.005878033973858,31.55134129661309,39.99577674386035,25.15869775037885,1.613564355880868,32.76995848661369
0.128,3.4911738455801213,11.019302126123648,15.460038756103813,32.76459890279014,44.57338554186518,25.41876272746879,4.083608801126445,32.699849123512266
0.132,4.214755947574915,13.461889819550521,19.816512778532143,32.92335068926016,47.73022912397769,24.854617893140073,6.615033695198633,32.835259339359425
0.136,4.647745274009921,15.205898700968362,23.444814591934346,31.92630568622971,49.39332666575268,23.609568759249896,8.837571747322613,33.22900443846481
0.14,4.592854186326377,15.830015486633329,26.123232517764336,30.30446313999272,50.20164699025838,22.360472242799005,10.511354456492597,34.0410550682131
0.14400000000000002,3.9325405575556545,15.250232068324323,28.003008584264478,28.809890358517862,50.94500402162805,21.754992205252847,11.491741826924681,35.233420526774495
0.148,2.8599449795319742,13.801554950797566,29.38359181808073,27.93671242631359,51.97748682031698,21.92401874091553,11.710577362375716,36.3910716504289
0.152,1.9003110816835687,12.127507258536156,30.429517038230244,27.680597664795698,52.99644865740714,22.422419228804245,11.195149324917338,36.86371477998122
0.156,1.6588880735548628,10.91684652230947,30.982362911517498,27.655748590650518,53.301921586877086,22.61591974723001,10.084954499758055,36.1704584859155
0.16,2.456872122768118,10.614563728299458,30.59125686036282,27.446965996665284,52.29977478499552,22.217796894182015,8.605646364130848,34.3668375761639
0.164,4.06911639086286,11.21958273036745,28.709402132034256,26.89799335897709,49.86944306077072,21.52912765904796,6.951314812691976,32.07395068078438
0.168,5.776057912890764,12.279244261215382,24.989462328030186,26.161809827374213,46.38121975692155,21.218630474998804,5.166078609478404,30.118520997452407
0.17200000000000001,6.702458187190686,13.08201673924222,19.532543768403173,25.519653007464626,42.433235831022785,21.81861509455871,3.126601387106632,29.015841652793483
0.176,6.2656034351389,12.961101923151801,12.956693884475612,25.118211222578964,38.53781285171817,23.295966359554086,0.6592220684698873,28.63445601148635
0.18,4.506263230809509,11.575941866805834,6.262922747326343,24.8137795248378,34.94937634907194,25.00615986288051,-2.246759221821037,28.267556689757726
0.184,2.084770197655928,9.012859077606777,0.4953634943935299,24.193151517600313,31.682845754665095,26.025627827708604,-5.306832428723908,27.05869640799142
0.188,-0.03944627538319878,5.7109279130944515,-3.6227785208039904,22.78998627900114,28.67857533417481,25.681166437871525,-7.983152426247216,24.534975855039562
0.192,-1.0894765838972376,2.276947444550956,-5.892623256169884,20.391817818398238,26.01070477148272,23.966646313581577,-9.714077526484118,20.940214078041436
0.196,-0.8756881740866334,-0.7308198305454994,-6.614742375978153,17.25104344159297,23.98949817146996,21.58320326797036,-10.223936376302504,17.170677874951366
0.2,0.12235003415622714,-2.9344324892878717,-6.34306188285359,14.078124073871606,23.068891242658935,19.584955745410298,-9.708843280446558,14.331767002986851
0.20400000000000001,1.0206438263031998,-4.159970293672586,-5.590552231950312,11.76272568120271,23.584776250301502,18.804962623452298,-8.789505441058395,13.15078805271719
0.20800000000000002,1.0045348599087731,-4.373880033026865,-4.6173002382918185,10.954554741247534,25.48336273405431,19.415227249072586,-8.2102134097114,13.576636563977672
0.212,-0.26619180533367626,-3.61697172737928,-3.4026847498838606,11.71963393403712,28.232420318931474,20.8796531365864,-8.450077124641325,14.79340588790194
0.216,-2.5488917320457176,-1.9990551517044537,-1.801384350506396,13.452530346532058,30.99528981028982,22.305638175813897,-9.472431804755956,15.632950578413272
0.22,-5.1977126741937525,0.279649999550486,0.2603434597897376,15.118445138973982,32.97535862053246,22.973406178365508,-10.745445579698867,15.143421358096589
0.224,-7.522044748828392,2.8886389431549446,2.6297594574577943,15.689200384126366,33.72695697678091,22.680696732594583,-11.556460715312369,12.996056562172498
0.228,-9.095316326841811,5.370909965479029,4.928007358481068,14.601160768180023,33.29685093890782,21.75503051738815,-11.427396694597633,9.557475243975148
0.232,-9.862199775191897,7.223007205989518,6.694059572351762,12.026346046445155,32.146415070763396,20.782434714936016,-10.401957766131886,5.651812418586985
0.23600000000000002,-10.02702798339567,8.01227693205442,7.545444830005522,8.783114464104187,30.85617403583126,20.205246490584614,-9.06489675884734,2.165070563441418
0.24,-9.822414228425117,7.499718371875815,7.2894032532310575,5.948540366789757,29.774568213412522,20.066041534998476,-8.264327057974583,-0.2876282274516484
0.244,-9.354516755797874,5.716590274939392,5.925015315414726,4.363862933396433,28.817503639813594,20.049223516170514,-8.706026991647263,-1.4826138667028204
0.248,-8.595933821608185,2.978463970319865,3.581179586807025,4.272575756341553,27.495829718638788,19.750273638145927,-10.621983263376478,-1.520205101770273
0.252,-7.501424871211839,-0.17265102347442962,0.44994426518246655,5.256139735335637,25.13948088760492,18.96997940297956,-13.67515153999102,-0.6863542215938878
0.256,-6.147002036854701,-3.089170464379947,-3.2428391636681226,6.488412104863983,21.235712157951866,17.853535307322318,-17.138620992935216,0.6512733308455267
0.26,-4.772262665411063,-5.173547319613988,-7.205676698422508,7.183273122382275,15.751490531733225,16.830656901285238,-20.216927756953737,2.093154513807974
0.264,-3.696143665336365,-6.045532434302345,-11.062525399812898,6.981965289321806,9.282056504748766,16.394365110674244,-22.34843534556478,3.242029711859459
0.268,-3.130877338284563,-5.653282494807627,-14.384066502571613,6.080924666442911,2.9205321593505005,16.8414958139997,-23.345751765055184,3.7712855875390687
0.272,-3.016492371286688,-4.273976917674418,-16.775345605858888,5.042503506421326,-2.123590818185562,18.09627161065282,-23.32856335123404,3.5318794779997233
0.276,-3.0071334473577735,-2.3887640227575275,-17.98003578279247,4.428279886232758,-4.971291470744973,19.711932413490103,-22.527641791111478,2.6592323389303374
0.28,-2.6287234562033177,-0.45297559669973,-17.896533510752988,4.519336627414759,-5.3265754382561,21.089485667292593,-21.060561150105514,1.6244644346670611
0.28400000000000003,-1.5380660392241339,1.3313137924371858,-16.50565133251098,5.26756457732381,-3.4246429866171866,21.785327908003637,-18.828974929746323,1.1434392302787728
0.28800000000000003,0.2843898911963265,3.12278502112855,-13.769891709255262,6.453419787382586,0.22512645874576265,21.732244461534492,-15.593174215889803,1.9147374712858323
0.292,2.516693589358681,5.333081736125962,-9.624021958896265,7.8867496454466846,5.090286009225679,21.23022741998784,-11.195752138332637,4.262903333362999
0.296,4.6588838465499975,8.340649746849408,-4.100879987409257,9.50556771179015,10.725785455528921,20.73883207124595,-5.812431741530759,7.880436093836465
0.3,6.278722888988511,12.183657679363932,2.4852151376447864,11.336342902878755,16.747304083057998,20.639158127864903,-0.06141712108728825,11.857050435763654
0.304,7.179217233507643,16.40057031834135,9.405391458541771,13.359979013782095,22.728001986020445,21.082851155370463,5.102561751148187,15.024164287630299
0.308,7.430608984415869,20.152547890650567,15.594321179726649,15.404045752151774,28.12127034167952,21.98882192820497,8.710092791063062,16.46221719009469
0.312,7.283645801791124,22.596716785423723,19.965922303565208,17.15197338998064,32.28806637934542,23.145165223096456,10.185967046500537,15.908606711733114
0.316,7.02663195628196,23.313547720734846,21.83319517366931,18.280553358403836,34.65825603931637,24.338067482794713,9.63313085333857,13.868039470156589
0.32,6.866278656838176,22.547111946066593,21.238881428633704,18.65967576703474,34.993723302278454,25.461902833904333,7.861410411354427,11.390905351727383
0.324,6.883555717849049,21.099388072614374,18.973567233426706,18.46837652809188,33.58970319532477,26.54027735866657,6.094777012054465,9.617916537595079
0.328,7.0696337871845,19.91103658962072,16.228589077761853,18.12103617251296,31.232601761289516,27.646118889488662,5.454215102178523,9.296221443725699
0.332,7.381065008837538,19.547288232387928,14.02955536330228,18.022671652658005,28.868849686353542,28.761038617923532,6.440508155107864,10.476224899967235
0.336,7.768688898711105,19.87810043769548,12.736145723476511,18.314061599488014,27.139599646932766,29.678500572103303,8.670126597868148,12.519339039756858
0.34,8.167470359145796,20.159647892620683,11.920633476298462,18.800823447044422,26.06923038593061,30.07201834695161,11.026574555779689,14.41065037707142
0.34400000000000003,8.463784890147679,19.48208605590071,10.697386784059631,19.111836672950403,25.10927672263267,29.69961755381246,12.169463114352993,15.222992081449206
0.34800000000000003,8.509557214628046,17.34522761224423,8.329393396273304,18.980698244207474,23.50994927529291,28.615800149021425,11.185245766788853,14.502457952890268
0.352,8.209003541344032,14.030242170110512,4.764398407887256,18.448682732107272,20.80673108635642,27.224209439175183,8.051409403306707,12.402348345211806
0.356,7.619671787686229,10.531548774604289,0.7842477708416027,17.8405623716626,17.17078116811615,26.109576578873657,3.6753171318728164,9.544862342761235
0.36,6.984471474880138,8.065835426727972,-2.309001017285482,17.53854593113067,13.446416118802404,25.760243897291957,-0.49370261337526244,6.73113584704879
0.364,6.638714616930599,7.413778619488653,-3.320716210709179,17.692672981022156,10.841962094614473,26.313919195664766,-3.1008401679155213,4.645138048482977
0.368,6.83221523097194,8.460894132429871,-1.7678406182774324,18.047223388195448,10.388093015448703,27.45944976179112,-3.4646685238847112,3.6450972312097747
0.372,7.559746314154552,10.196166724517525,1.859223495868946,17.990005470761844,12.403054120172442,28.539109702529004,-1.8185782249488511,3.6829310576449643
0.376,8.506490004785007,11.192744886703622,6.317940713991902,16.820398482864107,16.260873122663156,28.818782155446343,0.8856828935640806,4.359807736617313
0.38,9.161170645703976,10.333900268920956,10.203622067303513,14.112562155194382,20.611907761683142,27.82917203022953,3.4962664216195662,5.095940880234139
0.384,9.034227837807634,7.389777244631773,12.559949084934942,9.959373950096278,23.94694762055792,25.589547693651184,5.209026921333816,5.358172598715782
0.388,7.898345937606564,3.158639741498405,13.207116969574827,4.965338824657692,25.20271838536405,22.602594902536566,5.875589818097978,4.859654544358477
0.392,5.931756173286601,-0.9050096465662136,12.64470603649238,-0.00623791286056985,24.104359800099246,19.610277466489606,5.941151100013485,3.6581136641225385
0.396,3.677693842606459,-3.381229603019733,11.620656205190016,-4.181395286232032,21.11307271272358,17.246893854678547,6.082800558379176,2.120005788748358
0.4,1.8413232844142726,-3.529702612693768,10.674288987264617,-7.093641398655791,17.095724310461264,15.81523922441329,6.788983883071978,0.781265168283312
0.404,0.9899296462940015,-1.581328048784826,9.898925273092573,-8.589769640880377,12.943655955489021,15.276398099209018,8.106557562044145,0.1571119448448144
0.40800000000000003,1.3225095290601985,1.4547394466688957,9.038442426385927,-8.67561876334321,9.31843986646777,15.414375881765864,9.674513823003053,0.5548358368888557
0.41200000000000003,2.619491430668063,4.329716786078166,7.797435915065989,-7.370251317820589,6.575737946474192,16.025764220776637,10.972437041946705,1.9427963933570709
0.41600000000000004,4.370502792476486,6.129886589913781,6.117322046323125,-4.705193490180136,4.81528091991413,16.997496583132033,11.596295149264733,3.9381163762666347
0.42,6.004113706628914,6.597707756801242,4.24479689586633,-0.8600066785593299,3.9760478421744665,18.27014489194289,11.412587776938608,5.949330681274432
0.424,7.092937173991004,6.058234174040535,2.543203412850062,3.669067102779991,3.8901763594749355,19.731280158330264,10.520222725062467,7.4173045204347545
0.428,7.474329353543283,5.059143475692963,1.1963682844020695,8.029379288030327,4.259567314913738,21.136460136850474,9.094018865634098,8.040673817553966
0.432,7.268572904687801,3.975191242343726,0.023609824809682323,11.197545629447859,4.628991752560978,22.126592895243903,7.252623159574341,7.874260541325157
0.436,6.781592190541971,2.8170394856475696,-1.445854496305401,12.348683717691074,4.472364959903871,22.342838371400376,5.046312242348222,7.266507147205971
0.44,6.352258497926641,1.3619886837976765,-3.6324304195984496,11.262871779705165,3.4492386313390853,21.61129058664301,2.579926640216854,6.690944654914574
0.444,6.2038367114728885,-0.5130011199303226,-6.515728231797993,8.524183361835412,1.7038939844499055,20.06893328545948,0.14758431205291345,6.552321515885069
0.448,6.356979046912045,-2.542337043085695,-9.449129177837676,5.3572771302542606,-0.023358801480753755,18.13288928325983,-1.74685270995451,7.0359392169405055
0.452,6.641293047061367,-4.044924956723435,-11.336795251317653,3.1288016579298983,-0.6392938890719506,16.309992533645072,-2.552259404122651,8.040399606786423
0.456,6.802478127695224,-4.225100433094667,-11.125331518171151,2.7444296612200105,0.7705656892710522,14.950962112429352,-1.9530024301743651,9.215720899230746
0.46,6.655702144474731,-2.6506112842439506,-8.344124587013312,4.2566096227483285,4.404407645720539,14.11782281458045,-0.08619534463673517,10.099627431535282
0.464,6.203923371709379,0.3728896527940151,-3.411841384246827,6.883684547095072,9.52424545175154,13.627921060607605,2.441979536550207,10.301970339946024
0.468,5.671760140197534,3.7980823564547563,2.4811304829825076,9.426893441837592,14.702471394233044,13.229708511123135,4.790839470743549,9.656290629507453
0.47200000000000003,5.425905549417394,6.245343075193091,7.854657072743066,10.841906875004042,18.414767082053913,12.774793437095923,6.259298813745545,8.26416236095838
0.47600000000000003,5.794378521921487,6.640310852036464,11.527354485952628,10.67811901860614,19.68803830643492,12.281401972981712,6.595389838850906,6.430266242932589
0.48,6.860498860027178,4.752782744972251,13.039918372164493,9.191440559508465,18.489860231719604,11.895349354997961,6.086283248369227,4.542895695251332
0.484,8.323238297872479,1.3265608969112463,12.697778586545837,7.100021431618643,15.655582344866616,11.77589663709432,5.361810348162635,2.950020436180125
0.488,9.542665704629883,-2.275367562396241,11.258667249298242,5.156865024132571,12.402111759518903,11.989216103100262,5.034393811073187,1.8765236784656736
0.492,9.779746967764368,-4.742735122322074,9.467594484283381,3.7710443973127212,9.698173386515236,12.453538032291817,5.376738921150491,1.4031956224984015
0.496,8.534875250014409,-5.452286874635661,7.693740070069225,2.8791523458233996,7.852619537209193,12.953514668191929,6.200508754915518,1.505075642772681
0.5,5.821005569555041,-4.7208496296052544,5.869065597668168,2.1267960283705634,6.556192653164771,13.236081584430394,7.007247293597629,2.12940089808842
0.504,2.2013409606683467,-3.5659300482068375,3.699610727620211,1.203995359875421,5.30158195968238,13.116891509198012,7.2983695576535865,3.2603725146738043
0.508,-1.4261941126681563,-3.1079148809004664,0.9974125927492423,0.11254688303245075,3.8754465168271963,12.548289108454355,6.8744872350353035,4.921540744971253
0.512,-4.207168955318707,-3.956060884116141,-2.089937414242968,-0.8128311262692023,2.5785648734536153,11.61620161979863,5.957079064848358,7.09433127611851
0.516,-5.702094311353051,-5.929430165788176,-5.104815648019894,-1.144079702385966,2.0276138650067423,10.480808758586136,5.059606467091271,9.601192905537573
0.52,-6.044722416670936,-8.220330953385087,-7.499670729376021,-0.672806254288389,2.7056546389976575,9.338425636271722,4.705230823998136,12.053743060438478
0.524,-5.8187426569928675,-9.880165602136117,-8.91114774467087,0.4118519587452738,4.589202576332241,8.40438282797254,5.137730518157241,13.926727143522385
0.528,-5.708138922347075,-10.32984392800131,-9.308343715680394,1.5933604672499087,7.092334665801786,7.890667118405418,6.187265286628872,14.729291866695917
0.532,-6.102554746805254,-9.605088723457584,-8.939696756950752,2.298939105274144,9.355700415618799,7.9404509091195905,7.353376398280943,14.190204003444592
0.536,-6.88961293764055,-8.241845926874475,-8.1540559556272,2.196025583718665,10.700781860465668,8.530543518845661,8.041955651196304,12.365817418967026
0.54,-7.532988301688306,-6.901919589315298,-7.197737261569955,1.358894464504374,10.985346739400825,9.436365545157514,7.8571618006865265,9.624844354962079
0.544,-7.403191725008185,-6.005149175308134,-6.128218873471496,0.20598055078653488,10.641170814222505,10.29382481809671,6.799551923107174,6.52611634080597
0.548,-6.170201152096865,-5.5846826773999965,-4.887643492831103,-0.7594728540670985,10.360200064800438,10.738936464970038,5.259960865623498,3.6349707828261444
0.552,-4.028790726787975,-5.417033789280026,-3.464685476144723,-1.2492370280618843,10.617190507400778,10.556126872460482,3.810642668812079,1.3531236545578622
0.556,-1.6417717503167069,-5.305748006463318,-2.0237599019794743,-1.3547287569410855,11.327912873044738,9.748572891311142,2.8957466183699125,-0.16577287790130413
0.56,0.18263769466420854,-5.284952327865312,-0.8754753526930017,-1.459226211859459,11.884073257444356,8.52208246479313,2.585182083711061,-0.9828681972467166
0.5640000000000001,0.8814987256969857,-5.604892116518954,-0.32001497105898125,-1.9613639161464107,11.536482363519326,7.178423850084528,2.5068351715219706,-1.2635200235276898
0.5680000000000001,0.39042243123662956,-6.518886494357389,-0.45844395961364626,-2.9870696070914846,9.862355270147418,5.977456766415116,2.0144391958899632,-1.1662438514815676
0.5720000000000001,-0.8533299326210795,-8.039073717317251,-1.1158973563273094,-4.278427371528096,7.0042259377106575,5.035034897285868,0.5184816387502451,-0.8000933862977035
0.5760000000000001,-2.1501283660099375,-9.845776807330367,-1.9484149213097908,-5.324981885150919,3.5513700100198093,4.309433221353629,-2.174626871022383,-0.24284506954518292
0.58,-2.8869734739970454,-11.419025377173284,-2.6584275608572625,-5.641325779804902,0.1738686040819175,3.704258396670639,-5.671864709965121,0.4329159407191696
0.584,-2.8177940270646786,-12.32242826336244,-3.200864474949981,-5.032447552494432,-2.7406167037663636,3.2047823247448832,-9.092592268322733,1.1595703226902856
0.588,-2.1307795513313295,-12.439543245668347,-3.824234711936242,-3.6921254997819233,-5.212077558600754,2.952048309666907,-11.425303145342696,1.8997518848097457
0.592,-1.29619131019939,-12.016657167189237,-4.910065846682528,-2.0983105365654637,-7.502176421248691,3.1786613629335534,-11.994106831123872,2.6632494979645003
0.596,-0.7915099897593336,-11.48314959426898,-6.695065078495986,-0.7800520387531833,-9.78084042713283,4.03548549974721,-10.806382983189792,3.496078336995595
0.6,-0.8505010015106222,-11.153158629920085,-9.012372408264696,-0.06972199422705216,-11.84128914507653,5.443139005517878,-8.562824060978755,4.4502344474501
0.604,-1.3666284112537141,-11.020084680223249,-11.236605015786381,0.028999358989835855,-13.063503894426958,7.066182634375764,-6.317988666393262,5.5482178117724175
0.608,-1.9594798642224305,-10.773984902874417,-12.482537826990779,-0.1974643648438814,-12.674146316446468,8.44477856546905,-4.943037445661503,6.761261541926274
0.612,-2.141965297938782,-10.022539086554275,-11.980192669291682,-0.3478744643672371,-10.169713722893107,9.202297373798274,-4.675862589733242,8.005874339905006
0.616,-1.5114804668759803,-8.569186380439191,-9.44961873192483,-0.11304609814442301,-5.650175326927638,9.212208437651498,-5.015180860678129,9.157803239590862
0.62,0.11606360263027682,-6.5513670731695015,-5.259011836246827,0.6096769352967613,0.1506531287342341,8.650241604191706,-5.010841958094829,10.079378216838734
0.624,2.6439357218337136,-4.362406166545384,-0.30575583682445995,1.7204635579108754,6.15535978869741,7.8910682046075635,-3.817494876212436,10.64380095020124
0.628,5.711496221521259,-2.412714241391882,4.328179988847523,3.0042644157927043,11.371861938176494,7.308664028775411,-1.2047223518777628,10.745485369951325
0.632,8.777846223491764,-0.8888310288657522,7.773710707247005,4.227595152204344,15.205289144130575,7.08170310788887,2.272714201712688,10.304682142543868
0.636,11.251702020739287,0.32278664665665247,9.633406156157093,5.188465489141777,17.508446831531046,7.109977973495006,5.54231777497057,9.28555090818378
0.64,12.645715699404917,1.4952348255143306,10.019147899981135,5.730986111463835,18.406110203196477,7.107757883586146,7.583159863606397,7.740641635230588
0.644,12.708785434966785,2.791800216430147,9.369710120457853,5.7521640291925,18.06712481103125,6.807249073598314,7.973545363809535,5.867035913280347
0.648,11.507792655662314,4.063734264687753,8.18940699172174,5.223928900199553,16.593488161735195,6.1527632168044875,7.111412144730366,4.017508696480888
0.652,9.42169796130841,4.855902806105405,6.8390029176014195,4.2188549310182,14.070794844754346,5.354090800691665,5.970431281475726,2.619250320450817
0.656,7.024300072065728,4.622526798877857,5.4528885155239095,2.910255185357414,10.71493587790303,4.755284633671863,5.529308812047248,2.015802724534069
0.66,4.891037175515038,3.0402826455318746,4.007304995890422,1.5452321578404735,6.989151808488145,4.624299307791944,6.216798748897531,2.320883052415411
0.664,3.388321358540594,0.23561598989681443,2.4402447316533653,0.38131543118527134,3.568856140976891,4.983848158832643,7.68259853671168,3.37267926756698
0.668,2.5583324568467276,-3.1996964751308496,0.748706362333678,-0.3841450132304658,1.1341147574988781,5.593527559169843,9.044200583503425,4.824743729614681
0.672,2.1581196721900824,-6.422483557222563,-0.9925224765329403,-0.6645800159543,0.07812072147009985,6.087409550735174,9.459149271173942,6.322818503634721
0.676,1.8226168198298751,-8.670024141567694,-2.687494202026187,-0.49741161371940734,0.30034733519516976,6.175995088300169,8.67723594440622,7.669449918693033
0.68,1.2762141623586842,-9.526905970172265,-4.260598746550841,0.0031089248369653433,1.2441272367152578,5.814494824181793,7.254141901082676,8.893982160656492
0.684,0.468509447401118,-9.029632999425417,-5.6638827425837235,0.7100860540066378,2.1710563415362003,5.218771887013418,6.271533776991873,10.176118113005998
0.6880000000000001,-0.4214973383641336,-7.578940647960906,-6.842735104787607,1.5246864813002503,2.522279506321297,4.720151406539458,6.711804729501182,11.661501357282077
0.6920000000000001,-1.0952293784007452,-5.732192133406954,-7.697848956590519,2.3688126840106065,2.1622238690457607,4.536548835961867,8.839400412055056,13.284329710145073
0.6960000000000001,-1.2952685293178092,-3.9927380578746465,-8.097670016131588,3.1443135257599124,1.39216239787919,4.5936554794431,11.941333958563973,14.72319643456592
0.7000000000000001,-0.9074152140591707,-2.6492648081276116,-7.91126587153326,3.7361785313662494,0.7808258665144194,4.557020550234483,14.624593201965695,15.564093821767528
0.704,0.03755676057645019,-1.705095979234784,-7.045212494868679,4.083709513318752,0.9359276645885188,4.068160756665861,15.528679554827931,15.599428189749801
0.708,1.4300074789489656,-0.8988022524263215,-5.450160294617376,4.272224687118012,2.3252122017990473,3.0457617146237226,14.07401648592247,15.074039825670866
0.712,3.1599236540340314,0.1957414309775345,-3.094177748494076,4.568089021741457,5.180872082282576,1.848460163771506,10.825331182736818,14.688133711902992
0.716,5.124009968282934,1.9885250895259787,0.04467252191307125,5.322928855801479,9.45093150857258,1.1454674850754145,7.232225901947913,15.282016452519713
0.72,7.1408293196961665,4.646851256399202,3.9327738028189287,6.760847060709011,14.755445382102607,1.539275628793007,4.860581458419574,17.32024663324438
0.724,8.827697724212499,7.877890791664072,8.334915520942445,8.729910035993043,20.32801154375619,3.117276876829578,4.486597985405865,20.435512251633895
0.728,9.57513146513051,10.86460333300721,12.657460190378174,10.5830240617517,25.024724666421776,5.2056722330708,5.554986449270473,23.315737741398777
0.732,8.698378190940218,12.455951099157005,15.912430249663544,11.29994510624357,27.499339170274766,6.508194010387911,6.322341265440741,24.07480809836619
0.736,5.744291414685819,11.602006033070381,16.90827070360882,9.862255507467125,26.595792482224454,5.6206647842501525,4.661302653978169,21.011152145003052
0.74,0.8204123855197167,7.896908332908083,14.695439305703474,5.762995088542766,21.87769873409627,1.7281971529390603,-0.8254778575685577,13.444179610546314
0.744,-5.2579726515422465,1.9533630512015066,9.08983783478942,-0.6035830147220622,14.050029917007521,-4.869899962707336,-9.943933329537344,2.2388749821174656
0.748,-11.118277750233233,-4.6243807139780415,1.0175030231575306,-7.889924577319846,4.98773581526666,-12.69433366696478,-20.74034894649833,-10.278604251845422
0.752,-15.248635665525796,-9.736645180790617,-7.562798557010922,-14.165560265671502,-2.7789082044234874,-19.56601693493485,-30.150008925154907,-21.0438951010116
0.756,-16.524619449905202,-11.591572662857175,-14.233294890100183,-17.59688572349239,-6.981477917266602,-23.448753564968683,-35.18843013189536,-27.332211668950464
0.76,-14.607957631608997,-9.459277917749262,-16.98963561515677,-17.13901874831032,-6.540373214424733,-23.250028319834314,-34.13710378749539,-27.727092399269026
0.764,-10.043114638683278,-4.020416820842797,-15.060461455171321,-12.931347924358136,-2.0379186011102775,-19.218154358289098,-27.19354890012943,-22.558553978990545
0.768,-3.999133559369028,2.8966723573392983,-9.264319993287984,-6.211299576903457,4.540152674765466,-12.756529170921226,-16.301413556364935,-13.645039566389585
0.772,2.2064975698533544,9.070858973785732,-1.7171333417431924,1.1897950667261625,10.689266199950396,-5.778038076527878,-4.29766230645356,-3.503516352319224
0.776,7.547202882674071,12.766934988756816,4.9947105299269765,7.515161138719748,14.481272216828188,0.06014561125232376,6.183215505855628,5.587201448704064
0.78,11.508019245427334,13.339498262848508,8.836355658374146,11.638121924335564,15.353649435811121,3.903579834428001,13.57084120827244,12.261752937716693
0.784,14.013926041157504,11.299065717944245,9.062698938034032,13.275950490210562,14.208882912470756,5.803737061049901,17.62495672772303,16.243709983574462
0.788,15.18603856524183,7.887589636735186,6.381896208714124,12.851183968423925,12.818548851717424,6.4177344817636595,19.109650720981904,18.056449047080406
0.792,15.121515903377912,4.4409613298174975,2.511583734382839,11.145367339323343,12.864730056529481,6.516276413477954,19.15732386978675,18.507424493639377
0.796,13.844441819128264,1.882524836251406,-0.6387251044135382,8.948407169713732,15.115911483127206,6.563607839108158,18.674701354526007,18.24312709801265
0.8,11.448740731107534,0.568089157482973,-1.73343085876013,6.868611333829051,19.15478726110814,6.580786852450842,18.072719862511576,17.569021117467344
0.804,8.2854985180347,0.4423327378732722,-0.42172542875414365,5.3103134370240355,23.736655336314698,6.2936339372446355,17.349298360162038,16.53810268863836
0.808,5.027779469198904,1.3115220317663159,2.7284732363717694,4.526554474536852,27.501229120223286,5.427238877953641,16.364786138523073,15.15022548864789
0.812,2.514942393355909,3.004904415601942,6.64581482311155,4.6226273957969966,29.602322573086894,3.9425078358520977,15.076934852255192,13.473704654648486
0.8160000000000001,1.4172841851477784,5.329600596884177,10.253932261329794,5.474872642595756,29.934869082678006,2.0779611412309578,13.58756746269978,11.616754866002339
0.8200000000000001,1.9114451274935789,7.930244225291602,12.840657138350423,6.6569895212888355,28.927565452457316,0.22783590147594168,12.042228811115763,9.616786839013344
0.8240000000000001,3.5584909883131672,10.224360538295855,14.159413791985799,7.492004063659465,27.11480661745827,-1.2515638064769519,10.499538730635663,7.383382402654064
0.8280000000000001,5.4844807005303124,11.543293091798546,14.31431929877067,7.289895303036758,24.800001432727925,-2.185644488406865,8.9094957947068,4.787454691656876
0.8320000000000001,6.7940729736886,11.449664624019192,13.55909035466533,5.689654157918483,21.99815205288388,-2.610282192369141,7.217258360471419,1.85356782042345
0.836,6.987555694635461,10.024084340922172,12.125648306359608,2.9128950433392333,18.63360722675486,-2.7049958327590957,5.494780962364473,-1.082572407901381
0.84,6.1699150831103395,7.909515673830867,10.166001378912995,-0.237024880481556,14.803434047520568,-2.677341172756428,3.994632290833522,-3.3877498273677418
0.844,4.931106913074089,6.0178878915236,7.763612658647048,-2.6930162475022144,10.87554872195932,-2.674851841481882,3.0226717333412694,-4.366897003855371
0.848,3.979127676256425,5.039001943584026,4.977828111298777,-3.6266679974502267,7.343044754687639,-2.7507552806202966,2.7053076145674027,-3.6152602105813685
0.852,3.7410037475089837,5.037883144593081,1.8752284593645072,-2.884323311418484,4.533162991854056,-2.879245274216487,2.809018363967027,-1.2859305928498088
0.856,4.153122930358563,5.387381913686994,-1.4737258129633233,-1.1078956579142698,2.3763452885402216,-3.0016474158486517,2.7440670661620175,1.893581516143513
0.86,4.74707513741042,5.114604757168706,-4.982103534284647,0.5614145598912899,0.42964252581731444,-3.058669428811754,1.8010896208107852,4.90137510947676
0.864,4.946372279652579,3.472563808510813,-8.516484520844017,1.05295570817799,-1.8179780881835086,-3.016745850319012,-0.4969331300696922,6.868564988667941
0.868,4.399665332600236,0.4200746791175618,-11.845359096161246,-0.07615941617240196,-4.527447374540543,-2.877027786654992,-4.108467547845748,7.461281838123909
0.872,3.162017668647522,-3.275849401574561,-14.602368072318143,-2.3994461340845135,-7.251555971283864,-2.6845140188173673,-8.416211203126181,7.001155471154277
0.876,1.6378165376523839,-6.396451965882278,-16.327770319326135,-4.842724335174637,-9.03128534870197,-2.5505647808288927,-12.45192409972276,6.258358721485791
0.88,0.3661137278413946,-7.868359432249861,-16.568703451538966,-6.230025364380765,-8.809045254037244,-2.6415148923857714,-15.273312261866977,6.044194727390789
0.884,-0.23808274143456742,-7.282899340174652,-15.034451434778134,-5.871078421844942,-5.955793263304827,-3.1293367232921128,-16.31801249994237,6.821693665543506
0.888,-0.03186106633836516,-5.050847464301626,-11.731567052445541,-3.8848435347297823,-0.6364138390511869,-4.10819741873803,-15.571560435661013,8.5189218719444
0.892,0.8638654195220852,-2.1252542782514183,-7.017418807257286,-1.1044878905090343,6.168798911786098,-5.519723291612138,-13.502938876894405,10.606679862104386
0.896,2.1798801419709406,0.5299513384128716,-1.5489941625837105,1.3657372507794605,13.00539263930915,-7.128164344048173,-10.845002603670252,12.361515427226578
0.9,3.6302915364262702,2.4199615500257607,3.875922357673403,2.697038269259565,18.477521036948815,-8.555086286087771,-8.339172835743,13.164296764455685
0.904,4.968371656883221,3.6629116884076325,8.505450230869542,2.6882239584664376,21.713377507162704,-9.389181707604848,-6.567166430650275,12.69840576065235
0.908,5.986999243487546,4.758274757353661,11.800337324281486,1.7730827909842901,22.573955441822704,-9.318625064737262,-5.893341025618952,11.000052261685937
0.912,6.515309033633514,6.144644660478775,13.525929105943248,0.7046539411524009,21.53331178980187,-8.256234431008806,-6.482256265409092,8.379007088659563
0.916,6.451156402021411,7.8128689236966125,13.735012850402313,0.10341115793056588,19.322872825815693,-6.417866348396956,-8.335290363463173,5.278965558728771
0.92,5.842843841666024,9.222526930352046,12.687547689082862,0.13665297172860846,16.54409790543434,-4.282551580101199,-11.286364728861486,2.154765501778911
0.924,4.930101619129459,9.560959571438502,10.722293063859183,0.47184130744233244,13.441875785784873,-2.443472129963311,-14.998507328694814,-0.6089982714170219
0.928,4.086925041452673,8.20531521470923,8.145757459322112,0.5126844152259196,9.921045752546206,-1.3813433244538373,-18.99851792226775,-2.7507021493147477
0.932,3.6491332245173,5.1261585500792535,5.171773585930623,-0.23067779052183823,5.75693917301885,-1.2540125523887582,-22.767559850821385,-4.168362404086622
0.936,3.6973434058573957,1.0069126940587694,1.91097363665574,-1.8613805592717085,0.8630863211352562,-1.8156364361066153,-25.87774068218846,-4.939526275709113
0.9400000000000001,3.9357289479598307,-2.9871067252702233,-1.5794350188705266,-4.041582819312453,-4.5245892318083065,-2.5089142506781172,-28.106008013188102,-5.298822721048111
0.9440000000000001,3.7599242735444136,-5.69771475614391,-5.236571283984404,-6.1831057304563615,-9.839185390118473,-2.722487994441508,-29.478113854521325,-5.5560443901798635
0.9480000000000001,2.5283335417223896,-6.477932063169135,-8.9343272775061,-7.7614992099685765,-14.33873044187726,-2.0939026608029963,-30.1990409831169,-5.972907042813972
0.9520000000000001,-0.07746757970221552,-5.461625423805458,-12.45363494921287,-8.576622962301713,-17.352848956153025,-0.7154211263527941,-30.49912951131364,-6.6542665617668035
0.9560000000000001,-3.8007647611418918,-3.480451164340934,-15.50010183906329,-8.82560683728741,-18.508231886341036,0.8687803366767639,-30.477477803869192,-7.512293760968134
0.96,-7.811194745329203,-1.6623854774737197,-17.75078166053413,-8.947629201653854,-17.83365090528855,1.9167697346583736,-30.014595239096934,-8.319165710719801
0.964,-11.013528671497625,-0.9037565757673747,-18.935820839006965,-9.33724485880316,-15.712927709405449,1.856377712346557,-28.825087554571155,-8.824575600441051
0.968,-12.52931303699529,-1.4602881040777902,-18.91710539539156,-10.082000217933683,-12.715958340573252,0.5888752090340859,-26.628778193399967,-8.87268363228452
0.972,-12.108069691629908,-2.843033997815496,-17.736488338228583,-10.868728532396858,-9.40148129509646,-1.4420409826407194,-23.35932998046121,-8.461396411300427
0.976,-10.257479644256534,-4.076719518020127,-15.627419203299496,-11.133493762490616,-6.193695184304943,-3.48325264642358,-19.33112255047206,-7.736344267233221
0.98,-8.007037054094326,-4.1959928500251635,-12.96243304749214,-10.371383135670044,-3.3658930044858835,-4.8645822733876685,-15.254776135642942,-6.930468037074888
0.984,-6.412970492438717,-2.750223285329639,-10.163859129370053,-8.442762219643555,-1.09459014875938,-5.329982799298477,-12.078999720543834,-6.289486189824629
0.988,-6.045714352332482,-0.06798353011186009,-7.59469563772916,-5.7008394668125675,0.4817108109268702,-5.108795315328052,-10.681083046746153,-6.011852881556365
0.992,-6.714800290927428,2.856524719024719,-5.477821121301304,-2.861453480409068,1.2484717051007692,-4.695888583275746,-11.522606802646806,-6.217704997039959
0.996,-7.586934205894977,4.799998577929387,-3.9039230489736383,-0.6946099883236911,1.1453555779172575,-4.496233591323289,-14.437925202580573,-6.948635832063474
1.0,-7.6237497465508,4.874664539325295,-2.896151211139795,0.3199849619441011,0.21258702902264304,-4.548425921685521,-18.64053315789124,-8.168977324843468
1.004,-6.122623591671186,2.9396615988084704,-2.5024184412650357,0.1893408143985198,-1.3908570916697727,-4.516018872926907,-22.975796482226997,-9.756372138491656
1.008,-3.0940048024463067,-0.3409437191073721,-2.8413982885826954,-0.646078403074398,-3.427533173495476,-3.9468166035858303,-26.329383221581793,-11.500247704596177
1.012,0.7099627084662075,-3.816157105892671,-4.051674167951205,-1.5804246467675966,-5.674318686124707,-2.629389714232957,-28.021219479835963,-13.129688782749326
1.016,4.132071958811139,-6.379459262523369,-6.167197128255793,-2.179499740518395,-8.014568880804973,-0.8138969360045394,-28.014844995093654,-14.38114676125133
1.02,6.144091681993018,-7.434421839461265,-8.96836351786942,-2.3834007514069526,-10.46037214827902,0.8749882357988099,-26.832203611528257,-15.07074834800369
1.024,6.286363988557241,-7.083430060866931,-11.932604464263932,-2.4745914046982307,-13.079759001361026,1.7886040446173865,-25.230377382096776,-15.131952956174928
1.028,4.809921194355979,-5.973814406585461,-14.345716960323898,-2.8407586379131544,-15.866254199481318,1.66049898356232,-23.795728962785688,-14.595382443047583
1.032,2.4766578704984568,-4.917219253978942,-15.552704854203967,-3.6798718939032824,-18.63522060179139,0.8031854464516073,-22.65957912352269,-13.518651573921261
1.036,0.1410459789987044,-4.508451554266003,-15.254017877567549,-4.839869659578653,-21.025563063569507,-0.05496180079944679,-21.491218112893876,-11.921146132463491
1.04,-1.622214887309383,-4.907445986069433,-13.655659821158906,-5.872989058015719,-22.60487553089729,-0.19005531512539164,-19.737014274876856,-9.765238220703623
1.044,-2.671382522330873,-5.85880027741041,-11.389669647880282,-6.282477710782587,-23.024643698989166,0.6873151954218883,-16.980146197289287,-7.006741054218082
1.048,-3.177763595062629,-6.8807011215670855,-9.211375499719452,-5.800467401883225,-22.13853023523461,2.2711542858078246,-13.22119273456542,-3.6971158693361303
1.052,-3.344954172325288,-7.472220914244417,-7.616592172620813,-4.53039473154854,-20.023996541149018,3.874133381874344,-8.922173125303289,-0.08271854752774743
1.056,-3.1894692696015454,-7.237238082735644,-6.59000066136673,-2.884081417213565,-16.915916818431242,4.863907247252882,-4.808029997083395,3.365536151007859
1.06,-2.5253885442321007,-5.9136890096954176,-5.630209170818489,-1.3555591463234578,-13.125001257343683,5.0585458754108,-1.5513269613647935,6.027086881223113
1.064,-1.1758890655751202,-3.3963361815831377,-4.076177334275826,-0.2836874666154472,-9.008929985341183,4.8151023169075415,0.47688194866350386,7.3028969449908345
1.068,0.7462221552140136,0.20011601213809627,-1.5475883856111068,0.26602725986845144,-4.993202661560645,4.767853048444522,1.2732073127967851,6.829308233302186
1.072,2.7110622637842425,4.462655919995768,1.7465820146949227,0.4414247735855952,-1.5954708418180417,5.385815899857334,1.0843515807500808,4.648038495202854
1.076,3.9278636833582823,8.670019814221178,5.010091799716065,0.42545656391371267,0.6115522499178496,6.626445575628168,0.20506319499190795,1.2574915401988846
1.08,3.7521651913873484,11.956995486493724,7.213183248281894,0.28630052276662354,1.1473019394534276,7.932302748227357,-1.1512220502031596,-2.4885927055357797
1.084,2.1127063726419237,13.634575841586866,7.609285605436526,-0.035505444545606224,-0.1554839563486894,8.574657009516613,-2.8485553221162263,-5.613969848502393
1.088,-0.31545131981431496,13.533506174582271,6.14687938333941,-0.5899317854220953,-2.9731913802227155,8.142221952077762,-4.70935830235976,-7.307360212196045
1.092,-2.3383558267821627,12.169734411400896,3.5527042106346016,-1.243998199140151,-6.484066629305289,6.8671004570296645,-6.389158992143621,-7.171141720349397
1.096,-2.7981889284324097,10.572480802613882,1.0084870332998435,-1.6275054596621885,-9.608706610536956,5.557296690201838,-7.387684849252764,-5.346566822572186
1.1,-1.1686156627433775,9.816532129382722,-0.40122689764939423,-1.2650421078271847,-11.420609692746893,5.172710005042973,-7.212636125135759,-2.45980657804148
1.104,2.12549574674631,10.473395838390388,-0.19799042165550418,0.14303645788504582,-11.525742046527057,6.273658853988309,-5.629108939079288,0.6069753893768848
1.108,5.8611302383051225,12.29237515140403,1.2897853991598822,2.4572218791986415,-10.215417098977241,8.670295424655706,-2.841904144466298,3.043411194805003
1.112,8.588961638337537,14.314820181258938,3.13174770598107,5.035994565442934,-8.303948927869897,11.47752123796954,0.5267034856037753,4.409764063449984
1.116,9.324912586490427,15.376245863488748,4.280001003667621,6.939327251802752,-6.731871074930041,13.530943187957746,3.6626135272808824,4.775183918699213
1.12,8.005088037251198,14.73476660803317,4.099116573656829,7.332355087462474,-6.134221854932548,13.944028033330596,5.903828408397658,4.6332110827115685
1.124,5.46826263988271,12.475058436730023,2.669209522998699,5.897304894504487,-6.576691545028552,12.496961261546858,7.026145603823352,4.634436718884217
1.1280000000000001,2.997163554666713,9.46185868502107,0.7371418474754137,3.044278304156478,-7.567771217180507,9.68304868307132,7.3278118894058935,5.269306243330675
1.1320000000000001,1.689181854044591,6.884293145209995,-0.6376763490147823,-0.20235665483460252,-8.320004917228289,6.424324630797855,7.471489058983025,6.64899501521495
1.1360000000000001,1.989690103992757,5.656189416727102,-0.5579884963358381,-2.6072797126282694,-8.102867482780312,3.625985390111964,8.15866721173461,8.478010637748639
1.1400000000000001,3.602733616643718,6.008619843086308,1.3525657719815172,-3.2295814251137926,-6.512874540797384,1.8183448443396628,9.804283750715513,10.213311564372134
1.1440000000000001,5.766997474799155,7.483327705495867,4.839183943943681,-1.8013049343999228,-3.5542030508058815,1.0396183491866395,12.351528027056702,11.314544272657258
1.1480000000000001,7.715025666127531,9.298342480752353,9.187304840193065,1.209271478383016,0.46376241375537575,0.9831712616514778,15.313074625978516,11.457490248165868
1.1520000000000001,9.025715209979467,10.822366827557289,13.55193411900882,4.854335583019747,5.093581616434676,1.2663755964449592,17.99065547791588,10.606378182684466
1.156,9.696852269300962,11.857975391800437,17.252184034046877,8.125871238813488,9.856621970606739,1.6309653695407178,19.749346400587456,8.934785328011458
1.16,9.978336413904458,12.600355131039805,19.9309794730475,10.354022538422214,14.254736161658911,1.9984792224904595,20.24081420393486,6.67653092919636
1.164,10.102632307468411,13.331725849989198,21.529442487547385,11.396743193659859,17.731889228626187,2.373057137874639,19.48088968394586,4.015101874915672
1.168,10.110456781661469,14.09214218416355,22.143732194431777,11.56551724583278,19.690472935256366,2.7055788365487388,17.781985601901397,1.0839314988147635
1.172,9.877965354673279,14.570372005524177,21.878281222644546,11.362882272708703,19.62374027983242,2.8362201347526934,15.594987694344582,-1.9496289656879071
1.176,9.282567572544167,14.279087589435903,20.77801717731836,11.166820698438187,17.327702828795736,2.5431466266163625,13.338223782027853,-4.809752557242746
1.18,8.372078935810578,12.896233533028408,18.8781744521757,11.035761676224865,13.080917433018385,1.6816619806613744,11.282888261710013,-7.132632880135134
1.184,7.390667005950263,10.533154617148739,16.301315030385922,10.713349065167677,7.66667509395802,0.3091308550456233,9.51224357234878,-8.601897953910793
1.188,6.6297466740477375,7.739437163348612,13.320065028674435,9.803390421836866,2.174085688994637,-1.2858321890889783,7.956947335663244,-9.11669592797125
1.192,6.215344582783928,5.239179621031326,10.326703767889285,8.024748881877713,-2.3578144751377295,-2.672232077391527,6.4804895877964555,-8.876483242127051
1.196,5.986053344351376,3.555511026370368,7.698857754642631,5.405792060300882,-5.300424197121174,-3.4543025118373407,4.969730785785487,-8.30309447796435
1.2,5.572132763531272,2.770061959630766,5.654378169934716,2.3301873784357667,-6.626197071482238,-3.439380904797872,3.416504293545586,-7.818874810960324
1.204,4.613600180477761,2.5332954996365515,4.15859621208665,-0.6022998738958449,-6.841857887982769,-2.7246781789990564,1.944353777854758,-7.601006777297471
1.208,3.00211906033951,2.3134655780036155,2.9653413730366083,-2.806296019225556,-6.685976427135756,-1.648483867226787,0.7800835540115258,-7.452213407943418
1.212,0.9900445426717397,1.720361929399587,1.787692244358368,-3.919948968569315,-6.738202781316431,-0.6323688831234904,0.17763871173792722,-6.878699585380218
1.216,-0.9174816499789813,0.698857064285221,0.49335709594834043,-3.9061761405496327,-7.140274335134109,-2.5066874513868243e-05,0.3056734374158623,-5.357069751469453
1.22,-2.2133291193422338,-0.49831570044398177,-0.7682235674055846,-2.9903883221077194,-7.559301878433416,0.15950982292724802,1.1610580012165883,-2.6474452725310584
1.224,-2.64680679997673,-1.5147232604563214,-1.6033938902701266,-1.494517017952603,-7.397055271947011,0.013060761720225855,2.5401048035391796,1.0202431134143808
1.228,-2.3312466103761835,-2.1129201120202197,-1.567042777511233,0.33621384652497,-6.130734518868849,-0.10739637502774713,4.090654472729511,4.9954710385636645
1.232,-1.649836552540819,-2.2758619566134257,-0.4135134474227016,2.40906031669374,-3.618226234500071,0.1421708367925021,5.4275455268907535,8.468634115589794
1.236,-1.023435740191644,-2.1448607529678156,1.725376337488342,4.715179321395226,-0.21436064616409567,0.9580941741169227,6.262935669104081,10.803367309634268
1.24,-0.6679077807145859,-1.8505246463355434,4.358621137245791,7.17810157806025,3.3475727922905207,2.299154728162648,6.509019497410918,11.77337824831875
1.244,-0.5015609384117852,-1.3843342407380987,6.835600013449948,9.520745352928316,6.242928566899536,3.887577042591147,6.288800700246611,11.59499791741564
1.248,-0.23694697553423794,-0.6014598530009607,8.643613715060383,11.278335649216842,7.893512531859869,5.316018660640111,5.858397156612227,10.766036485129462
1.252,0.4041762481699607,0.639569435696103,9.640061758553202,11.977199434672002,8.193612707573266,6.211744310502581,5.4820721837832025,9.8187125691461
1.256,1.4785879916321392,2.2908286667670836,10.072611615664755,11.384202613429352,7.511836261622193,6.370101486746535,5.30179956565371,9.11545695091263
1.26,2.74959233440768,4.020118173032188,10.388556398517721,9.691638444071486,6.48048563929342,5.811644952783354,5.2763586513437986,8.778373924723837
1.264,3.7742516419612,5.268303295724763,10.918202890266912,7.489018985794701,5.671719999506877,4.728750502989897,5.20967935319095,8.740830679755618
1.268,4.095477948686266,5.449888169952828,11.62152526749469,5.5053091323934495,5.322688467681473,3.376362114978292,4.865855223609287,8.866114121255123
1.272,3.4341856484256823,4.203699074321321,12.057571539296077,4.236699495307221,5.245144303659799,1.9633872641052221,4.1156842343170865,9.049075757309765
1.276,1.7825318158006667,1.5710757496817678,11.602463254467693,3.6588753878991156,4.96203768515079,0.5867500581862259,3.0341074381831277,9.251140179324011
1.28,-0.609899946563246,-1.9646576941049716,9.823544804491576,3.2197648722049053,4.003935188886317,-0.7433093460931559,1.9189903393680652,9.487754989240784
1.284,-3.350231643922598,-5.615962068732188,6.780801901069935,2.135373045385677,2.199454127721765,-2.0294718131171976,1.194639465173168,9.802421359346226
1.288,-6.044826121627921,-8.554388381176523,3.0826454238731458,-0.1340232153957004,-0.1946207646469702,-3.210486472249613,1.2344859710228775,10.257180353427884
1.292,-8.402104483328003,-10.20258879205403,-0.35825925567769445,-3.4836466789606675,-2.602126555092582,-4.138125003417372,2.1883518509657733,10.934444158413044
1.296,-10.273423909928397,-10.44760719208216,-2.771330867305551,-7.08198201018422,-4.4313542672080075,-4.638469380639435,3.8837533053492734,11.925049267442319
1.3,-11.629441527654762,-9.681900776644397,-3.9243456988415346,-9.663961802648373,-5.413230538966673,-4.610911952879178,5.862952477267754,13.28014556594735
1.304,-12.514500332465559,-8.65136276648309,-4.263457969628689,-10.086726474830812,-5.778471103322772,-4.115256532115382,7.53823461038246,14.935514223812788
1.308,-12.993558845448206,-8.136927478031794,-4.68922289240254,-7.860990510118427,-6.139717604109137,-3.369828565761054,8.410499239443197,16.662009163337643
1.312,-13.110725446367269,-8.585432767210932,-6.064877571029683,-3.3904582872592073,-7.122284508600387,-2.6495828569331934,8.25085410381871,18.08609839126302
1.316,-12.881319730259975,-9.866092369010403,-8.720832324039293,2.1801027510919084,-8.947849524794037,-2.1581976513098198,7.147856627427245,18.781945732512213
1.32,-12.302568203906276,-11.278158110241293,-12.20010540407202,7.429214236075495,-11.215805175943387,-1.943809701308055,5.420141839798816,18.398919139896407
1.324,-11.391682951221583,-11.841994218374111,-15.406378764946567,11.190477391581226,-13.03152010609574,-1.918889914828469,3.440505949515682,16.766048819034495
1.328,-10.231995426313233,-10.75771045819647,-17.07851647291045,12.918702236820536,-13.43280135434361,-1.9661537847678119,1.47889969228072,13.93177918106312
1.332,-9.00394409535511,-7.819263103159301,-16.356320037943988,12.752588843546619,-11.897493915930681,-2.057462602329906,-0.35005555594489124,10.132227402693388
1.336,-7.973668918331896,-3.572663354717861,-13.177653652375739,11.294652155306721,-8.66240826806552,-2.3184132939350093,-2.032842180861735,5.722315418333892
1.34,-7.4061420811462995,0.8967781696319435,-8.297395650496583,9.283020458504325,-4.662684868465476,-2.9671939443342126,-3.5373349801484437,1.1137211852060318
1.344,-7.446573714899841,4.44852010524346,-2.953314560787476,7.31385187455453,-1.1163938490481087,-4.163690322257025,-4.742160358861838,-3.2595864300274116
1.348,-8.032920362290042,6.39507040881017,1.6463650301930102,5.712956422442403,1.0343615537040023,-5.855863762049921,-5.473863793600685,-6.9621594993718645
1.352,-8.886207490152174,6.7746529377145634,4.765387532424938,4.5610062654122885,1.5333301320906685,-7.716823278018637,-5.627703023402319,-9.597526398663831
1.356,-9.614714602469121,6.2325426334782605,6.295662825757972,3.7771679682900867,0.8392031729363225,-9.252626183118991,-5.3082614154245675,-10.895185983608826
1.36,-9.881340967684991,5.594191575851255,6.622317670375196,3.203511768961107,-0.21753468252245511,-10.024552143222536,-4.844408176200886,-10.81045393057093
1.364,-9.556590072104882,5.378799807905125,6.306350700498115,2.660802728577437,-0.9379456926708372,-9.873199114139425,-4.634743833457833,-9.575531657692409
1.368,-8.767383875587711,5.5361222827687016,5.778093917569095,1.9966570590258925,-1.116258379154715,-9.004451464086742,-4.900423498760574,-7.64313396739999
1.372,-7.810442394378242,5.55609253809871,5.1960140280179985,1.147783108515796,-1.0629368883055577,-7.881985890126089,-5.492900991036549,-5.529130967134279
1.3760000000000001,-6.979914542998813,4.867362668472197,4.494262731554045,0.18800076249772246,-1.3123189589641697,-6.9948866874328814,-5.908626714739512,-3.628013346048647
1.3800000000000001,-6.389430891137181,3.2921596889091234,3.56181690226731,-0.6596009304894324,-2.203014902011091,-6.618689540944615,-5.534028292036055,-2.090606813991144
1.3840000000000001,-5.9019742994096305,1.2634919197535055,2.398493425610468,-1.09428438049963,-3.5939791592263646,-6.711581370933345,-4.014915404744897,-0.8282240074158835
1.3880000000000001,-5.207172793729114,-0.33341297572314943,1.1612287936386565,-0.862194819306751,-4.877927856673523,-6.9915405964093225,-1.5239340995785824,0.37145362923320135
1.3920000000000001,-3.9962746404098652,-0.608069183635962,0.09933435851598915,0.14048871549675823,-5.27023563714647,-7.130739306967371,1.2575650945209418,1.699391537489646
1.3960000000000001,-2.1529133165854546,0.836196423830188,-0.5853176747605175,1.8274075096815068,-4.215358682734404,-6.96890946426538,3.447134810005082,3.229953924525944
1.4000000000000001,0.17228501129420692,3.649835058467943,-0.8420878775687015,3.981082157043602,-1.6868204800766762,-6.607400874092491,4.4121162444062065,4.915209743659034
1.4040000000000001,2.6160321864749676,6.849879016762316,-0.8072450571144145,6.341764517113916,1.7609654056068393,-6.348050718057493,4.085536928210786,6.6349449748354346
1.408,4.7540466900486535,9.237351446016874,-0.7489138562013977,8.663299082194499,5.197954262340318,-6.511967227832429,2.9547005749882373,8.241091268055698
1.412,6.26206219151527,9.896551274255216,-0.9499767592697026,10.69816735295899,7.6650622017814385,-7.243613071503205,1.7281909129796986,9.554533396158604
1.416,7.004198798499601,8.53857029541905,-1.597690552786844,12.140753151243189,8.498920095624271,-8.418013029686335,0.8880640029856295,10.332650510838448
1.42,7.039145010709035,5.565578611586716,-2.6874349606587202,12.624757023509119,7.521859510655304,-9.682913217122405,0.4342443641726277,10.273316992729633
1.424,6.567176427443883,1.87293903581849,-3.976391085983778,11.841093123161045,5.070206108864113,-10.602345986992077,-0.01156871459534159,9.123482715495811
1.428,5.873667673468844,-1.4764632485184848,-4.995674515221253,9.769235429010223,1.8986908996612328,-10.807001349066923,-0.8064379236438981,6.880350917117539
1.432,5.287595276061893,-3.5704528800288244,-5.143389939074041,6.870450325708589,-1.0122814508022202,-10.093907216829393,-1.8683046127953276,3.954186729032699
1.436,5.109239226833779,-3.8889677752558782,-3.897532085191415,4.035767004335867,-2.7461002205127443,-8.487924223894879,-2.5861160042113625,1.123479476371358
1.44,5.490053567338691,-2.4528995554719586,-1.0949668762132205,2.2047823279626755,-2.8090323017277115,-6.273188400798972,-2.1929268233579933,-0.802030148400263
1.444,6.266626124013783,0.11074436019043787,2.8075858456577407,1.7747196637947127,-1.4605349147213929,-4.0170268114216015,-0.43734724400746927,-1.493580354943333
1.448,6.850387390567903,2.6293569726994974,6.657750347168985,2.1450571418718027,0.16824377343255037,-2.533496515470688,1.8812989385132823,-1.4984015732179614
1.452,6.285422613007086,3.62698952912433,8.843733129910106,1.7369865604678125,0.31458710182869254,-2.7269854692767694,2.9393647426149982,-2.2196395140545064
1.456,3.5468237142140424,1.763772484079709,7.821820615199613,-1.3806907623129518,-2.797418555672266,-5.306976261352247,0.6008178534957551,-5.359295591580121
1.46,-1.9495661454088804,-3.6011974999173617,2.7974054170481395,-8.453858891174605,-10.133241759233897,-10.421491256021909,-6.439881129221249,-11.991145665619115
1.464,-9.860848177596836,-11.956986426321237,-5.762076457816875,-19.11274367898659,-21.17870066465275,-17.38662794134143,-17.686288268387216,-21.714447306774673
1.468,-18.73509948147148,-21.551836894999724,-16.043857147822564,-31.088012238451483,-33.780952055284615,-24.685393771178497,-30.604512030524347,-32.374715229021604
1.472,-26.317030087956482,-29.81645469477826,-25.348560916529095,-40.846684802925665,-44.67909542203597,-30.3264416723232,-41.35308765289665,-40.620306701493064
1.476,-30.31448507808227,-34.23295788228643,-30.998437153390114,-44.97510399633575,-50.616975385335536,-32.51513542808789,-46.240566488111654,-43.154149654300454
1.48,-29.319253805849257,-33.305846978426416,-31.312636586935696,-41.67370882443811,-49.59396032136374,-30.362748077524884,-43.23735086204033,-38.14629649937706
1.484,-23.456896495652927,-27.18983902236414,-26.23377349543989,-31.62288780207018,-41.685304552317575,-24.30841534852152,-32.82904171907467,-26.12628764846795
1.488,-14.412371394041656,-17.645532941165584,-17.313344541520564,-17.745327040961456,-29.031306287413827,-16.006304732101853,-17.80177521803307,-9.88482419212778
1.492,-4.7787971500697495,-7.318729625450942,-7.055316121632131,-3.95202640037769,-14.988611655749992,-7.683752503222422,-2.079377952552022,6.598602671357185
1.496,2.989982054677057,1.32926975987084,2.071215240690435,6.51258792790486,-2.8382589500324684,-1.2622109099866066,10.799169122861713,19.697658333512663
1.5,7.5392098666679885,6.945735517177127,8.527465568849948,12.322571788317873,5.369671775752067,2.3584132928772306,18.875484384183437,27.42864853174433
1.504,9.016665424993334,9.619803905131448,12.10384683537086,14.313788575593207,9.32667970970033,3.4993492115227127,22.134273281579226,29.900200992121427
1.508,8.739188330320758,10.495115576650278,13.687388463564275,14.659806330400897,10.17393475562858,3.3171960272466094,21.98821373631654,28.787101125348272
1.512,8.339414045442936,10.927534329689479,14.585865445737,15.48380426672702,9.656302351886552,3.0638200577304815,20.278461310297644,26.196160880293064
1.516,8.861908526442221,11.667630945987185,15.767845451973699,17.6615119609678,9.189317653861508,3.388112411055772,18.350493649739292,23.55908802482736
1.52,10.296972339876902,12.513202433844526,17.41107223049221,20.43168352547218,9.290778871307339,4.05418277341596,16.645038977418153,21.111933597750067
1.524,11.754144139030814,12.581429335057692,18.93566204297531,21.950998594096745,9.593488763570349,4.195337001521693,14.87855129026866,18.155691649842083
1.528,12.1339738362758,11.003754263106202,19.463937187652846,20.444741970650284,9.342954337880656,2.941825094836531,12.590175672658006,13.85533291680531
1.532,10.876213718844156,7.604597384771296,18.425662290961554,15.291752978874683,8.027619169257378,0.0433526416454697,9.667049645588122,8.04986345452835
1.536,8.338391707187384,3.1538553616028366,15.949250441915865,7.450088830591994,5.777048943456975,-3.8915559849374404,6.529459684681569,1.5841018663313662
1.54,5.623065187188331,-0.9266852888131325,12.863443103380632,-0.9469655210796191,3.350580070997239,-7.656425224791747,3.9346644698744058,-4.0032876359136935
1.544,3.9679248553561592,-3.228552556719478,10.31549394870126,-7.5642012108364725,1.7789607146605704,-10.055716706126987,2.558951953509677,-7.223432815564593
1.548,4.074211099394233,-3.004224432448609,9.229953076777747,-10.856229008220907,1.9042002028854768,-10.5015264806716,2.642833425106801,-7.367217149011594
1.552,5.7650185903530655,-0.44219138181233575,9.898082086378054,-10.582463117445513,4.060495456147692,-9.258053276495048,3.9111855257888237,-4.814699463869147
1.556,8.143536818022312,3.533940437236197,11.868386280459163,-7.664401547650414,8.001247986761882,-7.232650812326028,5.778177440011859,-0.7887500141296186
1.56,10.133518743644345,7.791803717260336,14.188151183618174,-3.5460452603983867,13.042493953160374,-5.442606972097565,7.691662700082816,3.2709495367680574
1.564,11.048273120986323,11.500954188086325,15.828258804298457,0.5268103338667061,18.294938167802684,-4.4908590307531995,9.390619199628418,6.344400191052046
1.568,10.870544097321726,14.354195314531353,16.08738677629117,3.9344358129956163,22.87048900606169,-4.335621292411815,10.942949016058265,8.153628950502934
1.572,10.107118303509196,16.432692185700944,14.796266202976767,6.65933589022643,26.013525004727853,-4.45614413822841,12.562250561833935,9.045178220812886
1.576,9.357672306449786,17.870792656812228,12.256545299109348,8.929674157347108,27.180360728689266,-4.287503373499931,14.332353082238114,9.56904267079517
1.58,8.899552699494961,18.59070318560771,9.018925939286419,10.817628838325618,26.118337082180005,-3.631919392188138,16.031773533311934,10.035790256221844
1.584,8.530674003905006,18.277963997583356,5.627329037839445,12.04542040720662,22.957486797167803,-2.8104853789845947,17.158789946404795,10.309270187766742
1.588,7.7587245082158915,16.609542815882378,2.4677265310765506,12.109480026530946,18.26862303971575,-2.4620156613491417,17.15344636221198,9.929332285542841
1.592,6.184830010502992,13.566056097462024,-0.23060906479440746,10.612544264965436,13.01035700434204,-3.122623116678369,15.701537078206456,8.452513464634649
1.596,3.8220509478012445,9.590825235691455,-2.3094647266248103,7.558580212103607,8.316615378264032,-4.872233416526797,12.938742031492438,5.776967479368295
1.6,1.1528411933338703,5.476840185374385,-3.5916994138651717,3.426050423025117,5.1722318613287825,-7.246664768267692,9.451644342779218,2.2591236357727666
1.604,-1.1095501897007125,2.0327059714272764,-3.8774594950082246,-1.0265119903269806,4.10378575100367,-9.468213358639332,6.065539269737201,-1.4289975626679734
1.608,-2.4043930709440247,-0.27557529914611223,-3.0217467329784995,-5.095926884354412,5.030949045194575,-10.845228359856264,3.522360882281646,-4.5998503538939985
1.612,-2.6203445551109326,-1.4929832843226905,-1.0342536408061278,-8.411494535012025,7.352305190775951,-11.108555609836912,2.2045059338870487,-6.826036399089389
1.616,-2.1365047165227224,-2.0609276713439613,1.8495632077556365,-11.003261983431003,10.219390449707134,-10.512496302548243,2.020688859416623,-8.049210041558581
1.62,-1.5789829277005083,-2.491197140172517,5.204911144299331,-13.121996315609067,12.872698914898137,-9.641528116637346,2.5113233160991513,-8.487230125912902
1.624,-1.4652548607386962,-3.0357152410151684,8.534157397825766,-14.946801925767431,14.883119766180243,-9.064294745126972,3.096238121492206,-8.421758751092966
1.6280000000000001,-1.9366411608834824,-3.543965304765152,11.396986548919813,-16.357713730492833,16.20381639175139,-9.024168482494133,3.33403671537053,-8.00783773375042
1.6320000000000001,-2.7132448482793734,-3.580225188346958,13.492497970897602,-16.916365101144038,17.03176251066907,-9.31846382349977,3.072006058493571,-7.219081144561642
1.6360000000000001,-3.278807429093831,-2.734906996749487,14.641961820236247,-16.08922593393072,17.569758667666974,-9.43327971794497,2.415403126000456,-5.953125114536306
1.6400000000000001,-3.156540936449346,-0.9352340195073339,14.730523937725593,-13.578387193167146,17.836240603281112,-8.829810382419964,1.5696130732067104,-4.213351742755549
1.6440000000000001,-2.1391280104880934,1.4110985132101632,13.657891988945266,-9.585380802323925,17.61705301989423,-7.2393852330314985,0.6433827997279877,-2.241387502422185
1.6480000000000001,-0.3759527456049909,3.518486613758796,11.358694777780329,-4.855270894513524,16.582569578265975,-4.820402016051958,-0.46043108569210744,-0.506263629955356
1.6520000000000001,1.7073154846366378,4.531397426382682,7.908924493549421,-0.4498594485921785,14.506275323697992,-2.1037216099430225,-1.9869789541735372,0.4700980977204381
1.6560000000000001,3.582164521758841,3.8693302099227367,3.621681664175412,2.632409893010845,11.436368457303615,0.2069165697103017,-4.149561871856349,0.3532362322839617
1.6600000000000001,4.779740597183718,1.44927308088063,-0.942498351665563,3.818728502092199,7.721640088910135,1.505928191840212,-6.921392550593737,-0.8237503456875857
1.6640000000000001,4.989692388174717,-2.3011872913393745,-5.1078283405113325,3.1318290451990833,3.8780696518842888,1.5144540521287126,-9.927399903634068,-2.6443579020606194
1.668,4.094985809455466,-6.638483703507518,-8.336931704647213,1.0836618827916027,0.3487931183881301,0.3727003372841864,-12.529503400915928,-4.482896604808047
1.672,2.1699069024443816,-10.793335471498722,-10.477024080113551,-1.624698554927818,-2.7132659058552235,-1.4168735111416026,-14.076880509541297,-5.783408622915886
1.676,-0.5468333841113235,-14.229581311195943,-11.861897607192077,-4.448396828265686,-5.514472259486865,-3.1804531337074877,-14.221353905448268,-6.311421957168932
1.68,-3.6876467540178055,-16.756702458133077,-13.166922905547835,-7.206159249911252,-8.480586472511277,-4.318463776995486,-13.129513452746323,-6.253776085450227
1.684,-6.803888267635557,-18.464046561863142,-15.057960841440945,-10.048977020985149,-11.970154027330864,-4.527317135343765,-11.464643037892529,-6.1221325823316874
1.688,-9.4482749400795,-19.54312291705628,-17.799935980036025,-13.222211604350377,-15.977004902726549,-3.913240930727625,-10.121815596672604,-6.50079278629255
1.692,-11.273940354490605,-20.09396358849517,-21.01390691340748,-16.74986668802285,-19.966845360731895,-2.9176983985344123,-9.812330576722161,-7.75786040636558
1.696,-12.123656963788562,-20.036158575665468,-23.74389530449116,-20.241290473528352,-22.966009067433333,-2.0859446489121183,-10.704084491828326,-9.863878138829023
1.7,-12.059173116896545,-19.16038824270254,-24.8186798904062,-22.938724211803674,-23.898350993409622,-1.7771015036923927,-12.29218826761462,-12.391927876220507
1.704,-11.315211411184464,-17.293969072843538,-23.35826556864049,-24.01018866171762,-22.049733519972506,-1.9761655489419354,-13.598967036950853,-14.702177505101645
1.708,-10.197357222811661,-14.488981913861608,-19.1916114561227,-22.945202947697,-17.447724398735772,-2.313867391019812,-13.625512608925419,-16.2135266625246
1.712,-8.9716237678158,-11.109446404958362,-12.974865748497905,-19.836411666298773,-10.957408342078452,-2.2834686890546436,-11.839827509185852,-16.62091301134751
1.716,-7.799727056935808,-7.75279766350468,-5.963382899304634,-15.404096601064339,-4.027231482949901,-1.5500445405068604,-8.476019197623827,-15.967763176558947
1.72,-6.727390277011182,-5.026141046969315,0.4558943660795194,-10.72595546622506,1.8234179303108249,-0.17122881682007574,-4.470910553925933,-14.55954380599178
1.724,-5.713507767147803,-3.2803763691827044,5.242269208212747,-6.791926892995434,5.539573970091624,1.4010721927352279,-1.0432582052162616,-12.77954337727897
1.728,-4.678317403308938,-2.4466152556879024,7.979910052023115,-4.1083499171490985,6.852048188438857,2.5578337075876334,0.8814614527618687,-10.914311771673965
1.732,-3.558112771101605,-2.079121573970042,8.863151784295042,-2.5461401122829557,6.247803852695142,2.8891012288604543,1.1225343644673558,-9.07780393806297
1.736,-2.3578120887254954,-1.6016001626157959,8.434141800558791,-1.5166613981364208,4.625629379962447,2.433148587926553,0.3265679402757087,-7.255361418174289
1.74,-1.1771569318570982,-0.6213047291184921,7.259723950000989,-0.36747086181094346,2.8305488228725153,1.6711169281770708,-0.35053881598105363,-5.410307782498421
1.744,-0.1989429380587353,0.8513618211800349,5.7145649754638725,1.2150650266121374,1.297007425027914,1.2450809413276147,0.1807783022250078,-3.579169704621563
1.748,0.35501124981510657,2.389914271971975,3.954886915144016,3.013889616288907,-0.025475400937466475,1.5633619115706097,2.393665867017262,-1.8822363312892776
1.752,0.29886933411944483,3.366078848774123,2.045500829724915,4.411019914105054,-1.4594617631591973,2.548753416787804,5.9108232946637145,-0.43925708494225546
1.756,-0.4281209504065373,3.27449749736752,0.10804240631841822,4.7578042016793916,-3.2650315679866253,3.6844185203117377,9.690780424865807,0.7476331431007566
1.76,-1.7128381252709914,1.9820575331623331,-1.630789965045551,3.7686516257781477,-5.401773199530908,4.341819172250325,12.528199175490954,1.8492488922838675
1.764,-3.2834996566125483,-0.22862666794389952,-2.9338692100791377,1.7045595239887916,-7.537617485159899,4.18734808354202,13.606783927123615,3.145665011302299
1.768,-4.801201714755734,-2.835742369118634,-3.7280603202361817,-0.7607772214905708,-9.285644059807964,3.4138311507540493,12.825319854020563,4.860593903827066
1.772,-5.993807383490548,-5.3587260785425315,-4.204732839151802,-2.901360023104644,-10.481286546464617,2.6571870586321893,10.759903058091368,6.9869867061242985
1.776,-6.77124537336158,-7.571419514166337,-4.75704946677979,-4.320544264196542,-11.296973932217043,2.6337657859749015,8.314757486130475,9.214787797374811
1.78,-7.245436321939451,-9.51749965572344,-5.744390165208642,-5.113795720881171,-12.088903841948195,3.725875837102649,6.288022456690669,11.024090129230899
1.784,-7.629513535473507,-11.328167335781473,-7.206487245421158,-5.706656334974468,-13.059238494318379,5.755651668590872,5.079895757367922,11.915974442775223
1.788,-8.06528482122485,-12.963242529036506,-8.700803161324984,-6.4579246615794546,-13.951887791194167,8.097229365817839,4.667106803082788,11.680841421944024
1.792,-8.470725625842533,-14.047281323469178,-9.377892020491345,-7.272268393822742,-14.001056355022229,10.061092876832845,4.8097625546743075,10.559488517831596
1.796,-8.506206318263594,-13.929480732240336,-8.310114381778476,-7.478578745114646,-12.216631509250874,11.297895742689434,5.310596578615332,9.196535723733177
1.8,-7.697819677821826,-11.961816150905179,-4.934281352603648,-6.088807047649425,-7.907383227564424,11.968714765989716,6.144544980719729,8.38940675087997
1.804,-5.6694447220957045,-7.857817233419155,0.6045678369509915,-2.334188037804779,-1.1735179976094514,12.563974465461797,7.390627468396815,8.737900073125275
1.808,-2.373584939329703,-1.9385675194789656,7.396426307884212,3.810195340894097,6.932005013184607,13.499973736183165,9.042977765652722,10.367061136888879
1.812,1.8152010612197955,4.881130121581009,14.055432330522308,11.425588064297699,14.713470029601922,14.773879885397037,10.867880403669915,12.86615099960909
1.816,6.183726190944981,11.3722480723427,19.219315405838643,18.908629827181358,20.482357794105155,15.900627285753217,12.42266947816006,15.468277508222855
1.82,9.914937190292676,16.422907979298543,22.047792183293495,24.58602840912954,23.235443918229066,16.195799386074214,13.256103399083258,17.388157434185814
1.824,12.368879539423688,19.416504530087877,22.484598728512537,27.37797344388946,23.009962687518964,15.227341756813985,13.169481614274446,18.154083650716075
1.828,13.273197122903639,20.385184641752858,21.165872403951653,27.176121674202477,20.74385156063545,13.151780028336361,12.367504230556733,17.7761454501956
1.832,12.747999228793105,19.889408819151868,19.043503124212293,24.75661144375681,17.732463300670133,10.723243203619859,11.39949308551968,16.686894869343632
1.836,11.170546335169547,18.688602527115563,16.90809897543295,21.29256611891742,14.976202548387846,8.940237492392043,10.897794050313678,15.504990741645997
1.84,8.968905033485044,17.364645234906675,15.053829357552786,17.74265578865743,12.75762550538002,8.53512674380545,11.255824812745232,14.744257913545425
1.844,6.465596124703097,16.081394290181834,13.231305159254589,14.439810155296982,10.641284875799101,9.594856410618377,12.429920039230637,14.599119075970066
1.848,3.833257802694334,14.581964905075893,10.8881866741267,11.086778658750518,7.863798458786732,11.534477812732803,13.97282694364094,14.901236166876515
1.852,1.1668201283405324,12.413272213470918,7.572284022493477,7.1375619115005975,3.8814853539297474,13.448945197460489,15.287634214854734,15.251482057362864
1.856,-1.4012799688935047,9.251627280564207,3.2735824806013625,2.315316542378241,-1.23345557047287,14.615113035752074,15.947799892835974,15.241265446814396
1.86,-3.6309175533256166,5.163773162672442,-1.4602747407789138,-3.0439498763662414,-6.736175301093681,14.860000638211204,15.908514175464916,14.64781162209556
1.864,-5.198653841313444,0.6729132046184532,-5.68706589525209,-8.025665014210063,-11.509159909562186,14.575823823028259,15.490592178348379,13.505325888460902
1.868,-5.811154548313198,-3.409056161442095,-8.434711209614761,-11.525618428614507,-14.534607624486853,14.389926202537026,15.153588230431524,12.040834481996171
1.872,-5.333851792110181,-6.2859532659713295,-9.073814502877212,-12.75952558685367,-15.277663056472193,14.724387620939524,15.207504752371278,10.540113200630913
1.8760000000000001,-3.8548670068250885,-7.479115842466854,-7.537685282452912,-11.607782759249858,-13.808722012660837,15.517266204493353,15.620600806177208,9.21586409131396
1.8800000000000001,-1.6500770429654494,-6.977285061950624,-4.300137321230068,-8.611324465686266,-10.654284169897437,16.273438515163434,16.038971583714556,8.144693666207786
1.8840000000000001,0.9312395410413501,-5.173660341039977,-0.14991262079092849,-4.650883177025207,-6.517455104559303,16.38957591977305,15.994150840501788,7.280273260414106
1.8880000000000001,3.590175781355356,-2.6399508685985893,4.104316938422016,-0.5105524099162722,-2.038146415974552,15.545089264938724,15.176430181217256,6.515504692177728
1.8920000000000001,6.149919427934947,0.13880962244820694,7.87065539685409,3.4288930516549954,2.306795432849867,13.917406921704242,13.633165313197424,5.754936808501952
1.8960000000000001,8.521107433013412,2.912423932920319,10.850640290181218,7.194314545411089,6.167228642922055,12.076433374568296,11.772388902680177,4.953527494121772
1.9000000000000001,10.602975027186176,5.632202331843018,12.973059277204811,10.956059265513431,9.239311788484883,10.633310780205647,10.183387182323713,4.111518405414245
1.9040000000000001,12.20548467333765,8.281673085563853,14.260161363054067,14.679816787105665,11.233578545973614,9.854332342993075,9.368071119900378,3.2455305895755373
1.9080000000000001,13.044219175289982,10.689943248188229,14.711728773208051,17.92602337251219,11.938776556308767,9.482775774125912,9.514925289322491,2.3688307154188806
1.9120000000000001,12.831790100351554,12.469807065097939,14.284891299483206,19.9434291915004,11.340598984688768,8.892723947807099,10.433912549211527,1.50441267465294
1.9160000000000001,11.429236930586285,13.14077453674372,12.96041230163246,20.015101868858437,9.696204949683306,7.481672085450555,11.666763527439798,0.7201089886370937
1.92,8.968926256573468,12.370151564724893,10.82647567845288,17.858768312557004,7.48512708488488,5.079542528696038,12.70773300509336,0.1594663042551474
1.924,5.861149655952659,10.184486083992851,8.102109086788914,13.830506419683843,5.222325463620109,2.1123198443492583,13.211216716376839,0.028974781064789568
1.928,2.6627101173298797,7.015677796183354,5.076680636291712,8.811298071683268,3.2350812317527016,-0.5778754232787833,13.091794283423042,0.5338343681978586
1.932,-0.1340272640841249,3.542372542071462,2.0120352539570376,3.8416905288218004,1.5410528322345272,-2.1470994183364382,12.499293851632501,1.7902691830986441
1.936,-2.2977551369451703,0.396996453373049,-0.9426382404917604,-0.3079897725037881,-0.09561645153644349,-2.1794082753031034,11.696645266300948,3.757616960139785
1.94,-3.9216422320182573,-2.0864047992267842,-3.7512702389039987,-3.390316414725021,-1.9418170231892873,-0.8803667729507652,10.925188363042253,6.232084370611574
1.944,-5.319742667404171,-3.936747747262416,-6.40666830408918,-5.63000781809842,-4.030210213278679,1.0566656814462476,10.326143781406245,8.90499226753991
1.948,-6.810313507791989,-5.400487584262919,-8.82079171146961,-7.425326570212292,-6.011468433772279,2.8269303711167595,9.93231298376395,11.459087917095076
1.952,-8.493348129561355,-6.676057622257304,-10.75283987765306,-8.976812847992278,-7.21828254248021,3.9286797064414714,9.719489642592634,13.662574846065127
1.956,-10.146192591561658,-7.700188178735971,-11.849120549570216,-10.075040862297556,-6.931381346082617,4.379894469023384,9.659689221630288,15.416338149380863
1.96,-11.296621173508129,-8.125040811908548,-11.781735651803501,-10.174533938173681,-4.73992761533691,4.634194618573019,9.745729462869349,16.727875859996402
1.964,-11.430344673302443,-7.503476166241853,-10.419569480161044,-8.71027429454989,-0.8139299151225714,5.2547479873474,9.98452318834552,17.626943272520748
1.968,-10.235458761814698,-5.568053576217153,-7.93782702556382,-5.473438898002314,4.075699767183778,6.543163704179278,10.365260162511731,18.07291785028974
1.972,-7.745057289399028,-2.415871906985103,-4.77187825186229,-0.8043882124948141,8.841298949710563,8.349737531841129,10.851026921845005,17.9206899702981
1.976,-4.32228500833844,1.4970948843979386,-1.447463591046926,4.496866972399857,12.539200925545629,10.148235172791829,11.386239876828768,16.964966409136196
1.98,-0.5091630457563951,5.546094331540644,1.6238770597669827,9.489513997120412,14.783797246338963,11.321859679279441,11.906528301907201,15.047654034257903
1.984,3.173232638892614,9.19642175838635,4.265985412927421,13.457364613451318,15.894089787545,11.476664010408058,12.337655386261758,12.171437274051641
1.988,6.370006886996634,12.172335465637389,6.503163388277244,16.12073239028723,16.680980934216677,10.612085472915169,12.576745242141897,8.565598301929413
1.992,8.928286914299633,14.455390207666369,8.403910982661728,17.606875802847753,17.96802322112171,9.079589512810344,12.478331599843386,4.666850215691738
1.996,10.832078179883183,16.15380621443728,9.904231460545816,18.223047597131426,20.089518783906442,7.369520056313377,11.873296415041295,1.0181873168326092
2.0,12.10817067500443,17.368560505889036,10.750697092072187,18.20334536301334,22.634310656126218,5.881134114785709,10.644868377284183,-1.86960049116351
2.004,12.772956452738072,18.157405545920028,10.615882044660339,17.592008135124615,24.580165778965693,4.799225499876229,8.823726752516905,-3.6490387112291955
2.008,12.82641746584386,18.606166238657806,9.32808566591666,16.3200542899649,24.781451675195513,4.119151952221728,6.653674159370439,-4.210302368160683
2.012,12.275544198003672,18.91583208406746,7.07947209716167,14.401951977989029,22.567415540164802,3.7725430121190584,4.576197613142085,-3.66800668318956
2.016,11.142907263403231,19.377047775879646,4.443263621103597,12.087035068328532,18.127143585931208,3.7317822926870576,3.0898141108527852,-2.2894816424554847
2.02,9.44017757596498,20.193600400327114,2.149050352535596,9.838590898170878,12.459816179882182,4.014966203160839,2.5383778181026173,-0.4091805063726497
2.024,7.141279804602618,21.236403980160958,0.7121322431976296,8.124734913543307,6.905910337186924,4.588987439941775,2.922534750076011,1.6344876249740992
2.028,4.210432458130981,21.913874051142557,0.12049959867363214,7.145631126162698,2.5189779558295413,5.267993441801991,3.836987849173056,3.534438718776528
2.032,0.7154664529552974,21.32622161120662,-0.1984985067397247,6.696110138739641,-0.3671634272755,5.7246402904074785,4.604845195615326,5.03874210154072
2.036,-3.0431578036052542,18.688412718334575,-1.081993407673508,6.267071937676519,-2.1376411440769516,5.634353972392091,4.561796611292721,5.976250956485501
2.04,-6.47524328125985,13.837209223591344,-3.124908424446403,5.355044063975129,-3.4741292025623807,4.8851036161231605,3.3705733071019495,6.285615670617972
2.044,-8.801524280410831,7.521014493184339,-6.245483305712696,3.7970254773972556,-4.788812258030248,3.7047160991824057,1.2088909636336211,6.028204412670675
2.048,-9.318033757217563,1.262604820903789,-9.585076960132028,1.9421678809590048,-5.863046688038139,2.607355936563181,-1.261141498291181,5.372507737447222
2.052,-7.701543815485593,-3.1924916505470264,-11.822319927438912,0.5493221149986312,-5.9245438801317505,2.161839502626208,-3.1322395087490804,4.539204291144188
2.056,-4.208119119814683,-4.604524180126873,-11.778939616285243,0.43729595068134586,-4.132748108157102,2.683260240600248,-3.616584668749965,3.7127661500321665
2.06,0.37815987905571546,-2.7699358000090797,-8.993380293521568,2.0873627189039325,-0.17897698033584675,4.03565120035455,-2.366213210157184,2.9580695579293206
2.064,5.058410772874254,1.4283459106920873,-3.951970609271484,5.410620833268013,5.378866492786983,5.670035803264909,0.3952426780697351,2.194178022750293
2.068,9.021149128013803,6.460037741732322,2.1463682593271187,9.7754730201857,11.27115333956499,6.8835541129110425,3.971720996813019,1.244461604211665
2.072,11.91599623039815,10.826961774092979,7.956141120780103,14.263372531731875,16.08762176747541,7.162217824033178,7.470052307176047,-0.053663058451775214
2.076,13.84495229953177,13.61937258239709,12.555773585247152,18.005510695595603,18.941352642313177,6.416384511085198,10.115633555354634,-1.7271358742411849
2.08,15.090773544210151,14.68603356282756,15.721598618051303,20.43725124258799,19.831959860337292,4.9900484223753665,11.489739960044972,-3.5930394095362317
2.084,15.775581142877513,14.404529064318922,17.774774721947324,21.37313055560162,19.494600204048993,3.4395718769460473,11.60480535420993,-5.283700802500334
2.088,15.687729494915516,13.263536723876086,19.137850031166636,20.92507550994992,18.84642571410359,2.22259271553321,10.8119041515979,-6.3585298302423325
2.092,14.418267264954466,11.565937169767494,19.92806158003168,19.377932031068212,18.38927285117802,1.4967300823104779,9.620962922504077,-6.448936456536785
2.096,11.730393994374367,9.424810225548072,19.850155197899312,17.09632371244288,17.9384071259517,1.124248356228236,8.513038237417732,-5.3714245054407
2.1,7.917750231523769,6.995128695164112,18.45987300194065,14.481979728748456,16.831948081084192,0.8623318347795248,7.81516191347373,-3.159395735156295
2.104,3.862636160334546,4.68984664632103,15.593236012273792,11.924442660075783,14.440580151043378,0.578879512561798,7.651613404557338,-0.026523124428877054
2.108,0.684463583697493,3.153934131600181,11.643600727456942,9.706323384378493,10.638834779634408,0.34664514007499747,7.950939825640489,3.7073093302969937
2.112,-0.8416973514873689,2.953075024252712,7.480242427697931,7.896178201032399,5.933659505094056,0.3775218472665074,8.50025092062424,7.698377879830105
2.116,-0.7641927479235164,4.151329756960195,4.004012687284785,6.3028541199730626,1.1694810821873034,0.8393799622654115,9.021587458302747,11.631417134361982
2.12,0.00788679570041495,6.099795058360769,1.6322827584779134,4.585906631793023,-2.961087693790887,1.7134100781349844,9.269576781728574,15.245103370266179
2.124,0.20584430535461706,7.645225042699167,0.06325612141608872,2.5169087805902564,-6.250778979220286,2.798188132033829,9.1344237708106,18.338100720908415
2.128,-1.0098482495534427,7.706822252499705,-1.495244932814785,0.2657519079980375,-8.920275228101445,3.860315414393426,8.712008914475064,20.762651693686394
2.132,-3.426695145423082,5.916585612451399,-3.7295883875303844,-1.4752258106711906,-11.21943817196825,4.814431858121679,8.289117184969655,22.407850228021857
2.136,-5.74528705945454,2.9178071715271017,-6.638075099528123,-1.6871038748224692,-12.9900912268713,5.7731291791697,8.211833127315003,23.16701504860987
2.14,-6.221411475756327,0.10879089810623555,-9.343178400763918,0.4887665569365254,-13.536792401692765,6.920605393203459,8.670211946928248,22.892505131590156
2.144,-3.6579315960514123,-1.0627731286758717,-10.464655549915733,5.200260822707378,-11.96590126656838,8.268851849041766,9.50513976809225,21.38203212724011
2.148,1.8029634518065905,0.13385418620373457,-8.875783005958965,11.587483768918446,-7.805405519557098,9.476926509037185,10.1712506277172,18.444921574514865
2.152,8.584068709633016,3.3395592997369477,-4.3888511869186,17.978805814489533,-1.4935654093123958,9.910551457420297,9.942808521765755,14.0610079194023
2.156,14.402797413849555,7.349608938910251,2.048818532206951,22.568804962513696,5.632496634948893,8.96185472563775,8.321882799752302,8.582547390656146
2.16,17.44469546678107,10.829061573325362,8.789150277292265,24.262769950141774,11.905463262575722,6.471713333741718,5.454223896028907,2.8473192171961728
2.164,17.325947659249096,13.063368788322464,14.298092737154093,23.2247827209153,16.135906559265777,2.97708209150278,2.289183700600006,-1.9288619335281965
2.168,15.269235975364495,14.269805610965932,17.84830773548765,20.793600403754567,18.16304153066085,-0.4277794397626167,0.2977585671635552,-4.531812877565244
2.172,13.365528323467856,15.27739338980814,19.681882032980866,18.756676318693735,18.78397913838444,-2.5975257004647574,0.7933743544801928,-4.290395898075531
2.176,13.292697502756198,16.75832403964955,20.54117476885085,18.314071752882683,19.06158449593181,-2.980543528169619,4.126267876786642,-1.5415358486065998
2.18,15.215808523989779,18.500833016997717,20.89865452545837,19.29558189844022,19.434379957790952,-2.0275651568783815,9.185282220702675,2.256138018862657
2.184,17.53338375969713,19.218796299923156,20.411248936343327,20.09088683518121,19.204136714487504,-1.096012763096951,13.564666067656162,4.916068401147413
2.188,17.65764776888591,17.086307090350147,17.99341456720731,18.389666386152953,16.784909015974222,-1.8327149254250799,14.451086927021151,4.347348400565579
2.192,13.444665500938697,10.756691702255011,12.526358439529758,12.400912810260706,10.645476625893593,-5.308765687780124,9.901320085621819,-0.5106801345093572
2.196,4.500170647050311,0.31692926878668004,3.775262373134865,1.9281913261561385,0.42300111480506075,-11.363348817771111,-0.07692260440830978,-9.071588474810596
2.2,-7.350223657417587,-12.367537000432662,-7.064613910067692,-11.255709546417165,-12.464712090946136,-18.50910562104832,-13.211745470013739,-19.13235275469674
2.204,-18.71066953132174,-24.167027623838294,-17.589721826616255,-23.960134117498683,-25.12036322697236,-24.48692277558962,-25.671906055531508,-27.60115692752629
2.208,-26.067351198387996,-31.856180852524176,-25.12608544493787,-32.80371409463828,-34.26787887268131,-27.215301554335838,-33.538411426279026,-31.636009033866628
2.212,-27.298054937064762,-33.39291488067067,-27.89088450027043,-35.52372674372032,-37.605571036355514,-25.669897077848873,-34.390903845964885,-29.717002519158825
2.216,-22.4948820103412,-28.707986277123382,-25.752342352992855,-31.75756571061322,-34.71079998038999,-20.28372834534639,-28.27749145741302,-22.195704186487887
2.22,-13.732433519150732,-19.64913181662223,-20.17143573295175,-22.972388627676764,-27.043613602114647,-12.688603586427234,-17.60448023651486,-11.101914212656084
2.224,-3.9774305434573307,-9.152038283899572,-13.389298065822004,-11.671897477161565,-17.117767972758884,-4.976771456108736,-6.019079726050336,0.6633180127209926
2.228,4.248399961883479,-0.06029442891747294,-7.339210422447877,-0.3321222821389256,-7.327934589724578,1.1304100123320495,3.153513660958083,10.367423328024756
2.232,9.78040420897571,5.867533956331499,-2.873902256522115,9.403807397225137,0.9314988808264388,4.826395167725877,8.172814773830055,16.277034258372737
2.236,12.915641474110487,8.365841419052629,0.2981949610149286,16.94737556457403,7.448455442416844,6.266819725124833,9.278961336659904,17.989167784176118
2.24,14.80351592550818,8.411141051482616,3.0413370620939304,22.44479227854879,12.721334919869378,6.201779258162105,8.136959354400915,16.235134648516237
2.244,16.569392472285926,7.54316331057197,6.007060018686843,26.227301989241482,17.23285130975887,5.450728248806172,6.721231606359652,12.35730243722395
2.248,18.6695663985476,7.129277306664392,9.134520277531237,28.402366600789605,20.957655281477514,4.508970614943564,6.26834475414762,7.750299066820844
2.2520000000000002,20.7874475704657,7.901801340187603,11.723928614006354,28.81497000906728,23.37863550506654,3.45737515152814,6.838318580887972,3.4919260395956826
2.2560000000000002,22.2156073279549,9.880999497659559,12.96736190346121,27.31783155269943,23.924889455182722,2.1364704846205314,7.620421596346773,0.22856960271997195
2.2600000000000002,22.403203194325044,12.601060131102543,12.547948821170849,24.10075023223152,22.471468242133653,0.4196631782301665,7.694816838422753,-1.7706276357336037
2.2640000000000002,21.309360576549494,15.43235394984697,10.894365740596186,19.805861525712203,19.52210679062398,-1.6058284200832986,6.732651724209177,-2.523400524381543
2.2680000000000002,19.381605106200936,17.80375762802862,8.930529958365469,15.32815810467116,15.952747684570397,-3.6388978309730646,5.227005187370878,-2.2790891512411235
2.2720000000000002,17.242406508945407,19.267932385254767,7.513426046560596,11.4286313569649,12.495296086269093,-5.296739236028657,4.167939621981986,-1.489733097511504
2.2760000000000002,15.31616803484539,19.45957460770319,6.921575728412279,8.393413580280821,9.316046824690886,-6.281966739078598,4.399734405097092,-0.7408624705194597
2.2800000000000002,13.64487367029244,18.077124180333385,6.732414051471949,5.970001689718401,5.988776789764131,-6.471324099271101,6.088839609237198,-0.5896783847803704
2.2840000000000003,11.983041540493701,14.965825384810728,6.157297899829473,3.6104055537011845,1.8875920225905247,-5.909107856595483,8.626497639796526,-1.346998340713668
2.2880000000000003,10.061869434789855,10.271811924733584,4.594181138633189,0.8626276853003674,-3.2563806096948724,-4.744989986799965,10.992875251913574,-2.9095961623458493
2.2920000000000003,7.827587116002107,4.5604907814360445,2.0483775352963676,-2.322718895997184,-8.997658318425579,-3.1728233369947247,12.339346750848392,-4.749143325387223
2.2960000000000003,5.501947805674831,-1.220736823342179,-0.8522762265506003,-5.549980095017361,-14.260558205585596,-1.4148838987759973,12.422876793941839,-6.104336435420265
2.3000000000000003,3.4492388429262775,-5.977694332735098,-3.2391759466524377,-8.19703302292956,-17.832775008270346,0.2743764197875862,11.650618638230185,-6.3072733048001055
2.3040000000000003,1.9634915079482198,-8.838071745388817,-4.5345705829824965,-9.75414832533528,-18.987154875669376,1.6261360926930593,10.736912836457577,-5.093598164764046
2.308,1.1486258860706329,-9.479767117504366,-4.788994081939791,-10.059411459825412,-17.850283991666288,2.4255425725049236,10.213454156172702,-2.740014575474646
2.312,0.9550728240748754,-8.243586478628401,-4.617193526322922,-9.297504873002111,-15.311933821452556,2.6038654525979155,10.106578938245377,0.04919344630698674
2.316,1.3097373822316314,-5.9648967398153445,-4.797311681608392,-7.812463334878657,-12.539234631544389,2.281334531334892,9.956446652594877,2.4554683966798336
2.32,2.2168268384685064,-3.60586198638498,-5.781030124605024,-5.882443362263473,-10.381889791487367,1.720045414876381,9.144066198884786,3.9038519878038755
2.324,3.7315580980168193,-1.8761529655739082,-7.415056761011556,-3.611994098601315,-9.01447018292373,1.18832686046062,7.3032875243301305,4.28924824554133
2.328,5.8067664513113755,-1.0251274480610562,-9.031433038840646,-1.0034511597229425,-7.998944274829512,0.8085672158832722,4.556494215695864,3.970120034127774
2.332,8.136513292452179,-0.8899709555083746,-9.829886946982015,1.8677277542188904,-6.698727229212238,0.48326827842561215,1.4577040121586151,3.538388057105209
2.336,10.142534675876107,-1.1451060493338332,-9.332905495275156,4.714229973391298,-4.775141805971884,-0.05046822274641727,-1.3024836729483695,3.4926097411793364
2.34,11.165783405270048,-1.5736448871249422,-7.6481469908603685,7.0564849622754195,-2.463736410210174,-1.054195637909288,-3.23426576069636,3.98249800514148
2.344,10.784152268789171,-2.187002956458798,-5.414105965045508,8.391683508777248,-0.48731594594784156,-2.6152395608269217,-4.232663149514792,4.735158393984534
2.348,9.072949289493778,-3.1364853216191477,-3.495562521142574,8.401467394521717,0.3221992133931053,-4.567622608134343,-4.5362624224492265,5.190659483089945
2.352,6.630287365360232,-4.4982368190974285,-2.609038453422329,7.074555774488772,-0.5375853495049228,-6.546633528238544,-4.520990182124251,4.7741327456272415
2.356,4.304352919137813,-6.108064992440234,-3.0839498889536117,4.6580131383219054,-2.999796873504806,-8.157149723992006,-4.497639408176269,3.160390753857257
2.36,2.751585867884245,-7.57876174850287,-4.831729107421779,1.4883554654005025,-6.502817197364209,-9.147549856831347,-4.625358926881404,0.41194907105648326
2.364,2.078747913039905,-8.518575365308834,-7.489506208856483,-2.177030012033299,-10.30313706505683,-9.496702585351954,-4.9587294969779805,-3.0583596706698017
2.368,1.7765286317339815,-8.816020321718383,-10.623846253619718,-6.224031097541342,-13.817000593588318,-9.377997825461307,-5.54617127571214,-6.662709330629127
2.372,1.0011336262059558,-8.782776380478708,-13.86632359559519,-10.601286469876584,-16.796446216999527,-9.026155313291156,-6.470419914903005,-9.855772986164254
2.376,-0.9408240608790663,-9.03667641722825,-16.951473064298284,-15.177040991941453,-19.271510294078723,-8.605036741536765,-7.786296729546848,-12.294700566263657
2.38,-4.164976263225128,-10.152654750737724,-19.683342553654256,-19.649638892103496,-21.343313412204623,-8.144632338296333,-9.409896467717772,-13.884239745095442
2.384,-8.072952122749285,-12.263540896218046,-21.899826253992842,-23.587307924232164,-22.996987682855433,-7.5739203828932204,-11.065731079408806,-14.721430811451683
2.388,-11.599326948298284,-14.863880377350029,-23.484886184079755,-26.57578757524209,-24.06312293446274,-6.805352083723278,-12.37453217984455,-14.993390829120926
2.392,-13.702253720766407,-16.9609864842663,-24.40733035372034,-28.365257013263033,-24.35381713940467,-5.802276637683235,-13.051652737797099,-14.89391231562007
2.396,-13.833031981633098,-17.53090281863598,-24.75954850406015,-28.917758372489345,-23.868224374521333,-4.599002916406562,-13.115678169217858,-14.598085265702139
2.4,-12.142894731576945,-16.0483127022556,-24.73653259153184,-28.31888532736258,-22.897147596777017,-3.25951338294567,-12.942346523339438,-14.269538239817052
2.404,-9.332726421385672,-12.800239040122051,-24.551021152436874,-26.629709508398207,-21.944530847950546,-1.8282560781876782,-13.105376755370685,-14.07088926366697
2.408,-6.259727882842611,-8.809272828354494,-24.33765646660197,-23.801585895625863,-21.492914747172676,-0.3198847387927799,-14.076117518303363,-14.143738340687207
2.412,-3.53469915349001,-5.3965203642795245,-24.091561610358326,-19.736289985134988,-21.741867321048517,1.246692885422135,-15.934081761806283,-14.553933613433628
2.416,-1.326441282703172,-3.6048831414550477,-23.689397933087662,-14.477481013416025,-22.489264225477996,2.7897710561858275,-18.26990277870027,-15.244208527121486
2.42,0.549251986730269,-3.775733648590517,-22.972987934428375,-8.414275646997112,-23.233398309778295,4.138794120758121,-20.345967075385374,-16.034541602813988
2.424,2.3439253639221818,-5.483248183679166,-21.853858921483265,-2.3626902304540067,-23.457321680781433,5.061762234782918,-21.44541591115069,-16.693120996024675
2.428,4.072052862842753,-7.840525247704704,-20.39318485217393,2.556555150769327,-22.945671133791052,5.325161283229136,-21.23257194540338,-17.04973332764655
2.432,5.390249453792535,-9.988117008956522,-18.80137155059117,5.227194303592796,-21.952841209897883,4.764325777519389,-19.919334203136827,-17.084017361820713
2.436,5.73404230022345,-11.497206796742887,-17.36333032161906,4.904254068559112,-21.12216239480631,3.326585358106513,-18.156758955871396,-16.92912817825129
2.44,4.6266758220246516,-12.488266093710706,-16.322444781102377,1.4852501226918093,-21.18179569473773,1.0862545369859617,-16.704692478726315,-16.774419620414506
2.444,1.9841797674160375,-13.437699778987906,-15.783303500186207,-4.428565185673165,-22.58409189996678,-1.7571835962728528,-16.05792075711247,-16.716658025315837
2.448,-1.7603835634296843,-14.818319487596057,-15.68746263506523,-11.698210992636405,-25.270720759500477,-4.879610493656173,-16.227356567847664,-16.650475973821585
2.452,-5.777818469794909,-16.77574362069589,-15.846029134977584,-18.951675291776155,-28.6586480365238,-7.826660943016805,-16.749288096701207,-16.265173805640075
2.456,-9.146052931275904,-19.01212516492376,-16.01942195187121,-24.92654624787133,-31.845155044900707,-10.046939362214516,-16.91279238330071,-15.165256524452104
2.46,-11.180887714608161,-20.915656574742115,-15.98842256985131,-28.74455485742783,-33.91727362685003,-10.987802187070884,-16.080872300237047,-13.057088029577073
2.464,-11.646451450058805,-21.8454436966868,-15.583780977989022,-30.059790927677113,-34.236062734675556,-10.26374144736701,-13.953002777454572,-9.919187655141968
2.468,-10.77276959341259,-21.422631879243966,-14.67968309165417,-29.065475436498446,-32.585647909650675,-7.848321042083171,-10.6782340302575,-6.071362009298866
2.472,-9.082248212487741,-19.6774472913188,-13.166236214619175,-26.36029905584735,-29.16086083492712,-4.170176268038404,-6.784714912269237,-2.100838422306481
2.476,-7.1340235646519545,-17.01313809962687,-10.955066330160776,-22.714244948309442,-24.45594304409758,-0.035070175955524974,-2.98581692693881,1.3205749980456858
2.48,-5.309011661788588,-14.029015998371051,-8.04136161906888,-18.790838681980517,-19.122898225743825,3.6420586156787067,0.053128207961663065,3.647787794473686
2.484,-3.710664329552685,-11.2960039289527,-4.601099155840302,-14.924792599294733,-13.85484623773391,6.193133926358541,1.9163279447199102,4.612836826080752
2.488,-2.206519208497184,-9.185929057045655,-1.0618981080749563,-11.05838146305689,-9.301152703182652,7.463665913259092,2.536827854096032,4.264127022321304
2.492,-0.5681010047272252,-7.801696138176908,1.9317756117550289,-6.869419916691186,-5.9808836411759785,7.849687529015455,2.1826673620179236,2.908863844587472
2.496,1.367223507506253,-7.010318835581074,3.686777783295952,-2.0518545746112977,-4.1830345107408675,8.056443733006972,1.3348045814633451,1.002098121245922
2.5,3.568054434872124,-6.546989485574727,3.723948659943062,3.3697388571852116,-3.8775538023078298,8.693472776014232,0.4995921460892987,-0.9709873525221724
2.504,5.767961870634906,-6.144262761676032,2.017663700111939,8.85976918368226,-4.702271343747043,9.905024629399122,0.019056182171652836,-2.5970510636507242
2.508,7.52062296413294,-5.641653807270018,-0.9161026897281772,13.441025465712187,-6.064246485203171,11.24612950465098,-0.035371407371485475,-3.6004296975699503
2.512,8.334275321047699,-5.046117857481931,-4.151450944206999,16.005413272947294,-7.34490368715808,11.89386285864748,0.16990403529757714,-3.8759476119436727
2.516,7.840060151935177,-4.527634168341137,-6.68509800047741,15.738311896208529,-8.138350677319181,11.087652873647585,0.3782554769413764,-3.4962877531639833
2.52,5.944960281255533,-4.340106413588728,-7.814949132047104,12.475994022101872,-8.40555882217825,8.583370051869224,0.44371095929022886,-2.6803388436937894
2.524,2.911721256102396,-4.690602056175976,-7.394720638314766,6.830108645117548,-8.470670020464581,4.871399515018993,0.4581576519249211,-1.7242421976433207
2.528,-0.6851539312604018,-5.60849368668346,-5.858345446591102,0.01992176219630437,-8.857117383797231,1.027705924228485,0.7089055123508388,-0.9153956336803049
2.532,-4.111258732016154,-6.870473621631049,-3.9883023201869037,-6.503879078549971,-10.031181174529479,-1.7345192265186142,1.4878548429378498,-0.45361236406347416
2.536,-6.689391432028003,-8.045996010735735,-2.564155609225054,-11.487729017738275,-12.170939981238007,-2.6006569985138412,2.8459481748218423,-0.40810781636560023
2.54,-8.003943867892133,-8.659946011157786,-2.059136331760328,-14.192690535203837,-15.061355283398598,-1.5017064638050215,4.462377298689489,-0.7233180994944632
2.544,-7.995963590165331,-8.407506536998198,-2.5196529724069023,-14.511824542626414,-18.155616211264828,0.8887268905375549,5.739565324614205,-1.2600490521407437
2.548,-6.92585752953795,-7.327515614920117,-3.6607727696734855,-12.892391383610288,-20.765147371671787,3.4927444787338118,6.09262332939511,-1.8416885916336696
2.552,-5.23274100421736,-5.825908097859724,-5.077047498040201,-10.128895322574067,-22.290395272833393,5.322854206834563,5.283430329653811,-2.2853821947028337
2.556,-3.353683236158645,-4.508514908236862,-6.432198747565053,-7.100785062073896,-22.399939270258642,5.884861921337006,3.5964151817322545,-2.4082619418906006
2.56,-1.5883159146023331,-3.8860549400288846,-7.52446199508563,-4.521090804869459,-21.10733314341269,5.317848330106926,1.7440003123685983,-2.0267736425867042
2.564,-0.04923333129352159,-4.079932277668263,-8.227087037131014,-2.743855890650366,-18.734902658961573,4.231907973659872,0.5290962978936022,-0.9813350005114216
2.568,1.3008047067193047,-4.689390716901585,-8.396608633976939,-1.6705197987714655,-15.791609921589043,3.360761856755744,0.4409740510843676,0.7999430173950941
2.572,2.564067188428794,-4.916956052382261,-7.847904489531402,-0.7973024635418824,-12.807555592255994,3.2242189612843504,1.4184728779894158,3.217951189079372
2.576,3.8440085300402984,-3.9214983739858553,-6.440678936662607,0.5850647423166038,-10.169709377175423,3.952942911788341,2.9161979548966883,5.953175595237781
2.58,5.232302213950959,-1.2420280312255727,-4.21531412325794,3.100870155472421,-8.002401423032552,5.333388640083285,4.227287366448309,8.499742000525089
2.584,6.8229659846165305,2.91668037551824,-1.4719752797991532,6.9987656805050165,-6.141164607419569,6.992690050182318,4.866017841551638,10.295724392932925
2.588,8.714371767143348,7.695424185032948,1.2911430271103654,11.992546031581583,-4.21828841962315,8.59932540238151,4.787177175667921,10.919072113972447
2.592,10.96560420828871,11.915185981681589,3.58541674726348,17.324798056585223,-1.8433725461525228,9.977950404068906,4.332571958734206,10.263561891708719
2.596,13.500835396659397,14.584807360463174,5.16247196170616,22.022410560559138,1.1802674137209124,11.087682993708313,3.955112321268871,8.602363723014491
2.6,16.03321861462865,15.33976136078445,6.130737344700037,25.23754539837546,4.705749562173651,11.923444951497459,3.912486395790893,6.494778015632733
2.604,18.079795958787315,14.593159813868851,6.869396765707506,26.508329862653454,8.238063961469607,12.416714683002283,4.138531665002347,4.563573071931046
2.608,19.074937920604896,13.303898519009635,7.762367994850592,25.807981631150597,11.088984018062774,12.39839750632109,4.347496191668142,3.242090904368297
2.612,18.572906092030223,12.48020310796619,8.92017974147916,23.404813997084602,12.63725561381375,11.655351137061643,4.292869293531794,2.6074553087794357
2.616,16.45061061339794,12.660285173826196,10.051633456048421,19.63794509429863,12.568223416805267,10.029428875967369,3.9782819869110426,2.3757827401100258
2.62,12.997517713320406,13.638942266582148,10.583279198551281,14.763387248059189,10.970567353884462,7.516013928359371,3.661400519036306,2.0697959142171385
2.624,8.832050459043444,14.583396794903479,9.96890087782731,8.967086686590164,8.24180487739136,4.314644354755728,3.6416314697348753,1.2677830061279565
2.628,4.674102897336866,14.47668420335367,8.005803024514307,2.508726922809501,4.873643181587113,0.8124602838170176,3.9715608337974118,-0.18777055352859406
2.632,1.0747471779684474,12.663959133698086,4.985551718748411,-4.138365878970717,1.2538657877266814,-2.483114697860856,4.3105868417942474,-2.11657030941592
2.636,-1.7645559200360594,9.215080730878412,1.5775455659734234,-10.295045687573293,-2.398166616661001,-5.052973786790517,4.043429064015754,-4.093210341819258
2.64,-3.9928217569149638,4.922004621682959,-1.477913367434212,-15.264224031587673,-5.932331383264227,-6.486464952924962,2.630643985009101,-5.64313339189232
2.644,-5.939978292367186,0.9305374881436137,-3.69044433111776,-18.60764019585031,-9.098041332217008,-6.591546826225567,-0.017127683473972866,-6.440133288455968
2.648,-7.877940289597063,-1.809224464872159,-4.993078679613063,-20.3376321665628,-11.451532144577413,-5.469597228963721,-3.384676676526624,-6.405698223442528
2.652,-9.830167837579438,-2.974989139898071,-5.665067656243764,-20.869034025512292,-12.436242000328775,-3.5073894451065826,-6.521624890903695,-5.6667333484999745
2.656,-11.53997549145538,-2.9789577453300353,-6.08275170179877,-20.737048930929177,-11.627793016059968,-1.2804550613541323,-8.470205825462699,-4.425235074114653
2.66,-12.600636097746246,-2.6927288790066086,-6.4550835879476836,-20.225144180884627,-9.003962468252439,0.6263948589134998,-8.70802386839,-2.833659057342402
2.664,-12.6608111562781,-2.9322979760620456,-6.701796796489134,-19.134267546771753,-5.057981490822613,1.8187163570460143,-7.369283237398122,-0.9588906622710738
2.668,-11.589916634833457,-3.9762197696895782,-6.5340972668175255,-16.860118441503346,-0.6501023526463996,2.227368288688922,-5.130734401090422,1.1453220654040024
2.672,-9.51106136614169,-5.358940168240679,-5.656100816746175,-12.759879983697829,3.349599247080505,2.117234234798616,-2.834356085288846,3.3145029281915868
2.676,-6.714811874722727,-6.069048032960154,-3.966416936452788,-6.634810004093424,6.4325273837068835,1.937242730475191,-1.0830738512252083,5.188519909341835
2.68,-3.521268744562917,-5.0596374022493364,-1.6262771781528045,0.9564012045200343,8.627070939512578,2.084711770177819,-0.027561420325810104,6.255092869158489
2.684,-0.18502093645042805,-1.8257584284897348,1.0244241019147466,8.74104729110718,10.357808594164453,2.688211336997938,0.5620406175357857,6.021795973151029
2.688,3.1007844384375858,3.229736989380399,3.628007953526321,15.132969307294388,12.069795323347762,3.5231984794436357,1.0256999380189882,4.242884393683312
2.692,6.134735298496366,8.84125674440179,5.952397166104902,18.810643529390063,13.846815523608711,4.117669130055219,1.5478215193211327,1.0786150968046968
2.696,8.641480713059877,13.333592448480204,7.9175170780993085,19.18123490275002,15.259797610042142,3.989885789150321,2.060754245800581,-2.9146129263682496
2.7,10.296128110964105,15.29104424924435,9.527459291360174,16.53127387340419,15.570905760968571,2.915301358144916,2.376733086296099,-6.961107745322238
2.704,10.846010067549742,14.138800752962425,10.77830389470023,11.811865488460398,14.182594722843078,1.0678518844447353,2.428668270611979,-10.331994469649999
2.708,10.246793847092249,10.363932662801972,11.608425845471174,6.192170611660231,11.066065268931425,-1.0459699758830538,2.4176443549413307,-12.573495563158076
2.712,8.728173511473528,5.281636289059179,11.937566815152422,0.6328442107462706,6.908303424543419,-2.8130376077210713,2.7592727222699978,-13.588700680375041
2.716,6.733662024845216,0.46623091585911425,11.75059352295466,-4.328182335116708,2.863010377413275,-3.7940147940303177,3.8392978956621846,-13.556042434643587
2.72,4.74068253600899,-2.888368795176575,11.156317662649144,-8.5270884086151,0.031587310623535814,-3.9045006466931227,5.726685020781133,-12.758349272325859
2.724,3.075429431015891,-4.375670564183565,10.374318847392715,-11.95412457167049,-1.040340970243733,-3.4064138699559408,8.037379488298484,-11.436198079760516
2.728,1.8257382454778508,-4.373409873111541,9.647099663327026,-14.530093604297463,-0.5663871044316693,-2.7215314410200335,10.05483002020219,-9.739267518528777
2.732,0.8947690268403221,-3.676205809770181,9.14308606502027,-16.02849732397317,0.6782316498843102,-2.173090141821831,11.06211831099381,-7.786692003738153
2.736,0.1432555735722758,-2.994220904677718,8.901028225026721,-16.19315827744117,1.8263932380141341,-1.8159861032345361,10.695598113789174,-5.76012998879628
2.74,-0.47890832453919074,-2.5956028717926074,8.85317577874389,-14.947480058861402,2.3955308880360917,-1.4447457879741705,9.131103502151745,-3.939085666175629
2.744,-0.9013010465083653,-2.2776168890219424,8.893800941404606,-12.54770514494021,2.4877086608212267,-0.769651695419725,6.99480252611761,-2.6430099500857978
2.748,-1.0204035069078827,-1.6555984625775864,8.933292110951697,-9.564264943134958,2.616536649401951,0.3478192762308936,5.040515571115293,-2.111638764124791
2.7520000000000002,-0.8153298383359697,-0.5537465264995944,8.921705567388472,-6.663805343012655,3.3039238168919383,1.7593815520372118,3.7900275392610183,-2.4085852893173296
2.7560000000000002,-0.39437694826955294,0.7547072052459498,8.824565843524624,-4.311436288745881,4.698802691130595,3.0711470968344656,3.319796450599597,-3.4249416548955196
2.7600000000000002,0.0722729263364954,1.6295567631822223,8.598288954369536,-2.5570453998607263,6.456957011690747,3.850581906455318,3.295247612540379,-4.979729844067151
2.7640000000000002,0.4972419040834666,1.4440583029720528,8.219633206801518,-1.031279122853448,7.960354190999624,3.871931058975406,3.2199537139549648,-6.9345469008484315
2.7680000000000002,0.9686523317566298,0.023957565209684617,7.743132605854953,0.8219011029889316,8.727115251076839,3.2494780251167867,2.734476843340417,-9.230476897138715
2.7720000000000002,1.71167191056486,-2.1171960714480065,7.355160042636953,3.3923820799222995,8.756811175519033,2.3863195799285677,1.7976990298816418,-11.806983240314707
2.7760000000000002,2.901697516049694,-3.9300765195155236,7.343575635203024,6.600220917654497,8.582534359020428,1.747265130416963,0.6533166194224123,-14.458119587899319
2.7800000000000002,4.441655268935392,-4.328720816890382,7.968175257422445,9.816481590715057,8.999448161077453,1.604215112613474,-0.36396442360205583,-16.740112490695765
2.7840000000000003,5.875222104353725,-2.7758572471112757,9.288456191622345,12.071234840678244,10.611930157289635,1.9019279848580481,-1.0511812942561392,-18.042266026363905
2.7880000000000003,6.522825235400546,0.3590042063214014,11.04302956610286,12.449183119303825,13.455068720174495,2.3147767617106183,-1.4542016534214781,-17.840426816056606
2.7920000000000003,5.803408451226915,3.8799115553501906,12.69108188798441,10.48867672544111,16.903739745770054,2.4706595319644293,-1.7999228939975183,-16.005801384894767
2.7960000000000003,3.5616826697317947,6.255472053377389,13.620234254596653,6.385805523305635,19.910629640681464,2.193048817998715,-2.3090720315926774,-12.984706263279236
2.8000000000000003,0.1921704513763416,6.28193660969464,13.435240908453125,0.9101440847020967,21.452110212384923,1.615036080486334,-3.0240928529076427,-9.705753027965102
2.8040000000000003,-3.531110841436771,3.598205897762341,12.172458593633792,-4.923585730880632,20.946800218065164,1.0922322345686553,-3.7643160511972837,-7.215299985656657
2.8080000000000003,-6.835186868657843,-1.1901958364309166,10.302494217736694,-10.259375582270422,18.453652658028204,0.9620818474268162,-4.244213530269462,-6.205459622904982
2.8120000000000003,-9.308746082354446,-6.8016072575971975,8.512523954237167,-14.666272649025814,14.58438714777003,1.316186798965191,-4.2647393356353405,-6.680499891166164
2.816,-11.047467510468778,-11.824146318603425,7.359667825016913,-18.163123441026755,10.206431980788238,1.9129393511248054,-3.857236914833493,-7.958848815885631
2.82,-12.48715301630159,-15.243224515068505,6.9882544328345375,-21.010251051945488,6.116056557149022,2.3012145281750236,-3.262828233239361,-9.016577053731226
2.824,-14.038490818166224,-16.734791439901983,7.06403368356041,-23.420981317786982,2.824301963958078,2.07771812852161,-2.7524237521131454,-8.998962007729688
2.828,-15.776391961260515,-16.641936542807457,6.956518850168777,-25.371921128881468,0.5121779808939664,1.1201981392659945,-2.4162086991598244,-7.634826376741444
2.832,-17.37558774388856,-15.704443405511029,6.08581843664615,-26.597123341108727,-0.8671511695231402,-0.3287128381311959,-2.065640742525602,-5.332471514523263
2.836,-18.33078463545189,-14.70152416390954,4.237684264390509,-26.745827761043984,-1.4354359836418098,-1.782784187566449,-1.3407389686301485,-2.918862963457741
2.84,-18.308602379317563,-14.154357561688926,1.6934299768836354,-25.575211083516024,-1.269002392617267,-2.7564692134792494,0.01755349796280825,-1.1824358211547406
2.844,-17.384851207965426,-14.175685352908374,-0.88131936469847,-23.050870932040652,-0.35499244991291334,-2.9846517511974753,1.9070551147766537,-0.47984875963641116
2.848,-16.0005178697879,-14.473238041679508,-2.7144362760619742,-19.29769907915272,1.3881290615298099,-2.5007916709097344,3.8031260981144897,-0.616552177856363
2.852,-14.648716239538714,-14.468213539136173,-3.2094168778648964,-14.464415130245698,4.058412169877101,-1.547992633909871,4.975737664286498,-1.049934751044134
2.856,-13.516328089829528,-13.504496241167317,-2.1239046409207276,-8.64708229593191,7.691677208294777,-0.4144784810073361,4.8703162502874875,-1.280817976586036
2.86,-12.328238585979818,-11.105278100675946,0.4104398464812675,-1.9630422388445368,12.178262916178937,0.6970164347417267,3.436505405383514,-1.196709753481855
2.864,-10.523662276404195,-7.210680258327898,3.991397377406429,5.251159145161296,17.193570076268315,1.6862399579081284,1.1966388092357647,-1.1679070635009339
2.868,-7.682939905351532,-2.3114010984220386,8.081201348371678,12.264854907674703,22.18065253252155,2.480889204524374,-1.0088656908387748,-1.8421928904123206
2.872,-3.933516542617781,2.6166891395912444,12.110680197389456,17.977054905037335,26.417169767565724,2.9686052510835452,-2.455005660070128,-3.748329103342712
2.876,-0.06167688840446317,6.400443968708373,15.530590898164746,21.22301188864708,29.178481841009443,3.011461120508784,-2.8889212432925433,-6.91917012429667
2.88,2.786664932595329,8.112332368801049,17.86518432042635,21.274511843690902,29.974900444759896,2.5698434670475763,-2.5744143907738817,-10.737587283308358
2.884,3.673265401904928,7.4788273045317055,18.794170952175136,18.272643959028414,28.763598783532075,1.8423517210626414,-2.0048226890776277,-14.106851422646287
2.888,2.3766977965281058,5.030827002687261,18.241100254711455,13.313613631563157,26.012334199642282,1.2860476389189444,-1.5019928597944272,-15.885335935846797
2.892,-0.45570714122516165,1.889247495027007,16.429523856224478,8.075882364398467,22.554304679854113,1.4444393221453993,-0.9799716058823833,-15.394970284433725
2.896,-3.6247026140515572,-0.7494130735802855,13.833811574624178,4.114627139003574,19.262152943020624,2.623435683877915,-0.06035339110303539,-12.769128755732481
2.9,-5.980063414437325,-2.166467342314718,11.02773775754656,2.18526580997991,16.694642761870796,4.6239861471324275,1.5386801254485363,-8.955505618388145
2.904,-6.966935088386947,-2.415219745516879,8.497360699110345,1.9603956528193294,14.898549586916602,6.7173752734931895,3.616670920458432,-5.33539534785001
2.908,-6.831890802648218,-2.196065954556616,6.497906342070223,2.3040256003005197,13.476693777548462,7.937224756096384,5.425071041464776,-3.0984766294325254
2.912,-6.379855932857822,-2.3706694391815972,5.037069750215551,1.96599010053842,11.901442937731986,7.581043913744907,6.03864337138441,-2.651443392506849
2.916,-6.443614155456942,-3.401166324479732,3.9704584913010876,0.30883321592432367,9.898347209505687,5.638179858860667,4.962495541811677,-3.3613182046653947
2.92,-7.4041353005814585,-5.066654573955475,3.134100091673986,-2.349512594318412,7.673770750023664,2.8812990672352043,2.570444507041998,-3.810464923206439
2.924,-9.03654381418022,-6.646386300431061,2.4077463963706123,-4.979998578049049,5.824965970049448,0.5070104695776081,0.008991192833263995,-2.517945801405972
2.928,-10.753735957229367,-7.467886581748189,1.6563299548834038,-6.530165026878876,4.957038369477004,-0.5212657639719964,-1.4726507789316656,1.168789327480681
2.932,-12.05781185392334,-7.471876901367295,0.6274301235332587,-6.631381767920971,5.2176439310661635,-0.0723404509719785,-1.4082213467419251,6.457326262746676
2.936,-12.896890188024372,-7.409876113533585,-1.094966981309767,-5.890903371543573,6.038045282213602,0.9588953000595666,-0.670596696388543,11.141930319889127
2.94,-13.688425716889839,-8.481619114110345,-3.9655394279375287,-5.558171145825668,6.299140039983968,1.0334484187887938,-1.249399659077767,12.394413332209638
2.944,-14.983863733391047,-11.566418026578162,-8.182196994671358,-6.740338053343294,4.8978998711249915,-1.2290419568055313,-5.2426649671660925,8.036509627292958
2.948,-16.982173504538707,-16.477761328289603,-13.366822768647808,-9.619195137109955,1.4523560869295125,-6.231110868661062,-13.565930803932588,-2.2727989936661857
2.952,-19.195862425291892,-21.704990696489403,-18.42526155098369,-13.139687500594846,-3.24521583801868,-13.00169205167731,-25.09922212496224,-16.533657834922792
2.956,-20.512656742551883,-24.879585912286473,-21.760782347124973,-15.401571065942619,-7.3369685065647445,-19.476556028809,-36.83036087336177,-30.908560814837188
2.96,-19.659186521227753,-23.79949134262381,-21.823630593231428,-14.57075885899053,-8.59792486767833,-23.3429769747097,-45.016749900126,-41.08786453611742
2.964,-15.843286527254236,-17.517826083663863,-17.78878675247779,-9.838768880200234,-5.453348325189154,-23.04967833097578,-46.81513681258332,-43.943992759679304
2.968,-9.241919986904804,-6.933556955935728,-10.05293821694147,-1.9136293383957081,2.166871312964304,-18.493769588934697,-41.5562109366399,-38.73213699541975
2.972,-1.0714934209333364,5.443356851979161,-0.2705344165358383,7.214481653422581,12.575250144647953,-11.050899841277214,-31.011682158818644,-27.298079095311095
2.976,6.802411032994684,16.45165065477954,9.137735330465716,15.099231556998234,22.849187561411554,-2.968206375829368,-18.546149312119496,-13.226344625319825
2.98,12.543437794633405,23.506925175026254,15.831061671410339,19.840905840968276,29.942361997711714,3.5790038770694537,-7.625579318151495,-0.3480922429964721
2.984,14.99466175078453,25.510226333342132,18.37780004522142,20.76044107611881,31.87387568510303,7.3011895683555394,-0.46388785205840577,8.67317993921364
2.988,14.015431335136753,23.03964902660465,16.68693242565837,18.450807579734658,28.445670124789842,8.115692437679286,2.539569786080392,13.063781109498052
2.992,10.401728754072309,17.824048669196827,11.882524038780957,14.271000899634657,21.177454561186096,6.906611117832426,2.42479299481397,13.750832159103936
2.996,5.463554391342427,11.826982566864444,5.698641743215944,9.600628688450172,12.512548351408782,4.909934328799636,0.7085386768723083,12.496826587781015
3.0,0.48310238712991804,6.439112524843324,-0.28005532343860295,5.267295748960407,4.714594308307369,3.0826281148811177,-1.5313328696622648,10.89330415843932
3.004,-3.702821991093316,2.1370782157243298,-5.171133466091021,1.3988556923625879,-1.0038645673416795,1.755420614014156,-4.013986542399721,9.724491051000626
3.008,-6.843467841696139,-1.3190540002108264,-8.906668740026987,-2.301907043708809,-4.712630500885837,0.6871691838408651,-6.9708956106441065,8.935900443070864
3.012,-9.136200686339038,-4.367889332975324,-11.900441508104848,-6.087234729240095,-7.300996932238206,-0.5908446298437866,-10.526714639896,8.071184444513165
3.016,-10.950992695460286,-7.181699197151971,-14.533806539324928,-9.815367559755089,-9.650890758414505,-2.396813593079628,-14.243525314159228,6.804860987441089
3.02,-12.556997095446377,-9.502514328282587,-16.758375192055837,-12.900190024952963,-11.926386682996167,-4.682535682685398,-17.144705414088662,5.228908954918154
