Timestamp,O1,Oz,O2,PO3,PO4,TP7,TP8,Fz
0.0,-2.220446049250313e-13,-2.2026824808563106e-13,-1.7763568394002505e-13,-2.3092638912203256e-13,1.7692514120426495e-12,-1.4495071809506044e-12,3.666400516522117e-12,1.4566126083082054e-13
0.004,-5.409912362958243,3.676095481985733,10.194268989296667,16.358601539427326,33.01385520117263,24.020959360004753,10.66929448540401,20.604881869663636
0.008,-9.719987520395152,5.701470296579011,16.82155631582308,28.515787576932585,56.89211576359334,41.34759351953333,18.693842398009004,36.013936508417416
0.012,-12.421332893888623,5.172264043012703,17.82641306900902,34.05317399109187,66.40838681424893,48.146903422717116,22.32170361296413,43.1673690967183
0.016,-13.82344140931119,2.2927113124349887,13.411199693473648,33.22326821097303,62.22198071343702,44.90859463015438,21.26364318352212,42.24806993363531
0.02,-14.770934407615409,-1.8173449963260175,5.689122553835965,28.534243635617663,49.99342076647937,35.84350408160191,16.71583292814732,36.247416123286065
0.024,-16.055186112175605,-5.7469887438938905,-2.522105482351165,23.309279536401714,37.23554707995137,26.57968567930974,10.816610699483775,29.318394256242684
0.028,-17.862065643515283,-8.441188656954527,-9.018115148017728,20.083311555364304,29.685577765806936,21.471758967448537,5.8168518451894045,24.842299617701013
0.032,-19.665344786932657,-9.5821911377923,-12.98910013573822,19.632136600545692,29.036269175264394,21.877343606506557,3.269651709783517,24.14122200505484
0.036000000000000004,-20.643402488294107,-9.564557963459716,-14.947182633518317,21.042312169821862,33.02162393469398,26.140345301111722,3.546683305793934,26.392350933458747
0.04,-20.28085606878089,-9.106511975105835,-15.938825029558451,22.65899396403369,37.50758579277078,31.09941636315738,5.872636124000195,29.622601363578212
0.044,-18.773524882757496,-8.80861578138439,-16.682802308389704,23.195308009788082,39.125039124295526,34.04962625010079,8.778598881274121,32.022879511521865
0.048,-16.962802681765403,-8.921379374542799,-17.172938834288324,22.344581004936195,36.92272724541787,34.04895008823739,10.760840109966196,32.79698084855481
0.052000000000000005,-15.811088911590556,-9.365450821486418,-16.89387039460813,20.691936051661234,32.363553493563,32.0246971929871,10.883911710769297,32.21813160758076
0.056,-15.773179882518168,-9.91117182738888,-15.3962934997678,19.14357806349163,28.018009988803794,29.84614639344752,9.105216285958818,31.088571594773896
0.06,-16.473641222298866,-10.355521115052275,-12.78011294257707,18.31686559777663,25.92118701662079,29.063427591000895,6.207969660353591,30.063608921825328
0.064,-16.923624913021726,-10.592949670276743,-9.776972470630227,18.248565686422623,26.556714464655,30.05252345074399,3.35871008047668,29.257811604417515
0.068,-16.11470855521643,-10.544308833532302,-7.335097767321155,18.561890134624374,28.953358079288225,31.999416926747593,1.5801438135472239,28.3661167808638
0.07200000000000001,-13.656107278885301,-10.080670723911284,-6.019354419070353,18.869533172816734,31.618358134707027,33.57585830770053,1.3422486906167066,27.112525527727783
0.076,-10.080168041918464,-9.06989372351466,-5.6609660101263515,19.076320452237315,33.56699257548765,33.81371066792535,2.4192940936713008,25.638844389762447
0.08,-6.591388366299146,-7.521882447658744,-5.46895658089915,19.391528901387144,34.777318713327176,32.63782395662585,4.108795877777297,24.528411765046357
0.084,-4.43835738440654,-5.757084878543727,-4.584747676205584,20.03544749345351,35.840372218705724,30.73951638483966,5.610470741763905,24.40833017186152
0.088,-4.254298910130275,-4.411149092768648,-2.687288784539799,20.92109816644174,37.18597645565364,29.003156682931497,6.397807161456935,25.41985786750869
0.092,-5.778343761516876,-4.2170448345443745,-0.2657842128453467,21.580431580672585,38.518290028338825,27.921866392451747,6.407638040901663,26.954008623781817
0.096,-8.113345471112975,-5.653231461723134,1.621931130347118,21.419692018276997,38.89084214007769,27.37379287534084,5.964475135673567,27.890064432688256
0.1,-10.31473189802053,-8.654643602185688,1.9740895704009596,20.135240089754216,37.333089132195774,26.844542535809246,5.5130138076182895,27.20534672110144
0.10400000000000001,-11.94526879512145,-12.59743529874699,0.42339500819737097,17.96553971752613,33.54761732532824,25.843545419004144,5.287110845140525,24.584578125145534
0.108,-13.236981937693962,-16.56934799529808,-2.53813804446769,15.619667376372202,28.213677003616134,24.231134016778533,5.134588898255025,20.65819954660077
0.112,-14.789823776027168,-19.7787636458837,-5.798788959448757,13.935621020882195,22.742304980320363,22.274473906221026,4.619909583161807,16.7490594608574
0.116,-17.038444598103105,-21.885614449120773,-8.186169119339532,13.476866380962504,18.659435395182513,20.446884022458562,3.3261285155120888,14.263635035725018
0.12,-19.834057874419752,-23.055881530585474,-8.992055792968657,14.295016486048814,16.96677540804145,19.147546045745898,1.204755301399583,14.036273074107708
0.124,-22.42443838429394,-23.739922341529375,-8.227172405554416,15.941571901299938,17.790502848778644,18.49013278354777,-1.2817602092117326,15.942621810183438
0.128,-23.842128682601928,-24.32498619337583,-6.489347407110273,17.69262653539772,20.440501851485337,18.282161577677897,-3.294605760876003,18.974860542020558
0.132,-23.49373995690806,-24.898013045128344,-4.585852637925168,18.837826225130055,23.794409015247496,18.187146936260206,-4.012514571367422,21.72814372152071
0.136,-21.594370964192784,-25.26515762042885,-3.15884845688446,18.89244072581199,26.780452698468494,17.95383698891549,-3.0997918789683148,23.041172694469427
0.14,-19.13494519027533,-25.17176064147064,-2.4695600535777373,17.685715025538578,28.716721923527853,17.569524677082704,-0.9253520418807568,22.486116501803767
0.14400000000000002,-17.397871748886075,-24.572715412955933,-2.4392713423192163,15.326169735343154,29.392562698491304,17.21006290648451,1.5573537928444097,20.479949363180857
0.148,-17.267780980245913,-23.742685942578838,-2.8324875148226916,12.13512567356056,28.940023904183512,17.05245667532492,3.2472139409305676,17.981474049232624
0.152,-18.74829902215052,-23.139758908546984,-3.4229988290328883,8.60706134702812,27.66553168564275,17.100689774425923,3.4434955955768665,15.966499088364388
0.156,-20.96650290864071,-23.102973674415047,-4.052691138010964,5.380573337127066,25.961501093387216,17.15669995515082,2.202657698795349,14.974843824261876
0.16,-22.645421780231594,-23.586608043126784,-4.592185064883719,3.139950058785974,24.239325145370973,16.948611540185734,0.29520859313595693,14.909045579887488
0.164,-22.82222265886356,-24.156715926553066,-4.955556345747084,2.369532229149671,22.778936948107606,16.258913198885796,-1.2735796551375351,15.1054164846828
0.168,-21.389407603018093,-24.24838399120942,-5.160208375197076,3.081578227493031,21.548319825399624,15.00081180191319,-1.8840643033549043,14.641003680294297
0.17200000000000001,-19.163879257361593,-23.522535973813756,-5.378470744748633,4.707840610991303,20.152328783916076,13.23909024573263,-1.7123969729386914,12.760519272931777
0.176,-17.465641297977115,-22.115129757156893,-5.927305772366079,6.271394935479208,17.999397548246225,11.151190366854607,-1.6833266388898132,9.255426059908107
0.18,-17.39487871392393,-20.585364868263987,-7.106490739402091,6.818760161734671,14.64699120268069,8.97723135379304,-2.9274267476483864,4.630796397062806
0.184,-19.209815153006385,-19.598425568844707,-8.970609929883786,5.872847071237905,10.146284501976057,6.963141250098122,-6.0421269102467186,-0.02334953677585716
0.188,-22.136491070073802,-19.52243666818736,-11.1657434750994,3.669009188375565,5.169500934784304,5.32363098508614,-10.569638723595073,-3.416441512240235
0.192,-24.74147785063642,-20.18933630232798,-12.980841068652378,1.0375796326915623,0.8358225228078613,4.236047745265999,-15.034309542829792,-4.520173012511005
0.196,-25.682871194328275,-20.96567594522054,-13.633805512076137,-1.0082021663073242,-1.6880505588304358,3.843843319017097,-17.565594649274466,-2.9099747918581063
0.2,-24.43134831950147,-21.09626146477234,-12.664491957249911,-1.7803359356368933,-1.6764451187710616,4.234136265444057,-16.821600901436163,1.1035384322837132
0.20400000000000001,-21.575224429351515,-20.134107462226716,-10.25271592283369,-1.2626726656543035,0.7960405615068264,5.350095941123303,-12.749646744183535,6.591944593415496
0.20800000000000002,-18.511971048899294,-18.190834335369704,-7.204996990965501,-0.07192480492465592,4.849560899218121,6.918028242042862,-6.721697114439705,12.331004189700828
0.212,-16.705573659562397,-15.881581521216013,-4.592221773410701,0.9500155892630229,9.185930773668762,8.489700524791214,-0.9506154649849954,17.212092774909227
0.216,-16.924458997361242,-14.017789894644302,-3.2282878569083078,1.2688790618869632,12.673840967716416,9.622361878137468,2.522203001471855,20.57167056718797
0.22,-18.814867445303474,-13.196905855608088,-3.234543890098987,1.0306600708781408,14.82236014299761,10.13235963995573,2.7882438872215243,22.32624243067405
0.224,-21.066596912729977,-13.539626191832731,-4.004403320971903,1.0015202620065367,15.854644391532343,10.22965416588297,0.44292836011709547,22.854146279044077
0.228,-22.075527138004645,-14.673842190331198,-4.565084629363611,2.120984379114323,16.3964291316599,10.446259484243832,-2.7897190841594437,22.717407030964136
0.232,-20.72836449713068,-15.918691272026342,-4.101314972104569,4.957566220982951,17.035180750836645,11.385057202143132,-4.952380243822576,22.41538470739893
0.23600000000000002,-16.91410921803721,-16.571639659377706,-2.368282339147277,9.343935500661619,17.991072274009426,13.367035122674636,-4.798427228274262,22.269514431489043
0.24,-11.495091482892311,-16.138330281682137,0.27597623536456606,14.425564118827637,19.107571074443054,16.201595393570777,-2.2643204856367767,22.484502994548933
0.244,-5.8001830188411265,-14.431240805098492,3.206659565271086,19.09981755630644,20.163537414764498,19.236424993939465,1.7145549341526305,23.315236899025994
0.248,-0.9449857834106211,-11.549313088905498,6.002348524435352,22.571068012095893,21.231832992001447,21.68151630236355,5.884258840793027,25.166026802098926
0.252,2.629447178361442,-7.822805819251766,8.702995093053863,24.679633688734725,22.758720345259526,23.017579498461313,9.380960108247232,28.475295922193393
0.256,5.146359994756585,-3.770901314300737,11.669750059756133,25.818472447060017,25.26807552184349,23.26112557194085,12.049943957130923,33.3954642637014
0.26,7.081960144379881,-0.033461380703345256,15.18223052792669,26.560820207264804,28.91558966378737,22.976107913969095,14.277545539113841,39.501026583447384
0.264,8.627651451098565,2.732786372170293,19.035413273928363,27.233291181866328,33.198551328494275,22.994821068296194,16.50205301220866,45.74606122579039
0.268,9.430544384781339,4.0252394110402845,22.45724425184565,27.717543131485677,37.04923779913793,23.991004565383605,18.799146231200044,50.773424367617075
0.272,8.82329975841963,3.691526634342179,24.44366768782711,27.592172210458916,39.30043380644065,26.115219716292387,20.816838244339415,53.457201422750245
0.276,6.384306900833001,2.0257614655127485,24.313424035535064,26.491481190807065,39.28054957183171,28.881707102499444,22.063578066815534,53.41070052736733
0.28,2.451399790688698,-0.3145541207550737,22.153460943886326,24.465607733453076,37.2107596440063,31.40263349021759,22.321252549217412,51.203703911940934
0.28400000000000003,-1.7829882386692395,-2.560678388099248,18.843350386318782,22.08958429550253,34.14733702837968,32.81853369483035,21.856143239296188,48.13790366417424
0.28800000000000003,-4.720971820214526,-4.142621158834741,15.612814958658758,20.210263421848346,31.434185170145767,32.682534979541096,21.24776616727987,45.64315552865205
0.292,-5.141193536816374,-4.897881507966003,13.380805894956346,19.46707320079863,29.945947336146823,31.08717424814745,20.943788738247,44.586635196379845
0.296,-2.8690038835177614,-5.054240688513846,12.290246690063622,19.910296308636585,29.608600665777598,28.51472048474806,20.89166075399153,44.9057726177318
0.3,1.0717189275515768,-4.988876248313162,11.755341607600972,20.9943014417243,29.541377426723663,25.59319588894091,20.568312314597996,45.80369164984941
0.304,4.937000976854792,-4.924430118058838,10.976711943613926,21.940319043334185,28.7450641850779,22.889635648777613,19.403058381962026,46.353046292475206
0.308,7.133163105847855,-4.7656452300485705,9.574376734730103,22.225841886278275,26.85718117117974,20.794820521196808,17.317750032589903,46.09695576800435
0.312,7.015017224364657,-4.195161354491331,7.893935041259445,21.873371386848483,24.44120326452502,19.475902604441035,14.964686019680538,45.26192063395268
0.316,5.171353007043183,-2.9518397529182563,6.7892129122426015,21.36906871045396,22.636978993490004,18.87683255609571,13.448028267904522,44.47748952369944
0.32,3.0384099929728787,-1.0827680458432603,7.050250701744786,21.289865500780827,22.417689417974245,18.771443460572705,13.66789130467436,44.22896278764733
0.324,2.06043288745808,0.9983423389263135,8.829534870048487,21.884022434459947,23.931775573583796,18.854941176515023,15.663336229231223,44.431503962152554
0.328,2.9248815422592944,2.7473243505097362,11.501669065830255,22.911446359772153,26.39370912630539,18.886160743963735,18.457972984946593,44.45909036756329
0.332,5.3068659658926824,3.883825741615803,14.060462310580618,23.83408392402572,28.594082117424016,18.81695265305572,20.575740649796852,43.623046644709916
0.336,8.21363977895777,4.658180373957204,15.77910121986115,24.209374476906074,29.69870271838067,18.843139209359205,20.93707401426645,41.769265401954
0.34,10.647847183085071,5.754836313150579,16.681957343959674,24.012599938721948,29.804925229185308,19.32451976861703,19.551296461863878,39.54088464023559
0.34400000000000003,12.130900870203762,7.8226314311248695,17.450707450435413,23.636200801493775,29.839697686034796,20.536278152493303,17.497407233519333,38.04943281441412
0.34800000000000003,12.798454617468897,10.907288110155559,18.814912058846375,23.55721714544064,30.81425124616787,22.36180227379702,16.175386504155277,38.108226636548345
0.352,13.034653321095012,14.132283949259733,20.79762880265577,23.862789142478928,32.865171244855524,24.0855862170357,16.24007071072277,39.46199052078805
0.356,12.941919337610456,15.90072687130641,22.364563473601244,23.9869159957084,34.77324358043463,24.494647473007387,16.92107103006456,40.59621601161538
0.36,12.075893746420377,14.623475741794781,21.832771358131147,22.93745769171423,34.42813750159054,22.391343314307164,16.27372601703396,39.416505217383346
0.364,9.668264289444023,9.618802033916777,17.869970079448557,19.92921106619565,30.07184381879207,17.304298699775277,12.311059120423598,34.49107317691066
0.368,5.261536084366675,1.6939009626414157,10.523811355593011,15.063008356812844,21.59676406473136,9.993690595962297,4.406098416708716,26.141393962673774
0.372,-0.6712252362964106,-6.98062616541789,1.5914917931667354,9.582646187282663,11.048870955949077,2.3852202238694726,-5.911922765525453,16.690099450984608
0.376,-6.59277908511572,-13.718656804387864,-5.998114958074024,5.475877754488129,1.9149624576350455,-3.1469397208215195,-15.354639091743579,9.586606710329399
0.38,-10.423454715022578,-16.47102880331198,-9.49879874012069,4.61459456097789,-2.465412983077231,-4.80432325363577,-20.307918996276527,7.8448184265379
0.384,-10.516186215733079,-14.705909091320748,-7.685509934422456,7.868629088584069,-0.5113545375060382,-2.187862925356127,-18.56460052202472,12.630151568144214
0.388,-6.524562376202211,-9.543977485403808,-1.443703782366704,14.681573145286313,6.850933953707266,3.5491826023533015,-10.38163396875272,22.73984254987871
0.392,0.3346907724687296,-3.114729931793863,6.696496426881048,23.309737907833057,16.68356620223656,10.296194199362315,1.6756622591410537,35.21547359723353
0.396,7.801620897261356,2.497060729792013,13.81437212261078,31.585643749659802,25.499734639143163,15.99175984971488,13.978531274626498,46.72906496665527
0.4,13.622304036629561,6.159140029670754,17.978963167199993,37.811530339092,30.914565346011766,19.53181418287993,23.487449815108434,54.97829291265194
0.404,16.55855242690709,8.003181066195047,19.016182753235622,41.32594863511005,32.61426850162219,21.08794084247019,28.904260572531605,59.364724526311655
0.40800000000000003,16.81808236196547,9.042216757591309,18.300770118963683,42.49782290202338,32.15259503394043,21.70290664314245,30.782280500168334,60.71063660095737
0.41200000000000003,15.722628912868931,10.39529388768582,17.7789663324946,42.24321455206513,31.77950339408311,22.433852200168694,30.696341753627802,60.339142640883445
0.41600000000000004,14.85589259275589,12.61301625413335,18.853639215720236,41.42160049774025,33.07592511538382,23.601814073611443,30.10069298130169,59.176881645562354
0.42,15.196962277097537,15.479996344538304,21.770925916091407,40.4946245862171,36.21173490347938,24.65360132984457,29.61161759058536,57.46292316719064
0.424,16.697596617366607,18.320251484817696,25.740097620339412,39.56798374727926,40.161708551445386,24.68078068719845,29.0418283320921,55.12084960754509
0.428,18.481087588517283,20.521110747661844,29.574162774851455,38.656892689732615,43.56141112976971,23.20095462735881,27.977594444546117,52.33861146039514
0.432,19.466268990656896,21.888045675198335,32.34828370291051,37.87960065593557,45.54543801335753,20.625930225095566,26.33797835103393,49.79811624339164
0.436,19.00541554293902,22.616293884841777,33.681214741570244,37.41707869431153,46.053881824248094,18.08657229866516,24.48406697352507,48.32089624087628
0.44,17.16094394268375,22.939715514076724,33.57285591732946,37.29396854376825,45.50927018198422,16.734589336808963,22.855495086672164,48.17010065857006
0.444,14.517444176956921,22.762261162039948,32.03557394025225,37.19690085121554,44.23105890601765,16.985809851859123,21.443085144048958,48.592957858377865
0.448,11.762330122256126,21.606333140604356,28.91458062820463,36.55824988141363,42.096193288374515,18.228474281329255,19.630690282898883,48.08075199953859
0.452,9.34742536424742,18.950588982964298,24.071784893901622,34.908466451355046,38.6998579380417,19.19276735674465,16.613033882033385,45.29984737258087
0.456,7.426489308728808,14.735439206482871,17.7771695174439,32.287283057520966,33.897696076123665,18.75600130146846,12.126430898190865,40.14838728137505
0.46,6.036547573086013,9.684607758354325,10.993283880031708,29.429863918792954,28.311448844737747,16.700856185860413,7.016572964149955,34.20958748879283
0.464,5.260813784559551,5.127817627188691,5.19104916047374,27.49401452404971,23.31942489133257,13.901344677611014,3.1018987446321766,30.127973718674713
0.468,5.196982910474305,2.3571548301392156,1.7027750345166153,27.412523637067697,20.407640507554305,11.76794406966623,2.254768352423058,30.12873519405219
0.47200000000000003,5.752024205858794,1.892739991086314,0.9775652241812267,29.249982830628994,20.246068403856288,11.304974964232615,5.2166367900142765,34.51783983975203
0.47600000000000003,6.409772264907938,3.0826740040286182,2.189782926029082,31.9468095671971,22.07470974407921,12.377240559852092,10.8802124497982,41.0926429553021
0.48,6.238774027150693,4.342862082400087,3.558137168111874,33.70172694606542,23.92105164795456,13.694210040795038,16.58148806067009,45.990955439928
0.484,4.264947982440807,3.9766182302616215,3.278632176420057,32.870437997481986,23.65670491889241,13.57515744480941,19.348355807329,45.6512488525253
0.488,0.06918257500537428,1.1343323474781224,0.5774338523549685,28.891751625874537,20.291788951204754,11.039164230227925,17.46974377072426,38.80185566582404
0.492,-5.762104688958735,-3.6511685785543957,-3.7579781856201255,22.677425744746404,14.696198327699125,6.483368955889944,11.484218876012612,27.292025213301248
0.496,-11.67522266474492,-8.670115094030729,-7.716665826728087,16.226248581241233,9.26642255873822,1.5172972946497154,3.9820916370630783,15.22163864120363
0.5,-15.762334355426074,-11.892754474210346,-9.099675418106765,11.670889103217384,6.684458383443591,-1.9343168499557848,-1.6987310579116262,6.822650854091421
0.504,-16.723966802695124,-12.055546015091908,-6.739892588359963,10.231630662923994,8.41689934192513,-2.751180752644011,-3.196299152669482,4.271597490374493
0.508,-14.63463754779583,-9.374947164135522,-1.2193734038163928,11.636988677734422,13.782515444256955,-1.2858544314530214,-0.34747021360298547,6.610358931453401
0.512,-11.03512449295673,-5.495771335620518,5.322510489828504,14.306195773817734,20.12788697390094,0.8186803882004536,4.777437756139953,10.379172566334827
0.516,-8.238467413157313,-2.703690100869128,10.186133229529192,16.170841476730047,24.06706675952423,1.5414837341090477,9.015344572439108,11.599565933701241
0.52,-8.181461919348447,-2.818744783787473,11.394636426325505,15.695742333023716,23.149937050248553,-0.3800342456119179,9.763194341383763,7.957414457240202
0.524,-11.440610608244338,-6.354768338786506,8.566202590575392,12.564065189762577,17.084317168081107,-4.737572031175983,6.2744338863416225,-0.02315857999861315
0.528,-16.941833724057027,-12.354175356757082,2.952641308328748,7.699937062562455,7.865674547703821,-9.981629843572563,-0.08315199128776385,-9.418592204962643
0.532,-22.51625485607279,-18.93259196761141,-3.3210056654410387,2.677099191618085,-1.2460424299941053,-14.089081193501325,-6.684652614678669,-16.62890379372833
0.536,-26.00007607802671,-24.20147973781124,-8.365638457072777,-1.1075501375218026,-7.33355003336448,-15.635762343954607,-11.063499658917515,-19.342699077277082
0.54,-26.28731595635529,-27.062692605103827,-11.349524082836744,-3.029512660894156,-9.138389174282711,-14.45053876054043,-12.091364780852246,-17.608266310573754
0.544,-23.80162148571238,-27.524708270985855,-12.673672372885436,-3.3479378178782095,-7.474616134795167,-11.546431676715478,-10.351664372404564,-13.511684456806554
0.548,-20.177092456475464,-26.461582040706674,-13.503909010406446,-2.873631497231883,-4.629985587694062,-8.456190096220768,-7.618625180356329,-9.795707301362842
0.552,-17.355508374979543,-25.01718332040616,-14.983710368155009,-2.4525688181388396,-3.1423671607187185,-6.407295637783423,-5.818749912498667,-8.317401291773175
0.556,-16.625491482825286,-24.017890236891873,-17.600053078412884,-2.5687094303033233,-4.605424554932154,-5.817739231329675,-6.074476729624751,-9.237210664936779
0.56,-18.104716287555135,-23.683114305008466,-21.00136256315458,-3.221817463950658,-9.03949987822788,-6.303795495827371,-8.297502171159689,-11.291069193023604
0.5640000000000001,-20.892392464735202,-23.724063031551722,-24.298838817104198,-4.076657763468106,-15.044986899031164,-7.079650672157691,-11.467298439992387,-12.834087228249242
0.5680000000000001,-23.699304185116155,-23.66339074797112,-26.59042736929035,-4.722602601263272,-20.561342583069308,-7.445843627178326,-14.321583824779063,-12.923379543030467
0.5720000000000001,-25.54973903956899,-23.15775786985094,-27.392167505509864,-4.885605462279134,-23.826563270129665,-7.100991486636262,-16.016125080913426,-11.792231383022731
0.5760000000000001,-26.179886176125585,-22.163684678327225,-26.784787697897222,-4.528464774699963,-24.09489993016264,-6.167511808963288,-16.419117849089833,-10.518556955414486
0.58,-25.972291088449076,-20.89266121296945,-25.251353555472768,-3.8242591266091592,-21.818655454675778,-4.994541901263501,-15.98221249325724,-10.216087772198899
0.584,-25.568853645739154,-19.656146458194605,-23.37737524540767,-3.075789476617805,-18.304566343321476,-3.940739953672993,-15.340512582390378,-11.330600724921574
0.588,-25.438691404278632,-18.71966709577724,-21.607924999202407,-2.6420948806397186,-15.087621003821328,-3.2668909334240155,-14.928282240577325,-13.481220468848605
0.592,-25.655173510684396,-18.239197731591723,-20.17922925465224,-2.8881062744467467,-13.342328751008177,-3.1578370302773155,-14.824787440912086,-15.89370645114728
0.596,-25.976313694215897,-18.274973160259393,-19.197846539789104,-4.128471999569314,-13.558507658818025,-3.7701162721966597,-14.851096846027502,-18.059376333768498
0.6,-26.092960458170648,-18.794872323676557,-18.710342218331608,-6.503437208463051,-15.51159439500795,-5.164294771654741,-14.777145046534958,-20.08912432600536
0.604,-25.87064821287315,-19.658459224632164,-18.71526292299388,-9.853974117956623,-18.481100757257813,-7.162279079782051,-14.500214344263096,-22.53068841303095
0.608,-25.43312824855411,-20.60798221603713,-19.116352946730856,-13.692142231843746,-21.596629477632227,-9.270978768720505,-14.09480745262447,-25.813817980564853
0.612,-25.05293625115747,-21.308734099866392,-19.68663701246821,-17.316630013554477,-24.17029709787033,-10.801337271816989,-13.722875246429403,-29.729851457702292
0.616,-24.9612602644347,-21.475421660526223,-20.135020356132806,-20.05516553361214,-25.895950160279092,-11.183123140582197,-13.514910413783428,-33.34204092811159
0.62,-25.21644270895368,-21.02912759418888,-20.256102073883767,-21.504264609879264,-26.85840935163061,-10.295243297151218,-13.508117760741388,-35.41932976771983
0.624,-25.704539686917265,-20.181449614114303,-20.09471356746686,-21.63301967209271,-27.37749470410239,-8.586678580108448,-13.663275486996014,-35.12126864940119
0.628,-26.219867994664703,-19.33984809525399,-19.966576668347912,-20.6786592317468,-27.766060032648646,-6.8597525345722845,-13.91187932694583,-32.49121277161102
0.632,-26.5582332478413,-18.859426455930127,-20.305645901134007,-18.912428960339707,-28.153238578712582,-5.832763539115257,-14.175812691511709,-28.4505270507905
0.636,-26.558916092481248,-18.77774584209803,-21.41839529059387,-16.43082310813206,-28.443653660411066,-5.734367947997778,-14.35452742474076,-24.28330837402934
0.64,-26.068678734361328,-18.68336898187728,-23.239696457866657,-13.08136829912685,-28.365475874188544,-6.158784502836786,-14.260786780550378,-20.904798336885683
0.644,-24.904462693075015,-17.849487944490676,-25.26039021929828,-8.591545178437705,-27.57675018232112,-6.306544257049617,-13.586035966639773,-18.377155623374794
0.648,-22.884621286410272,-15.608606221805907,-26.700926980949596,-2.848935054607548,-25.80244868751147,-5.477390709977571,-11.97252411744568,-15.982356539469768
0.652,-19.92997118887236,-11.768320302694878,-26.838831101935508,3.8420523402529403,-22.940053450947474,-3.527320729009846,-9.17283008132091,-12.806446259383552
0.656,-16.183737367960788,-6.829700829263853,-25.328298201926902,10.680255778355235,-19.115477256121903,-1.0026790744829306,-5.236341439025726,-8.485326182516532
0.66,-12.059925049740306,-1.849766910436129,-22.328557720941625,16.549575737252937,-14.671756000001972,1.1697058863957825,-0.6109299148114404,-3.6385083532747045
0.664,-8.158405879653325,2.012127975797233,-18.372280512877435,20.410595358445846,-10.067754561410077,2.2522125898945413,3.9331995086258185,0.3241183575574862
0.668,-5.047488423371208,4.035335214749723,-14.070007244981587,21.717302917341335,-5.735465021996681,2.1801890207619863,7.557853607656454,1.9403588268449337
0.672,-3.0277153946942814,4.261067305866137,-9.854096005035487,20.621077496775683,-1.9770040284350285,1.6315311168755304,9.672929171157119,0.5477654147541244
0.676,-1.9964980042886529,3.4232055742912904,-5.915513265275992,17.87167001926061,1.0781251105093865,1.618933242194597,10.16176286260136,-3.2219334673851656
0.68,-1.50212609441554,2.5173448810626873,-2.338152740658014,14.47664643984282,3.4396645709894935,2.855866486452518,9.398423150386618,-7.618598745771395
0.684,-1.006052166125702,2.232133792165169,0.665889576022475,11.265654547167417,5.1470219451707315,5.258079517133801,8.031356806763473,-10.580728714360674
0.6880000000000001,-0.19752365783129555,2.573106460518251,2.63593736701988,8.590296720782032,6.14827924094309,7.905615124959155,6.644600091955554,-10.748009258379108
0.6920000000000001,0.8184505892692555,2.8976628811805383,2.9944733841762403,6.307820724235248,6.250552575605704,9.501307351316242,5.4804197718249315,-8.141964603620472
0.6960000000000001,1.5554437828555825,2.3247829687607915,1.3738243028707857,4.029367601877007,5.182840844741431,9.073244543496433,4.368559259633553,-4.146869890081576
0.7000000000000001,1.4093111012149808,0.29053928345369107,-2.0336625595266637,1.4991493295676692,2.7788658887160516,6.544190249375307,2.9004440932242486,-0.7888945135857472
0.704,0.015048781169014536,-3.0596211312594663,-6.348975507649855,-1.1081108784254194,-0.7931521033222912,2.8325306379976602,0.7679420719766799,0.33170364130060737
0.708,-2.492984336077165,-6.869590188239909,-10.242861564260988,-3.1549137054513583,-4.917354588249822,-0.577269721029561,-1.9335658316273552,-1.1074783828198846
0.712,-5.466415775829068,-9.967112080291727,-12.473717745142016,-3.829888630722457,-8.66359622591284,-2.3714712108593465,-4.6347886077955955,-3.9811719883608845
0.716,-7.997541777881624,-11.436151308494393,-12.479270266139801,-2.620335374988593,-11.15364456723222,-2.06693234079066,-6.517042711124106,-6.330333188996159
0.72,-9.330521761581963,-11.075738537576,-10.69122222527542,0.29202490137063775,-11.991780977838799,-0.22728744316059757,-6.919897144210197,-6.437501416431658
0.724,-9.236888379805883,-9.525949601058457,-8.384621664035288,3.9415393046718243,-11.50242242162236,1.8621102151545212,-5.72952759971912,-3.7718424899620633
0.728,-8.121638563010375,-7.974698429548686,-7.0736036633626345,6.910883980846098,-10.588864378142134,2.8820072584588443,-3.4798733368253987,0.7130171565007632
0.732,-6.809590655724197,-7.604224287644028,-7.75415947453886,7.932068428835678,-10.259118784221048,2.1419255167701405,-1.0947837597191534,5.0596310867665295
0.736,-6.125841790748221,-9.055395114076571,-10.390621798212063,6.449020835027965,-11.060884164146863,-0.1404134116980542,0.5763869782090163,7.29107309631968
0.74,-6.452083999308638,-12.119815077196566,-13.868377471210103,2.8946194575104105,-12.706147895080932,-3.0240842428125054,1.218204809933198,6.403917976210794
0.744,-7.518297248443096,-15.80708874924626,-16.48099919720206,-1.4864844201732923,-14.130790078233355,-5.367098907049923,1.2247704674954898,2.855680175674184
0.748,-8.532435414835824,-18.74542082867872,-16.71036535538901,-5.1951640990924615,-14.000242947230014,-6.3900967714074195,1.4534470103864883,-1.7112488792115865
0.752,-8.578007805899793,-19.732897010773186,-13.918447320582617,-7.139169456335544,-11.423151286874882,-6.004794698000218,2.6829501261883113,-5.335134619606894
0.756,-7.074541198181564,-18.21394865800183,-8.6415738297143,-7.060570530307572,-6.489419702188766,-4.770824861775109,5.0759176233798495,-6.695044915106598
0.76,-4.048515866023657,-14.472914401804468,-2.320934372965467,-5.498155551676569,-0.302394593584947,-3.507763035637948,7.993909349494464,-5.6432368023745525
0.764,-0.10070809818515336,-9.485801056063943,3.362803510872963,-3.351454596947103,5.522488803015424,-2.827816863244836,10.28773597446377,-3.075006968569042
0.768,3.8837953360872373,-4.517007327154934,7.209143912516039,-1.3257785153393384,9.606817778794937,-2.851113057845233,10.909945177484184,-0.2918243725807699
0.772,7.140829125946478,-0.6135589516694626,8.950706030959319,0.43088140911921324,11.419354563374458,-3.2172620891889716,9.548733569278864,1.7492427660626078
0.776,9.319919345879015,1.780978984223366,9.237011643300006,2.282304221241313,11.42155451843205,-3.372373885062192,6.899413571133868,2.851017515593142
0.78,10.529726174544628,2.9355034580884336,9.21706227236252,4.711686158911559,10.713796077671333,-2.925772409705385,4.393660409867024,3.4754962217532377
0.784,11.15612457454778,3.6221772408890978,9.94337809814325,7.848184348435222,10.43002610953034,-1.8683846516615832,3.495265830175044,4.266242815656252
0.788,11.591885386001884,4.696644970883604,11.894405906778736,11.220969913378683,11.221930387713147,-0.5413916385342032,4.934358187727441,5.525002698918625
0.792,12.071043982861795,6.69481484852189,14.837109098598395,13.926812459851345,13.091426338483235,0.6170883777514335,8.32446515222938,6.995538088517737
0.796,12.665128826157137,9.605935788629468,18.015289835031282,15.103552756991135,15.572162456432073,1.3582995015470738,12.342329334512389,8.04302082264149
0.8,13.38873194410684,12.915998063034484,20.5383367995564,14.425042157506503,18.07478129156024,1.7807286184794826,15.385494458963716,8.084998255836759
0.804,14.309954216468345,15.889178172220342,21.759643229918765,12.330173631235004,20.169964063141343,2.2641665765907497,16.365947084160176,7.0044071777631505
0.808,15.56106899351888,17.920595435575017,21.476690809577182,9.83072693992402,21.657130094721573,3.2259421566111084,15.21958193868106,5.249330013099929
0.812,17.255265949175808,18.79358583267755,19.92896239923089,8.007752279928479,22.457358314761606,4.843743544227692,12.895293401205455,3.5769344028786225
0.8160000000000001,19.345923097468624,18.706839066311403,17.61608920429321,7.464203405276204,22.472844698398568,6.884633978333157,10.829717545822513,2.6267466275722953
0.8200000000000001,21.542209996388614,18.092275086752075,15.083760506097201,8.045389076018688,21.57727207236562,8.765885975302307,10.212460788943165,2.5821712104820023
0.8240000000000001,23.361341475042707,17.35247431769797,12.764379036472333,8.971320872716975,19.76475520787314,9.812221683149861,11.422936213603242,3.109418019138934
0.8280000000000001,24.29914412467125,16.68273403701783,10.931738974347013,9.298565967136609,17.341068500101883,9.584834421424594,13.919444974144447,3.617509922590463
0.8320000000000001,24.044698494937023,16.071990130301696,9.744253826390873,8.43572000281696,14.973443648167432,8.116176083849329,16.587190228180933,3.6370824355379128
0.836,22.620068329339126,15.455550356573836,9.29883751557062,6.43366681634979,13.497372768493271,5.932730313915865,18.32702542254023,3.074009292873125
0.84,20.377966243763744,14.89694970036232,9.65785725464916,3.92290231019265,13.560914233500572,3.857418076035286,18.559385934605405,2.21304186090017
0.844,17.869055206916673,14.653890460003506,10.829152240273544,1.760948721058659,15.320258054846759,2.679430988790151,17.422742725248803,1.5013032509672835
0.848,15.672036293939378,15.08972452975469,12.7392886294356,0.6206030898419823,18.37915488985957,2.8676266010956777,15.62806510439132,1.2725742047948247
0.852,14.239603398576016,16.44967927169825,15.207206812210345,0.711490861449315,21.98038560084528,4.4307822007054884,14.072057093126437,1.5710019447240802
0.856,13.788855926940872,18.623820532426734,17.91721265961087,1.7310556017935967,25.31455278841805,6.942080516692535,13.413362651647882,2.1608342811108288
0.86,14.27609106679275,21.08032228337227,20.461587440246127,3.0617830753511157,27.788997803037258,9.725255636513275,13.844270558483137,2.6951576081820683
0.864,15.41166210332516,23.01177131338126,22.42370671675947,4.064809716660326,29.123169078482594,12.091690936906588,15.09460117910471,2.92045666932847
0.868,16.724278587159574,23.660614088258008,23.49683469891046,4.342326403904266,29.285609415478604,13.546302032399351,16.62958279155641,2.8193770740084747
0.872,17.68024928030303,22.66348914181784,23.597224973331997,3.858359912613418,28.363571581102512,13.896317342943405,17.92190063272364,2.613025124126154
0.876,17.83237247370304,20.230230093514066,22.894450386437402,2.8855552296757265,26.486131091861232,13.232893454646927,18.63776414226498,2.6335470942810355
0.88,16.981429757958246,17.08372690227426,21.760762850891638,1.8494839452570693,23.874357336099088,11.848019562919415,18.70881416419973,3.154635874349985
0.884,15.263276866498602,14.163244808333918,20.623017577049538,1.1368239274289103,20.935934165222616,10.128626082054273,18.28131056666775,4.258608837886124
0.888,13.111133907960797,12.241965013748423,19.776538711273986,0.9479933051841494,18.271720436771844,8.465951236110836,17.603282917189212,5.792711044156805
0.892,11.094775358113647,11.646890473296589,19.258291003363237,1.235175067887817,16.502471812045343,7.187838641721694,16.919600828041357,7.418756200598971
0.896,9.682801444402084,12.183000551041111,18.831447949651,1.7291935768364084,15.95848571788213,6.494536686735351,16.39602639366061,8.717734849195722
0.9,9.063696082476884,13.301905051567202,18.130362963378506,2.0677624820216502,16.434244622274573,6.4138328446774935,16.090592989735303,9.330026064891086
0.904,9.10915356922385,14.410500437013319,16.89033377401352,1.970591146601362,17.203861090674785,6.796361004367178,15.963531918155283,9.091950650856514
0.908,9.484748304536716,15.14976966480489,15.143715633281587,1.384636681732224,17.34574662128882,7.369581862226362,15.909896147337598,8.116690160219834
0.912,9.839127490442834,15.509077084936681,13.253708561768144,0.5187454383517629,16.222931466132188,7.833653716701172,15.797501555072904,6.766262505778162
0.916,9.948946015992604,15.727074591145392,11.736897246094326,-0.2772235424894265,13.845321657177841,7.963709995459265,15.496774157798216,5.48954975736407
0.92,9.759516693972685,16.069529007836874,10.98830320612075,-0.699832614901521,10.910368835329933,7.707654068287227,14.934200053191514,4.623423802321952
0.924,9.299898737189519,16.608096859257433,11.041051985686492,-0.672036504596988,8.466358346305906,7.210929246531334,14.13689661038187,4.22814063163668
0.928,8.57756433871135,17.14579410250179,11.533508488389282,-0.3883339316132588,7.386713059560946,6.752882780841623,13.259532475358645,4.0627080214617095
0.932,7.547493802178258,17.329926703129164,11.914267441037875,-0.19675928176649515,7.933676685830113,6.618973483683465,12.57436706112502,3.7372483020404634
0.936,6.193013034282738,16.88008274863169,11.769696314017864,-0.38290242057266743,9.65663625213009,6.954878384325035,12.407589780616263,2.975289981781225
0.9400000000000001,4.668675647173714,15.803922154522045,11.102217324448226,-0.968885382912978,11.684385239951576,7.670529614692581,13.026474683332363,1.8322418629278205
0.9440000000000001,3.3578367862494876,14.448268965830458,10.35863912969276,-1.6761334014218305,13.230066432994686,8.459276562435926,14.501330846805002,0.7338697847473861
0.9480000000000001,2.747170750804944,13.335209237729371,10.169385038320751,-2.094303892611265,14.008071252062809,8.926584749053363,16.602938901807434,0.2785100108461642
0.9520000000000001,3.1688975779436164,12.883892925036296,10.943578881218428,-1.9546715827359407,14.327938761717814,8.771544775709021,18.806989302614003,0.8868847458468887
0.9560000000000001,4.533064280967442,13.153421827038928,12.54236442542913,-1.3684750647472366,14.803897809186187,7.911594542956308,20.41405949833087,2.476048371244233
0.96,6.263855620379976,13.781178971189583,14.266969423937098,-0.8471605017515771,15.882082226994669,6.532399369372545,20.786352673949732,4.374113372697574
0.964,7.517104631826951,14.164168519425985,15.180167334025757,-1.065070360879028,17.478613229832888,5.0173297708060804,19.607016332380944,5.568673728742153
0.968,7.617415108916017,13.800792612329676,14.613392070038074,-2.4700367271418586,18.960399764160076,3.8120209409512915,17.059892269683125,5.203283352239855
0.972,6.477681725986926,12.591896013967833,12.563108275924712,-4.96671397523339,19.467228064483976,3.2790539241217838,13.827136582262103,3.0824957891578473
0.976,4.753605508059702,10.930120160460728,9.735311939922813,-7.849315608527853,18.395009029975817,3.594512650632139,10.865997172193188,-0.08022705743645409
0.98,3.599827825784322,9.51018289037065,7.207259795706728,-10.046144829778344,15.754286058322156,4.717363130192339,9.05691886070401,-2.8589047876325573
0.984,4.086283131531207,8.927832583146557,5.85506086615694,-10.590833064001046,12.195693819169986,6.4172909502274535,8.860597554598622,-3.6984065515747133
0.988,6.5794659111643305,9.290191153368468,5.874084347070669,-9.08290801133341,8.689269690810288,8.342529762499312,10.129980604072834,-1.6307190105903508
0.992,10.444158655235206,10.075742028335803,6.67744602758747,-5.893853085237105,6.056351851186305,10.10030997062743,12.175322097972295,3.231828466991783
0.996,14.24697429124771,10.352354550063065,7.23450573193567,-2.032349843628845,4.6163407722094,11.325390433602177,14.050313101281208,9.677580786811891
1.0,16.41611615972718,9.283383360872321,6.696733157416191,1.2857424169483598,4.15242409992312,11.763368486313308,14.970033082950815,15.885311980825337
1.004,16.002991049020025,6.650857861232403,4.934302596216182,3.140531335213181,4.191466666677668,11.338690399400956,14.643674929143927,20.193564795249006
1.008,13.152342141097163,3.1087933858202,2.6782482495547515,3.24454206632629,4.400096895757645,10.18756438312873,13.368678591878126,21.770583242118477
1.012,9.043919438913901,0.011437159813083797,1.1812162602102028,1.9844245766910515,4.847494850264242,8.634035158754791,11.848809279207725,20.870804695484658
1.016,5.317369010976124,-1.151859106649478,1.541327216919977,0.1640474272546144,5.953155664352672,7.072374707993077,10.813210324847844,18.559906795727635
1.02,3.297953652287898,0.5526980919440962,4.0795857988971385,-1.3853328537637548,8.153477484862368,5.817980797532675,10.643410436975351,16.083593025119242
1.024,3.417402980307223,5.022953578621442,8.108167770356438,-2.13183691044242,11.52052067082304,4.995374403126864,11.196152598314864,14.239168297091098
1.028,5.109720972067636,11.095754207637679,12.234297461895892,-1.9677764390567631,15.575841981615234,4.527266780642328,11.91376762017871,13.083291213252132
1.032,7.217955781735193,17.017359232665314,15.062196551188723,-1.114376862763744,19.436298412308215,4.246301323643827,12.172628867834153,12.109454434877472
1.036,8.661031774706538,21.177964247489733,15.897320357659192,0.08489724037738355,22.222232998577176,4.051727369785276,11.674149999259821,10.756256978631662
1.04,8.978311385902918,22.74748605286924,15.070264932434746,1.3381587532403958,23.471340208330304,4.0191509892024,10.659059071173365,8.900048730245425
1.044,8.462707213570889,21.904777366830256,13.68678492154428,2.451063917627529,23.303644806925703,4.366473800679595,9.788121054677147,7.006825193030686
1.048,7.833621942348561,19.558149503728117,12.91895888424756,3.2406883719267294,22.207761148141362,5.266856047849439,9.714911555244989,5.814421161398778
1.052,7.668471681305004,16.730053581450598,13.225969661579422,3.4129043863916437,20.570294575865752,6.606183217911538,10.565159628486022,5.733102033266662
1.056,7.930957975812402,13.944768552868515,13.929258530245379,2.5173470455633264,18.243064211424468,7.832858469687684,11.59933241874287,6.349527870976851
1.06,7.891425952699772,10.974229397909292,13.431348093675863,0.06841428437498731,14.45733902901749,8.050227164711277,11.343771236637071,6.396332580094251
1.064,6.470364541841526,7.0651839162967445,9.979290493062184,-4.2149173190039,8.194257294691834,6.346059573030111,8.177102287405738,4.299114115081528
1.068,2.8305597985674327,1.520068257137555,2.624238284165449,-10.151577124253272,-1.1336072512686846,2.2559938121148297,1.1647969538045255,-0.9287922292954174
1.072,-3.092260594578989,-5.699188821575127,-8.097696949099097,-16.969546312787095,-13.057100796683002,-3.8761024126415604,-9.243574626951215,-8.940452139473457
1.076,-10.414295261807816,-13.7000374000052,-20.141478788074004,-23.41444939339624,-25.856094642132824,-10.861978332475976,-21.039917688934835,-17.885978374271062
1.08,-17.553967110958453,-20.87557092239875,-30.604228917781008,-28.0707071481173,-36.956225325375485,-17.006059195934803,-31.166890606810963,-25.00245442531713
1.084,-22.81244926750167,-25.53084395929911,-36.781407257004126,-29.79386005193912,-43.78219112061875,-20.703999076611446,-36.57064732294613,-27.73152549403988
1.088,-25.00024056797665,-26.58943005942674,-37.14011112398109,-28.0723100320377,-44.67454831987952,-21.039224781109287,-35.364792417929,-24.820295167574645
1.092,-23.825155897703006,-24.018500202782477,-31.77793900066284,-23.173977729259086,-39.45458979408344,-18.09828801223309,-27.590582550111872,-16.865946571177567
1.096,-19.924885382725048,-18.804264801263027,-22.256194079705303,-16.069427055114005,-29.432442465111176,-12.893612354545398,-15.258070747333608,-6.075866568162527
1.1,-14.540187184068639,-12.489276736107602,-10.909535394756888,-8.144436986701656,-16.87622419795138,-6.914543896210464,-1.6040172977468157,4.647314796382821
1.104,-9.021436631786369,-6.539505617089561,-0.008809371239981267,-0.8323165412404377,-4.22457756901535,-1.5364661459728024,10.08162118714825,12.840827100744963
1.108,-4.377553206876023,-1.851428051984247,8.875791128112851,4.732892676270354,6.6141409692494015,2.44380544501153,17.562060420476726,17.311476486721514
1.112,-1.0231437168378341,1.4148295407078217,15.122938314263859,7.968603915214246,14.640142680997382,4.968203962036329,20.26455957320693,18.35036647632048
1.116,1.1943881312387303,3.650698969664832,18.896811991329844,8.927052296270535,19.739376100205767,6.5173791420172655,19.16184537156542,17.30500238381949
1.12,2.7741840394110646,5.446790742744871,20.78939151729453,8.225382473469415,22.39732910859844,7.714018294700766,16.085975639372677,15.820908215711313
1.124,4.239078696787453,7.248945786836474,21.448622326523367,6.820594091115865,23.325705658789694,8.931535364912914,12.81843814240527,15.129861761654823
1.1280000000000001,5.862100685842724,9.18483099018254,21.350151290580467,5.692333106097768,23.17060774162566,10.111319545455851,10.396808956881596,15.677062014879256
1.1320000000000001,7.5569980006072415,11.085070098198482,20.743704036818777,5.527646769038581,22.36205473222357,10.859629821990323,8.913915518586439,17.165276666155286
1.1360000000000001,8.956857838668851,12.603635364763589,19.685756595359855,6.500441984737959,21.07721619159136,10.722014551443868,7.7790483879496275,18.879193570221183
1.1400000000000001,9.643074861265989,13.363113553322542,18.115085969815055,8.246975240798731,19.276216557511525,9.493960023771319,6.256695463393965,20.081295269335367
1.1440000000000001,9.402746768865995,13.065215327013444,15.926694385592798,10.059697069429413,16.791117087756284,7.386853116523502,3.958531386600102,20.31238349769936
1.1480000000000001,8.390596407365981,11.573852644652051,13.052026702052064,11.240364761534082,13.462826358504104,4.972549211428351,1.0651398906032448,19.530484785031135
1.1520000000000001,7.106893914815219,8.986034344160839,9.547633683364019,11.447545500470778,9.297641392435112,2.94608535767749,-1.784066177704854,18.08804490703942
1.156,6.19077913273659,5.672662042501013,5.6531172912111884,10.85467275557189,4.577830586963355,1.8193561655182633,-3.844162252208803,16.571470768556473
1.16,6.131112620250267,2.2583016738527006,1.79865128246022,10.035766415034143,-0.13958244461780867,1.7103221172328253,-4.6335065380789375,15.5630886385056
1.164,7.028055189947132,-0.5184560301530605,-1.4909739558963597,9.619270782549467,-4.1667044172949375,2.3146311831922493,-4.146656133743462,15.386098835727617
1.168,8.536867839275752,-2.055295353899906,-3.76655953078372,9.902130762538794,-6.920499031974786,3.077167626877195,-2.8366151943822553,15.922844219901625
1.172,10.04388502525971,-2.14109062447548,-4.805092983336841,10.6496123534573,-8.133352538308074,3.476673338600106,-1.388904819262954,16.61116019389422
1.176,10.973235887932152,-1.0929267808696843,-4.6798672556831065,11.196455108397483,-7.944007416226592,3.261565050978335,-0.428368513243531,16.646777329702488
1.18,11.070998207324006,0.34135608776598314,-3.684086565928,10.820906255862917,-6.804317496282236,2.5380852660420588,-0.2671872997527158,15.347220322796243
1.184,10.503398543941342,1.2953671908337663,-2.1661583584854665,9.172430779465994,-5.252238236855595,1.6589416640460035,-0.8082619832508584,12.513906867404554
1.188,9.72518839109235,1.1793156965043976,-0.36870923866749905,6.523862456878939,-3.6643815812189375,0.9949139394790838,-1.6206836023021942,8.59906798064968
1.192,9.190868198017043,-0.04465909996538686,1.624265445554685,3.687695308279519,-2.1249831629881464,0.718492504506683,-2.1434672021684937,4.543453759582061
1.196,9.07772721165806,-1.8641749152217142,3.790328405434761,1.6188969323886724,-0.4864027238695874,0.6981286320217284,-1.950468913595845,1.3335706107989078
1.2,9.198625548153892,-3.4816443546866096,6.027008715855414,0.9343911213188543,1.4329565744572639,0.5768143492216335,-0.9458226166492412,-0.49554172335357327
1.204,9.137663532282286,-4.227075688164328,8.055581417772352,1.5982984280050858,3.6391197406924176,-0.02037093921402966,0.5667608120842593,-1.142234191089508
1.208,8.517914869213907,-3.9024506488654263,9.464699363303835,2.9513845516869837,5.870813665292833,-1.2536075825621862,1.9776062115144986,-1.4242915904236044
1.212,7.235959568666965,-2.8790159970406273,9.901263036374996,4.057464706740129,7.674297686590615,-2.9415992573755494,2.601295194106897,-2.3223539737937484
1.216,5.525289569712781,-1.9086378611266235,9.28189620390528,4.169014130080985,8.595877836381618,-4.618575844959816,1.951582060930824,-4.421551229148978
1.22,3.8231951383207607,-1.74320846585849,7.894060394163137,3.0706863826034003,8.377769392743541,-5.739657688973227,-0.03336893781928518,-7.56878030568363
1.224,2.5088694263409974,-2.7799517811473944,6.278767118136167,1.1110217858351632,7.044674190677661,-5.9496595540752875,-2.954966896638388,-10.951423514293143
1.228,1.700512131826273,-4.887169753830235,4.964091663404966,-1.0375159410576362,4.875851027099611,-5.257757092401844,-6.102051195835063,-13.519975058124789
1.232,1.226116627218715,-7.485234298965111,4.189165211963006,-2.7381737604663314,2.2876037996086556,-4.025460417357747,-8.736461912773596,-14.51931177247723
1.236,0.7735829362094866,-9.827797794950753,3.7632205124586697,-3.672384773655343,-0.3121303344995019,-2.7836098834254344,-10.393649064764574,-13.835648124559402
1.24,0.11907029976300065,-11.325556383519011,3.1745408877097194,-3.9044451365992794,-2.6249918955259526,-1.9686766370748525,-11.05383145746275,-11.986044388663242
1.244,-0.7350450431511621,-11.769546038497417,1.8774944201310446,-3.753810711772629,-4.501284457365706,-1.7285553723171934,-11.114615440482522,-9.786804210857657
1.248,-1.587318522422402,-11.358138570456589,-0.38311634176117515,-3.578835587300654,-5.919450248606732,-1.8874435152032847,-11.170262949820732,-7.92170096930474
1.252,-2.2121262139076627,-10.549749628059228,-3.3869298113898707,-3.614657627356985,-6.932673125550618,-2.0764239544732828,-11.705008700100544,-6.673925984667008
1.256,-2.5687431899149056,-9.84312776637205,-6.518853228139772,-3.9638088963411233,-7.624163420295037,-1.9698749842039518,-12.873312333254063,-5.951736451982358
1.26,-2.875586885602597,-9.573203843312763,-9.040369819198428,-4.6710183026100545,-8.076740002778047,-1.4875871414957271,-14.453003657525812,-5.528387602230023
1.264,-3.505807782603272,-9.819723504461802,-10.420529803925476,-5.797921708896676,-8.339905776813243,-0.8635898834713363,-15.989274270879116,-5.299702105463343
1.268,-4.753893519976815,-10.440846296282103,-10.554494931703795,-7.410844436859352,-8.405518202142956,-0.5244281933796338,-17.04170262882885,-5.378216615303988
1.272,-6.616403328791351,-11.19394782622345,-9.768228549046228,-9.474543136593775,-8.220222104071922,-0.8416190886367927,-17.398460406977915,-5.968764655776817
1.276,-8.739408489890778,-11.88541349030748,-8.644422803411732,-11.764458042105797,-7.752271662516986,-1.9079400231772012,-17.1779812261466,-7.15412042682992
1.28,-10.557403553327568,-12.458214703851,-7.748667352735274,-13.884052997165613,-7.092897338234536,-3.4475582534584897,-16.74354217746679,-8.763310125011223
1.284,-11.567332584059955,-12.994625184812598,-7.420714181839415,-15.424390015940556,-6.5343128286083925,-4.929241280634788,-16.510510754024633,-10.44332895435252
1.288,-11.590639746350309,-13.650499799021304,-7.708319706688801,-16.197207398269207,-6.545556346614056,-5.819037734279959,-16.759797152453515,-11.890552381147922
1.292,-10.870965593680076,-14.550660877488475,-8.427569655875534,-16.392605172033893,-7.609633457545247,-5.845081961448711,-17.541055085830557,-13.076793646724552
1.296,-9.959539741752284,-15.706828749582897,-9.301889040672936,-16.54862307879219,-9.980424381862047,-5.152255040363322,-18.70731949653649,-14.304349551527464
1.3,-9.441918524131362,-16.99571290880353,-10.08380740952506,-17.303042029746557,-13.478114119306817,-4.2464162953626605,-20.02199889963471,-16.014815040179982
1.304,-9.667843862017994,-18.220979432224134,-10.629109037671562,-19.051007582260794,-17.450276210063507,-3.7570197664601963,-21.274884982589597,-18.448447472761927
1.308,-10.629168812447318,-19.218291439762922,-10.914131797552724,-21.689699127067676,-20.953641104815393,-4.127503441044428,-22.337219592997986,-21.369800843611966
1.312,-12.021569753416946,-19.9316737479111,-11.009296247969203,-24.59581597837061,-23.101445460342944,-5.383123191069488,-23.136483621791548,-24.04576897593669
1.316,-13.446773272628565,-20.430689963234943,-11.063553836912217,-26.886047147170615,-23.448834467306668,-7.113447870848841,-23.61240174455799,-25.528954799188128
1.32,-14.615471392033623,-20.84608000413798,-11.276750652351868,-27.82195362488823,-22.222162321097034,-8.668936965909818,-23.68156623265994,-25.111488153993832
1.324,-15.445140306102843,-21.269921513192838,-11.859834123939587,-27.15675756922727,-20.257083384390505,-9.480780312530097,-23.27913493118448,-22.714579712753157
1.328,-16.01050223598658,-21.678398307194783,-12.960149127783996,-25.233505803469484,-18.64876200574838,-9.322364019152989,-22.429454711277582,-18.980550308152438
1.332,-16.38903421752277,-21.914347395454172,-14.55777618174333,-22.773673022081024,-18.256947198807474,-8.36741787622719,-21.29384744630961,-15.00835428040817
1.336,-16.52078909437257,-21.73967699981955,-16.405285335379407,-20.498176013068974,-19.308744036840157,-7.043179613783721,-20.141698129418536,-11.86677060558139
1.34,-16.1826818448945,-20.934464859271717,-18.052089760771793,-18.786689021512785,-21.294132198616353,-5.757031643571684,-19.23290777514513,-10.141540591725093
1.344,-15.101476961619127,-19.392552175362912,-18.991398270023467,-17.558873729563487,-23.21059415845879,-4.6718955349287965,-18.687449741300007,-9.742491339224818
1.348,-13.144034164466023,-17.165085797490093,-18.873145406467337,-16.426567637921295,-24.03437310357273,-3.6526390575306498,-18.41141337354872,-10.060819397765004
1.352,-10.457804874486332,-14.43214635338385,-17.667766123883844,-15.002486742930659,-23.174560248707436,-2.40021495759643,-18.11326865916351,-10.350740263125976
1.356,-7.48221134085645,-11.4450406596598,-15.708997570139058,-13.192631626731284,-20.7117412940828,-0.7127900964283373,-17.45039171303026,-10.12635120694484
1.36,-4.803760349608326,-8.465610699059734,-13.550076339898048,-11.292325283304095,-17.317510968851792,1.31177768973928,-16.204109134442767,-9.37538316274313
1.364,-2.9373312896478456,-5.736919955321794,-11.707929925888607,-9.843065727041411,-13.91126664989252,3.252220583502936,-14.41531629466338,-8.485512453229736
1.368,-2.1481546254849277,-3.4789792745193164,-10.423390590290067,-9.328936180199314,-11.236061333441452,4.569525930584289,-12.387254365793407,-7.950126944434002
1.372,-2.402679416132179,-1.8803051889604019,-9.56035376493178,-9.890688315756632,-9.567179749601065,4.931699801204232,-10.564839137946663,-8.032371802072475
1.3760000000000001,-3.452322857896499,-1.0621994892626931,-8.71652403430252,-11.226088722866024,-8.690437749465131,4.435181275348081,-9.348444926948625,-8.586750029476637
1.3800000000000001,-4.966383794675942,-1.0159268764060405,-7.482583806476756,-12.712050736918924,-8.122876401181882,3.605205596631553,-8.895355379845052,-9.117656338613696
1.3840000000000001,-6.651205695862092,-1.5791518615610238,-5.7368787935501375,-13.701203703203484,-7.455647979013443,3.125473479079524,-9.057194728307037,-9.061401960496186
1.3880000000000001,-8.282057203922882,-2.4629577560577927,-3.776298400465482,-13.814328085700724,-6.594423976404084,3.457887917065755,-9.443241952005394,-8.092067618778168
1.3920000000000001,-9.665643024418223,-3.3460173030898708,-2.1969234499351664,-13.087419923888898,-5.7711805300314065,4.567338626980073,-9.575039219653629,-6.282769275734134
1.3960000000000001,-10.600486392733885,-4.0014744079072155,-1.594300476722677,-11.92085875343235,-5.347930886464197,5.905606317574545,-9.089887346210002,-4.05491136742583
1.4000000000000001,-10.904369982336975,-4.390602706455497,-2.2294188871344955,-10.874813485306092,-5.557966665030561,6.690885555014105,-7.883708916407355,-1.9529194581294158
1.4040000000000001,-10.503389324561148,-4.649653824208833,-3.8467672073106582,-10.409017604568037,-6.33042597795847,6.331133484809363,-6.143292394260635,-0.37755848137760806
1.408,-9.529889637229125,-4.959066660718017,-5.750084595098844,-10.674058825694237,-7.297284393726653,4.779371261087084,-4.251324704764709,0.592216701570055
1.412,-8.335854338095164,-5.3690205725818165,-7.104221983269938,-11.440609642254488,-7.974007109836763,2.611917801089424,-2.6047689399750036,1.1881633532152938
1.416,-7.378496323873853,-5.709397693728123,-7.3323997929443365,-12.203044843931464,-8.022013479890047,0.756712584651237,-1.4456091269299645,1.7637920645189884
1.42,-6.977032574744233,-5.632602981532595,-6.373658658699162,-12.36982871437838,-7.418724353434255,0.035986307946739515,-0.7660367269528399,2.5724846899738827
1.424,-7.092992660333904,-4.809693012227953,-4.687807568862345,-11.488477539066137,-6.45259313836435,0.7365452625393809,-0.3594012493875125,3.6403142211867427
1.428,-7.293907444846599,-3.1904449310870926,-3.0164678220206533,-9.434774214618622,-5.552848772440753,2.4544003499490845,0.03216349875253188,4.785902668564027
1.432,-6.944101308272742,-1.1619288356752568,-2.013297529450538,-6.48841205047101,-5.051504860545381,4.309782330839328,0.5557149768541181,5.766228043894559
1.436,-5.559463918514858,0.5035235254576873,-1.9551293009220285,-3.27658212491421,-5.023620049573388,5.3906939033505585,1.1299364766971092,6.4424816474810385
1.44,-3.1287414696131686,0.9411946879693847,-2.65089643954671,-0.5786986848951869,-5.280706964143117,5.208561771036387,1.4692494181991362,6.855224805319683
1.444,-0.22141603925299513,-0.40025305752398666,-3.588228335349396,0.9358089323197736,-5.509225565561733,3.915371252547118,1.2479989476960065,7.160748361106544
1.448,2.207916487419693,-3.43816807774336,-4.216543778979572,0.9503857028558329,-5.450479827453895,2.1876770169009134,0.31147423734542157,7.476136956276588
1.452,3.2475232528965403,-7.39734715600278,-4.1985169706385,-0.3712431752449268,-5.015825972540772,0.8542217533401324,-1.1779974126830064,7.738753811544708
1.456,2.467928573286645,-11.073341500826022,-3.520117259267292,-2.451336167853026,-4.283418585538892,0.462440604119438,-2.760806452230211,7.683054890061584
1.46,0.160888828464528,-13.30008802679479,-2.4107929752164052,-4.527484474876854,-3.390457174732711,1.0298615543475371,-3.8620707574131963,6.973381000732873
1.464,-2.763182847579701,-13.42347974137936,-1.169825338305337,-5.959842290188081,-2.4239122034188414,2.081113786100385,-4.0600782146101135,5.415573909781942
1.468,-5.168409373600948,-11.555371644974407,0.0031387991846409946,-6.467671012762345,-1.3642607467764671,2.947083555934842,-3.2938428529114945,3.1444054174578735
1.472,-6.191046512730585,-8.50328530827759,1.0658349747782658,-6.190363164023521,-0.13178332463527642,3.1461471128501417,-1.8846756183175595,0.6576114834600064
1.476,-5.603524378770339,-5.4256725846175,2.0517117647181156,-5.563996825087747,1.2887919768519502,2.6127354704457533,-0.3859368908694538,-1.3548011754882845
1.48,-3.861519043172491,-3.3741481315331865,2.9346726298853145,-5.073286761078531,2.7410300910441228,1.6736344771419516,0.6734676191255069,-2.3089162541394184
1.484,-1.8463487925757116,-2.936062848048727,3.5250262339487417,-5.015856988245151,3.8835787269386373,0.8053952042660746,1.0198515333586489,-1.9987005224605592
1.488,-0.44410816785874374,-4.106263926207857,3.496269839787132,-5.394989332193312,4.307732036103376,0.3381502586269556,0.7240150559539202,-0.6958692008933873
1.492,-0.15845828900188774,-6.389583451749466,2.555457331083433,-5.968292300173083,3.733880070680101,0.2929499430481699,0.13014135684383632,0.9871455715146684
1.496,-0.9361462150352668,-9.049904217522762,0.6501695925195126,-6.407451240292381,2.171574742470231,0.4387971914391886,-0.3200999765847712,2.4016424531490337
1.5,-2.25091850579319,-11.372451211794662,-1.8936294074410283,-6.468339063807835,-0.04585045586932868,0.5155499344451342,-0.26509441368876985,3.166688812126085
1.504,-3.3928971550034968,-12.854989280940835,-4.423420792697497,-6.097987918041042,-2.3888964418196093,0.45602780821699795,0.4759992578633536,3.3056309109869666
1.508,-3.7945607030858204,-13.280580061230609,-6.1987744298013325,-5.424444443893471,-4.351260715580915,0.45983681926098274,1.8910340470028029,3.1537697653863344
1.512,-3.261142305402757,-12.706505712140059,-6.7189195831142925,-4.668750604777905,-5.657302402304137,0.8620735963117143,3.8145063273265674,3.0875359374029134
1.516,-2.0170267765568006,-11.408280809907893,-5.981502871901893,-4.042059103747665,-6.350574193861641,1.8654580891654131,5.969023800924347,3.2389776350022945
1.52,-0.5515428271543783,-9.779698654067772,-4.508331889807146,-3.675693197653443,-6.715533351333275,3.3264156254554527,8.00423893888651,3.370758064286072
1.524,0.6359816875280906,-8.202919429325817,-3.1101502191968677,-3.604794803476995,-7.07484367226215,4.74116987094478,9.549329863951183,2.997004797095922
1.528,1.2604995148856766,-6.915685032871699,-2.483248814269198,-3.785097048293686,-7.572028915184493,5.475821592846479,10.298464430626817,1.6932720876937042
1.532,1.349923483744167,-5.912039260028713,-2.818774316412998,-4.110024058727468,-8.049827906012583,5.12743336468684,10.146828117049179,-0.5611464690690209
1.536,1.1799699340356993,-4.9424715229267475,-3.658335143830808,-4.436404821498034,-8.107502578103851,3.7802367774630667,9.291460653670548,-3.238235873527225
1.54,1.101512958401198,-3.6330346817552064,-4.076959026000218,-4.621644646516202,-7.316236045221518,2.010759312338547,8.232601161752749,-5.428994996109467
1.544,1.3521656776197641,-1.692470908480364,-3.134463240666885,-4.574000595426201,-5.479680955661868,0.6071714825876964,7.628218070475935,-6.2513704141586395
1.548,1.9489794606349897,0.8882664483582614,-0.3749880210357457,-4.294074476137939,-2.79385063194856,0.15756712151201357,8.035374210229316,-5.299552884886816
1.552,2.718269477545677,3.762023470892175,3.8859561918278125,-3.8772782272521193,0.1857339027628928,0.7413168140645272,9.64320298099388,-2.899848752662736
1.556,3.431928220527128,6.328173151339036,8.625453497413579,-3.4700415105370053,2.7564208081557906,1.8913362382730874,12.126829789333431,-0.023111041314907155
1.56,3.95835002258263,7.981609330614011,12.525808675358444,-3.1881802148587184,4.355759694527849,2.8649430510784804,14.729367617736818,2.1150713023737957
1.564,4.321909305316603,8.381925401282317,14.53080303097157,-3.0478779428243983,4.784585945596181,3.05462690373845,16.533297517872583,2.571979352218581
1.568,4.640536432545311,7.60161285904005,14.277647244481571,-2.959462221725244,4.2577343556658285,2.3152638329734554,16.805060665275217,1.0667235039853242
1.572,4.988018789215541,6.080157686292321,12.205061892909173,-2.7959716126330036,3.2670484257462684,1.024332843125433,15.278827351005999,-1.9289082718013821
1.576,5.28272478448077,4.413380059464871,9.285224500306166,-2.5060033749723827,2.322396170917747,-0.16609985360171375,12.246024043402706,-5.431425846177096
1.58,5.316228511138902,3.1024769837143555,6.554081866189019,-2.176893597084053,1.7019021239760326,-0.7211543610518367,8.429792310209795,-8.375004038718734
1.584,4.899396055371863,2.38453672526761,4.669636247332656,-1.9985330638915797,1.3374305283998422,-0.5364891607868127,4.706280855991467,-10.014735112174577
1.588,4.040139431643435,2.2147733861780976,3.7118371274373163,-2.128286462514158,0.8970935008461968,0.023176140866401518,1.7947729818297962,-10.12898371030661
1.592,3.0208772226665603,2.372663820883746,3.295242654535431,-2.5341534827796206,0.007434607785293146,0.3680436432252199,0.03972687074566128,-8.976608376382078
1.596,2.272141366590697,2.5842667081014787,2.869808508701751,-2.949835798173736,-1.5238393799878365,0.03435566631130049,-0.665433776413169,-7.10173795949806
1.6,2.112308948996702,2.60460140384575,2.0500044262549064,-2.9822355212880547,-3.584098480156883,-1.051206030850317,-0.7812169869478234,-5.121433480309635
1.604,2.4961216205027847,2.234920354584144,0.7916541340776604,-2.343674131663158,-5.792061192483907,-2.5499811979147835,-0.8942518211972846,-3.5847649484776207
1.608,2.9541722466029436,1.3263164928203484,-0.6420022291353598,-1.0689987624881963,-7.659894597155359,-3.936683024486591,-1.445987271627333,-2.910262276302925
1.612,2.8117181682590973,-0.1723821735310267,-1.858296545900385,0.43648007253342014,-8.79170399596259,-4.8071189499573395,-2.5160690416342097,-3.3560185219480902
1.616,1.5835466948121295,-2.1379620704912843,-2.551150126863471,1.5614957497616562,-9.030617515041785,-5.087513415481454,-3.7603768541432707,-4.970600702316531
1.62,-0.6743269511922603,-4.2221505710382345,-2.6198172013646577,1.7964798039195444,-8.499400859039238,-5.01981924416962,-4.549605515088231,-7.535889150053171
1.624,-3.2957230741193793,-5.911253741913053,-2.1699742498780545,1.0134234548093843,-7.530205108871043,-4.960856987555294,-4.278743164584633,-10.56461922990645
1.6280000000000001,-5.3046903982001625,-6.721867738343468,-1.4311018676478868,-0.4597757452224638,-6.523479322382603,-5.137394578205024,-2.709044482311614,-13.413692342664515
1.6320000000000001,-5.9314052950184175,-6.453244082342183,-0.6481526756475064,-2.0138476981333477,-5.795530267558183,-5.5126295640792655,-0.16904772366474985,-15.500522182186536
1.6360000000000001,-5.062423189185944,-5.354571376392904,-0.02387254858183452,-3.1034854635642377,-5.485085739032479,-5.860379900533669,2.5048949589285296,-16.54514085224586
1.6400000000000001,-3.3352912586461745,-4.05597494822303,0.2982997224534456,-3.5532180654814085,-5.542455526886504,-5.971029340799355,4.30633244689881,-16.692027854704776
1.6440000000000001,-1.8148329364898548,-3.2604252984007474,0.22274666671939913,-3.646202010813603,-5.789958276759799,-5.846451554511052,4.52353211923971,-16.413212293069257
1.6480000000000001,-1.4126359047645434,-3.341943642757102,-0.29587953279795287,-3.9259970751793416,-5.999573864159864,-5.731115065135404,3.1043760773663083,-16.215747769868244
1.6520000000000001,-2.379193863648504,-4.0804294616473396,-1.2216016214297831,-4.820327827961616,-5.960053192586972,-5.937381830273592,0.7115715857887106,-16.306590711687406
1.6560000000000001,-4.1895727290197975,-4.734337449266125,-2.434399513453875,-6.338924898230692,-5.541420752017819,-6.601224490001345,-1.6011926635830185,-16.439268931008257
1.6600000000000001,-5.865174879729006,-4.440795563522048,-3.7475883131929653,-8.01034232067575,-4.721837458078352,-7.520071616378843,-2.91671662527396,-16.049588390559894
1.6640000000000001,-6.544838885703182,-2.7430260849859995,-4.962740226689435,-9.107612714307859,-3.583498891369953,-8.209924308642316,-2.912454222946012,-14.628928138760411
1.668,-5.965708236647972,0.06395314143636832,-5.941074889687062,-9.038604640110188,-2.285896632086335,-8.172402556104457,-1.9952124733985102,-12.124859871655353
1.672,-4.553678612771074,3.000328449083838,-6.626579829335838,-7.65501049683259,-1.0101433357338914,-7.205622665613507,-1.0214008893527682,-9.104902410269348
1.676,-3.086964573721667,4.882811015252732,-7.010895775425982,-5.307046697412941,0.1095633500901178,-5.570254511393174,-0.7638966742350675,-6.549668809864425
1.68,-2.1595198014632295,4.967553973643016,-7.065610501844679,-2.623352770161522,1.0401483052453213,-3.8838151243063193,-1.4293471446157446,-5.357877800616045
1.684,-1.7960470334366625,3.3798575005541562,-6.708135591482414,-0.1742628952962768,1.842204610668071,-2.812637353532191,-2.529449870636485,-5.852885227910253
1.688,-1.4678377854636357,1.080009055932277,-5.841190784469497,1.7760208336373253,2.606339833897744,-2.7373524754334824,-3.1796815693093143,-7.582560460448123
1.692,-0.4925984415232252,-0.6276613991986393,-4.448146974341322,3.2982595649581468,3.3710167219935823,-3.5743770324975803,-2.6553758652962074,-9.540162101940254
1.696,1.4175282931276492,-0.7952424553779922,-2.6992721355424405,4.592003869214877,4.056231557157419,-4.884443505579062,-0.8859647767189497,-10.70695990702492
1.7,3.84622842413404,0.6752117028315698,-0.9682809063401101,5.724375748601979,4.466638737371085,-6.172568214846454,1.4294661264958493,-10.59216308953065
1.704,5.828407444274195,3.029249650468285,0.29014137698648157,6.5039509024149424,4.382086403714205,-7.1871843262251485,3.1750619050760154,-9.448395279194575
1.708,6.393366880739146,5.13522914427285,0.7661317247552968,6.587637613679179,3.7098093257999665,-8.024199775882032,3.445832742203347,-8.039307769401528
1.712,5.183439541410047,6.158863024511458,0.5173788290229145,5.778138309663952,2.6315749717993624,-8.9556711868591,2.100656403038629,-7.09359932243709
1.716,2.748388292164235,6.019611617934614,0.014130063771232937,4.292455124120799,1.6272536677311562,-10.121629363237352,-0.10681812343183084,-6.807157532846219
1.72,0.3070923660753362,5.352707720374481,-0.06527938655939769,2.78387007204064,1.305121059699716,-11.314377740866146,-1.9240517117964835,-6.730963385239013
1.724,-0.9226990471508136,4.997468740845203,0.771964350950558,2.0418549138429745,2.0698071803724334,-12.0629730378293,-2.3379939130373013,-6.150438320826278
1.728,-0.4632567373084018,5.321815476293316,2.4250903169339733,2.50985363352527,3.7750893075476526,-11.996048537602116,-1.272147277398377,-4.733206094973436
1.732,1.0573569309527766,5.815800816319404,4.0269198362205305,3.899928804273126,5.567900985010111,-11.243272094730692,0.15716698965434084,-3.025639137845647
1.736,2.1402095516604125,5.231302593400676,4.157487709468103,5.152947826354893,6.072206029634973,-10.59020866992174,-0.002056211379159123,-2.4384289443809246
1.74,1.1683126086857922,2.251377158207201,1.4337879023595672,4.851588440996334,3.91601690209254,-11.195641237422802,-3.6776763490550772,-4.624921895036524
1.744,-2.694736615509128,-3.661099592936236,-4.763412426848477,1.9258996893673581,-1.5996636043902948,-13.957063328476021,-11.793401999370227,-10.530650659322255
1.748,-8.956721112447672,-11.731226878749906,-13.778634554627459,-3.6988186675022163,-9.989119977912818,-18.855477819074977,-23.626777056476936,-19.623802749166458
1.752,-15.89464567615004,-19.97323103438203,-23.65958644294439,-10.85203450107882,-19.50353725193206,-24.66749156604439,-36.8042852079943,-29.759769634164947
1.756,-21.26601235560812,-25.93124614128552,-31.71370111243106,-17.438916947030606,-27.59744472669779,-29.296197916833204,-47.98585666818829,-37.833647891322975
1.76,-23.274512910551827,-27.713584768833627,-35.45400172832136,-21.21931562475915,-31.797850327834453,-30.625933241953035,-53.98387171138301,-40.95899569176443
1.764,-21.319747035391135,-24.80387265346293,-33.56139885975226,-20.708797915671312,-30.64515661437239,-27.5197748623008,-52.888624326877746,-37.64779545229232
1.768,-16.18512179659578,-18.258885507924525,-26.437892764477585,-15.791182854573275,-24.277633063898158,-20.440878879245453,-44.765131980281275,-28.4388545885285
1.772,-9.608607699580713,-10.204569692788217,-16.089530742541314,-7.761220373600149,-14.386594736045458,-11.344100583531208,-31.63746536274169,-15.682324292979178
1.776,-3.498508949331568,-2.9016459642511085,-5.390235747663175,1.20450498766788,-3.5604071610708523,-2.8762855958177935,-16.797101796018794,-2.595437048554105
1.78,0.8137051493393006,2.157490969592211,2.975094230986213,8.893359265611814,5.6917336442419675,2.7404307943471844,-3.690860875650331,7.956337371077939
1.784,2.9463804172804187,4.7025304585160255,7.440488308818312,13.827145361382133,11.795768574256934,4.57592164273272,5.1865845258952055,14.408651797846556
1.788,3.3512804462448864,5.513166761232736,7.977265930506414,15.642505007135142,14.496596091537146,3.201726780118425,8.977638765701563,16.80773445278917
1.792,2.865649488152231,5.796559140206472,5.87901634401414,14.987921738494302,14.664304959134444,0.21559901308550078,8.510317993541495,16.4491320392426
1.796,2.2051289933548497,6.470299309197099,3.036413227038045,13.036415574691173,13.67008779383428,-2.62922439859626,5.71702324983106,15.09226410689368
1.8,1.6708424113254525,7.72388250089003,1.0695053690365306,10.89986964639628,12.676638178276878,-4.211746483165371,2.7259840451543633,14.16405831762102
1.804,1.1761556308371546,9.048110175279813,0.7007703958589913,9.21494559777703,12.172331228157656,-4.38080598066726,1.012680338656193,14.271342687664335
1.808,0.496154971679748,9.656591096460602,1.6154251611858266,8.053826419755628,11.933492356722965,-3.7483959709275316,0.9596371405129855,15.164790973781601
1.812,-0.4716100723465093,9.011905010917157,2.807232512448792,7.126478948261848,11.364355320540838,-3.141950338111246,1.9638447859640487,16.066447148463283
1.816,-1.6003939345781113,7.165216732824739,3.1974727981508915,6.118135335718903,9.988917183266214,-3.0776198662836154,2.9749334063329314,16.150716017877052
1.82,-2.60635951382251,4.750567981386853,2.2217121605805863,4.962489382551976,7.815966855091784,-3.529565495731484,3.1637897956780607,14.941807292138352
1.824,-3.214179686143975,2.6645371830296636,0.10262536355176044,3.907387550819112,5.384832252296169,-4.087576592983405,2.369240628000413,12.478496064909987
1.828,-3.302117581241834,1.6210824273790845,-2.3003082533201833,3.3650928659415267,3.4940017342383554,-4.329977268354748,1.1156508085157433,9.245009782895211
1.832,-2.9309522059685786,1.827353099264044,-3.946371512202751,3.6559243871971843,2.7776541631236262,-4.140563747612598,0.2365356021147483,5.9493163735120635
1.836,-2.2596427665243626,2.9218768314734467,-4.144139948362733,4.78505437696416,3.361237897458377,-3.790373053191323,0.3272045453445357,3.2544557529761597
1.84,-1.4316536851296815,4.182490507378315,-2.8874092742319397,6.390158216816159,4.78094178998933,-3.7472150321491196,1.351067477593908,1.5768226350863035
1.844,-0.5233750604792955,4.867541917948289,-0.8497654444948024,7.877136944954621,6.181403106580284,-4.371774728145059,2.604384865563683,0.9756067385452463
1.848,0.4210537115446358,4.522520726702659,0.9499842059108055,8.687721984408197,6.700990407213715,-5.689851000040171,3.0645907537572015,1.1650686579691705
1.852,1.3200147781205889,3.1357301907565436,1.6492908751758,8.575536075906651,5.862082555356468,-7.361891195948402,1.9283748236846758,1.6481968905554192
1.856,2.0180996443224544,1.0972183938417293,0.9585538076633151,7.742776801515384,3.7736248981766733,-8.852351954001268,-0.9531706321388871,1.9124205905769505
1.86,2.339382969160837,-0.9920024828799178,-0.7043444540037909,6.755427586177104,1.0498446272780295,-9.685042986746982,-4.958234791717676,1.6124820121038987
1.864,2.2178329589329158,-2.5544878334670944,-2.423310611097687,6.26783832130163,-1.5101997512923433,-9.650660021852666,-8.962023224948533,0.6872503653221049
1.868,1.795433179416702,-3.2352505156228997,-3.2426943632002714,6.672110694833584,-3.321053524452802,-8.87539559672965,-11.837104894364494,-0.6389935346741229
1.872,1.4002109772302573,-3.0030179076373447,-2.6341350310987552,7.855484746931021,-4.276272958701918,-7.734166150695406,-12.917798892411229,-1.9665438180984207
1.8760000000000001,1.3794804641869896,-2.143284392222312,-0.7571076271041249,9.188961886178436,-4.744440234293575,-6.68152299045027,-12.232362239689548,-2.8996851111754314
1.8800000000000001,1.879899004136936,-1.1532004151524642,1.6273913939317244,9.780564784841085,-5.294442744717273,-6.078056281275822,-10.401461399843017,-3.2142191895726784
1.8840000000000001,2.720731956259798,-0.5650176485763883,3.541159832129214,8.891396908247906,-6.306411120671786,-6.0811956897139865,-8.293365352378892,-2.9486179104116834
1.8880000000000001,3.4473459040938033,-0.754196931799235,4.268742895677999,6.3136728579666785,-7.686245917197006,-6.626282388264036,-6.6425246328496215,-2.380479424857704
1.8920000000000001,3.564269258209957,-1.776625300744326,3.706858754372388,2.5318071700587286,-8.841693378733211,-7.472091227691132,-5.789095976260708,-1.9006796817077938
1.8960000000000001,2.8123110211527615,-3.313281456296231,2.3913373874795365,-1.4379685463454308,-8.96580389890448,-8.297698930613896,-5.654719335041241,-1.8573495529234498
1.9000000000000001,1.3321312443037083,-4.753379623780058,1.2140265130791628,-4.453598521740382,-7.481385813080398,-8.811640529792497,-5.907652338700663,-2.4320148181906873
1.9040000000000001,-0.39615983403500277,-5.407829561585162,0.9720591144916657,-5.716997720889031,-4.417942730427091,-8.84836687777641,-6.186659260011043,-3.6040289079411583
1.9080000000000001,-1.8213577318006102,-4.803137110801226,1.9725682714136754,-5.096753101988716,-0.519139138544413,-8.43286191905533,-6.2747783978365845,-5.209282138338416
1.9120000000000001,-2.620254951606369,-2.9185996463824586,3.9117568122857804,-3.128803694454824,3.0273156555197596,-7.76367740398574,-6.146769627263259,-7.031525729523837
1.9160000000000001,-2.8499743636731116,-0.2501100570046695,6.061926522277379,-0.7103039864341198,5.106457993325992,-7.116233999731318,-5.910764890157887,-8.872664637296072
1.92,-2.854539659264615,2.3568107130768263,7.65007161791097,1.3533792208200133,5.179844898058099,-6.705356990479433,-5.719752836195973,-10.578771370912996
1.924,-2.9894478802979316,4.048655752359155,8.205607503374958,2.698843071576752,3.506508887586329,-6.580064460199617,-5.7231587435838565,-12.027231528198636
1.928,-3.337945250280038,4.341310411111575,7.698867518252014,3.4866713812298165,0.9717371917584128,-6.603482809830532,-6.064913706852249,-13.104003930074235
1.932,-3.627319252737765,3.3491030522278913,6.4267760831589,4.1801955488635905,-1.3877745650346878,-6.5350054424522765,-6.887520384242302,-13.707110392793144
1.936,-3.414039668219618,1.7385960041173039,4.739723339352035,5.157700890912407,-2.906375904783161,-6.176799451692366,-8.307638498655129,-13.77938592514106
1.94,-2.4393066729630544,0.40276034332470667,2.801405561516717,6.3868507206592655,-3.5966733573376564,-5.494370473141828,-10.346528707594034,-13.368261142391813
1.944,-0.9176336563952292,0.014748680201931652,0.5403183362581148,7.362275406470681,-4.08095602304477,-4.6421611834649505,-12.823724049504102,-12.647209458469575
1.948,0.44145849699097806,0.6698018513661657,-2.1984240893091815,7.336789756065295,-5.2108666727315915,-3.885733269553937,-15.329007027056516,-11.894340643119447
1.952,0.7516385826679453,1.8191148302013058,-5.401082446357096,5.748535387046789,-7.571562009388915,-3.4324477011844046,-17.30418516752114,-11.389264687868398
1.956,-0.5655131357226169,2.533984646704379,-8.73173741815401,2.6018491045673535,-11.138761809935154,-3.286083255276614,-18.220975861976385,-11.281813159114572
1.96,-3.407675238224302,1.983516010420215,-11.5930241504042,-1.424125783378793,-15.255480030553345,-3.209315475516859,-17.805651746228985,-11.49219585342395
1.964,-6.942122712214166,-0.10510535789451492,-13.386293197126793,-5.211706885402592,-18.932747527335422,-2.8283445440350166,-16.190691998971314,-11.7132597314518
1.968,-9.966320189612432,-3.2582350275310716,-13.83504538903062,-7.6990132010208665,-21.305968519225946,-1.841043393738374,-13.924125960302778,-11.545692343437576
1.972,-11.490594905902483,-6.437077548648928,-13.148350292641204,-8.369351002712367,-21.996655108112762,-0.20123678471746542,-11.79181982474286,-10.69720952676363
1.976,-11.234325825175326,-8.519593375725076,-11.926290191054434,-7.485775254455609,-21.223747405938397,1.8077490511136225,-10.524964326873102,-9.154237725674442
1.98,-9.753456578734962,-8.840573295668072,-10.845411050657574,-5.938640741990156,-19.636821060951974,3.6709232041121,-10.514207331685563,-7.231497413826987
1.984,-8.122469860141099,-7.517290260622477,-10.30434964338749,-4.789750722351297,-17.994173987283904,4.866759605951808,-11.658523880354968,-5.459682757559345
1.988,-7.346060481225683,-5.393528810020947,-10.238978755630878,-4.744202041279768,-16.85574131965232,5.111264724598445,-13.403467227964661,-4.344368362334139
1.992,-7.822289251774536,-3.6315506443788506,-10.208369996262274,-5.813782086568426,-16.427613016863447,4.508540939705153,-14.940972502387911,-4.119632750088284
1.996,-9.150660691177523,-3.154644382265035,-9.709284931278127,-7.350343657544351,-16.59713682739588,3.5146311048070156,-15.493024396487911,-4.62550246114202
2.0,-10.370468282040038,-4.206380414492844,-8.523806131216244,-8.418388942085944,-17.09045559278855,2.734673200980754,-14.589873213775705,-5.383242093695218
2.004,-10.49684140012467,-6.252277184899555,-6.889042708095289,-8.31397303227057,-17.661400547582716,2.634410389424283,-12.212712736751591,-5.847906444203678
2.008,-9.062209759812879,-8.26241289199254,-5.386745573580293,-6.947295613286256,-18.205492587903365,3.310894356358664,-8.790141084564103,-5.709825057020987
2.012,-6.360202089170922,-9.212445574577506,-4.606066402252798,-4.877237909461856,-18.751214282602106,4.452722277634484,-5.046773946663028,-5.072674290172111
2.016,-3.2994069737769047,-8.57268484267419,-4.7957850252766985,-3.0127460425200536,-19.378429695463588,5.495218367292763,-1.7662561530232797,-4.40841523132366
2.02,-0.9485500518533323,-6.5407248746307705,-5.697143943289104,-2.1373308095219175,-20.115335961418747,5.915624201937244,0.4569551600617814,-4.296413400031966
2.024,-0.026750604105765685,-3.924498953664415,-6.66479240012478,-2.527914123987382,-20.89165987512485,5.503066785298978,1.3990301751802683,-5.087830510386944
2.028,-0.6076064019865395,-1.7484662766121453,-7.009740366741061,-3.86543394102873,-21.5602149325091,4.45484112156827,1.260630282170112,-6.666095697686092
2.032,-2.1395405839886092,-0.755678032074711,-6.3483616047845075,-5.449625181427587,-21.94453546955255,3.2736000182880476,0.5903344819184877,-8.423849795251883
2.036,-3.7460206157142304,-1.0567828967757782,-4.783049265089042,-6.586914629455463,-21.8914326579808,2.504182617997206,0.07953450241224047,-9.49218893853904
2.04,-4.629157969025719,-2.0947013258166165,-2.827622678364982,-6.917940283357089,-21.313104892351564,2.4517167597930625,0.2922766281852045,-9.118647504022116
2.044,-4.375533468565061,-2.9355480480106158,-1.1346078835815323,-6.515305031551027,-20.208972100678007,3.0389360939885353,1.4376056659789462,-7.008338066922438
2.048,-3.0590509656710583,-2.757349184181481,-0.195933212420506,-5.740651366658209,-18.672931030182504,3.877363760678752,3.271217147070505,-3.478443464637813
2.052,-1.1334489753496495,-1.293054428102625,-0.16079953325817442,-4.964994304977198,-16.878421719736178,4.512293808519254,5.207238656330137,0.6646488610806394
2.056,0.7910750782009099,0.9886544590491084,-0.8515169107363061,-4.3415472453921975,-15.03751282513057,4.6949661909236,6.590751040288341,4.458677935208929
2.06,2.1815530131135334,3.080005344971031,-1.900366606952744,-3.7594276393788757,-13.328632035610633,4.53355371035517,7.033269222734869,7.187941084566864
2.064,2.7451146590108095,3.9297935083131605,-2.9094578680115077,-2.9885811774743303,-11.825116296419681,4.426957920203435,6.653584726147521,8.657578508204171
2.068,2.492753366001044,3.009523267379583,-3.551840472657794,-1.8910287626556723,-10.447792726886913,4.823507439988951,6.078186020586616,9.225575594702892
2.072,1.7162891461101184,0.6784078321058065,-3.5744452165935634,-0.5253962661343117,-8.970499414930698,5.9565834356357925,6.196610067965391,9.597026055115787
2.076,0.8831104433285515,-1.89053955156988,-2.7908589678139464,0.9132514932521997,-7.111205272643092,7.702314226347716,7.743393254495705,10.474482153750522
2.08,0.4802968272692474,-3.2267409912033456,-1.1153146244972234,2.278332629612537,-4.676658834798156,9.650822649545283,10.912093634049889,12.221872879046451
2.084,0.8322937518884492,-2.297522574342483,1.3523446235621694,3.6193240072934962,-1.7065370096817247,11.317370215376968,15.192764994848599,14.679985817719686
2.088,1.9493469990084789,0.9048480526689509,4.239654917523574,5.160740681966783,1.4667753774260344,12.364506964258503,19.52418283322516,17.224017253281783
2.092,3.4848757330709734,5.25168886305768,6.930579607524779,7.106834795523473,4.30449874706035,12.712595622340867,22.71587434824033,19.030590337134374
2.096,4.838169884720384,8.938607455056076,8.746331150825942,9.386282836959149,6.268121813069412,12.4820707871612,23.933898603751402,19.438906257236038
2.1,5.394955168933337,10.332139033915817,9.21771791449038,11.52402129385693,7.049334987436089,11.843094636282224,23.021738902754063,18.241880428833632
2.104,4.806458506604272,8.77757352601836,8.308711162247507,12.76151365794307,6.7016062019045535,10.87568937878896,20.522632363672468,15.772662126081647
2.108,3.1664446354741003,4.931125180575573,6.441587505613418,12.401318523822995,5.594734052214971,9.546287090190905,17.38569205387101,12.75404264304869
2.112,0.9764664520437112,0.4352735860085115,4.289049414207357,10.205102094964852,4.211028885109219,7.819511423296024,14.529651609291829,9.987366579567244
2.116,-1.1073346721521613,-2.9116017139393495,2.4181411586806973,6.596825089283225,2.8914469497811304,5.801612793491329,12.477519591838465,8.027138056815827
2.12,-2.618266572245109,-4.047504711376699,0.9927353504728895,2.5247317430432012,1.6832268633594936,3.8002229298755426,11.225271140422107,6.9947026677838124
2.124,-3.5150576878877606,-3.1101432014798487,-0.27990909281093224,-0.9687865721722633,0.38568026835715585,2.2355503679324196,10.383710921652687,6.624647113184418
2.128,-4.180740811132232,-1.2385630192087618,-1.9251797675403637,-3.2542806682601,-1.2364478605696991,1.4350495772399472,9.471501386504332,6.4957068651939665
2.132,-5.144342639231352,0.17956991788844023,-4.297101886067061,-4.398775697493836,-3.1958671888580845,1.452525715775617,8.207226952902529,6.311151800248457
2.136,-6.6773826719747715,0.36948430530902776,-7.244441724940264,-5.042576793471367,-5.150836833590345,2.02653449055443,6.652210022550108,6.076684933741076
2.14,-8.521961965926051,-0.3761564355630189,-10.057988043599828,-5.93913550566388,-6.514696533781382,2.716675829962165,5.146793795571399,6.071172019310174
2.144,-9.919425115453773,-0.8967575548526623,-11.758113623008356,-7.423073320844788,-6.769714091717002,3.1368830423960947,4.11514340940975,6.640213703263177
2.148,-9.967070562676517,0.0989733797122766,-11.598354417781934,-9.129651264507299,-5.8078380311360736,3.1475756278079325,3.862794782990894,7.93702235781796
2.152,-8.131529971332839,3.1938597672210527,-9.502446437553491,-10.14998514166144,-4.080166988569255,2.8975441207278374,4.464330864330979,9.771536551599354
2.156,-4.642058140430881,7.811544466322983,-6.195136614311457,-9.562606154990727,-2.437957202174872,2.6799569601755246,5.75550323295063,11.663319345375804
2.16,-0.5012448764080499,12.441399922305965,-2.9150761823337277,-7.028441014291557,-1.7096703726406526,2.719601865322385,7.431583216054153,13.073947840314501
2.164,2.9187699950262385,15.401969752261843,-0.8592701253373143,-3.117603946299429,-2.258452115206741,3.0163140724221367,9.159547544902686,13.670592095514186
2.168,4.511844161569993,15.710790716583848,-0.6313966132193567,0.8553231815841098,-3.7602631501349757,3.3434463601767392,10.650156144716032,13.466714012961365
2.172,3.983711673515253,13.58109187084099,-1.9589190976847934,3.438267010694159,-5.342517949493635,3.412571297074156,11.703541305713593,12.764273558242117
2.176,2.002751174982565,10.266446554299169,-3.8434430977668086,3.7482166006384965,-6.040546446369229,3.0800436740323764,12.226196824370328,11.931965541720302
2.18,-0.14005677837937125,7.362843330060594,-5.048852102621155,1.8942474478715379,-5.317990128030729,2.4704517527118384,12.236154341463918,11.156333875618232
2.184,-1.1849503449776677,5.979824865485465,-4.684680805218926,-1.1064447539910192,-3.3694394688466125,1.9282637312386712,11.86096375869058,10.329023466587357
2.188,-0.5372871021312,6.228162074912826,-2.6089280758955935,-3.875621186903472,-1.0301159974912735,1.8242070513435364,11.296832240336562,9.144142343528532
2.192,1.4626007110419457,7.284489748219269,0.5515313061897351,-5.364199158461755,0.6749595162148587,2.35161693441856,10.746350791593876,7.346784908731614
2.196,3.7617350467666606,7.949405468207727,3.731746014509086,-5.313294691209052,1.0874077917980252,3.4179112872371893,10.340301512433541,4.9811989111030694
2.2,5.1769534957332315,7.352980592932927,5.934657175330221,-4.247712468206023,0.27375537352145507,4.705170283160655,10.088707893531241,2.4752350716767175
2.204,5.022445563119811,5.415046596191272,6.658229224947162,-3.049122951149437,-1.0106067818632951,5.845277180199433,9.899797717354877,0.49482361922910734
2.208,3.430871809676429,2.8285989713216066,6.028015803500221,-2.398995327088688,-1.736344051851722,6.587760629384032,9.640451042765532,-0.3740083608954414
2.212,1.218150374627312,0.6400390989919047,4.631371891954294,-2.4206923824473687,-1.1484728333861671,6.883063796570297,9.228709307546339,0.07682800804079193
2.216,-0.6150552955414927,-0.3242571610002778,3.1471077112006833,-2.733195301451328,0.8358747920339482,6.8276013012633054,8.679433609032902,1.548311646490789
2.22,-1.4457741761513019,0.1477811701109779,1.9968549515571956,-2.8309715949885055,3.5981933489622895,6.539104507343184,8.085472056780658,3.3683820934814697
2.224,-1.3201851854111766,1.6271529536437788,1.1986253554860866,-2.50845608377323,6.149516636114754,6.064306008167039,7.551862823955936,4.822366096223092
2.228,-0.8348467969558437,3.3494193110347386,0.46723138639741,-2.0435331403383006,7.628043492199188,5.383160196449024,7.125279360377728,5.494142816429775
2.232,-0.6945761216541073,4.652713559804986,-0.503256728601472,-2.007606134896695,7.707304699798423,4.508686741434897,6.795953160294785,5.452343037425798
2.236,-1.2380779889480928,5.282881220769,-1.780450221973826,-2.8486262632436574,6.704356985772546,3.5809266046553625,6.55433337722652,5.180441036743415
2.24,-2.2073351456548225,5.437193218420889,-3.0866284504781127,-4.520004239775237,5.378117586934454,2.890974052269689,6.47714250164711,5.299258614647579
2.244,-2.8910853571034014,5.557958969978523,-3.9120587981347636,-6.423042100898372,4.543219431317127,2.774723184697527,6.76942138673693,6.218198925486239
2.248,-2.5482646074525652,6.029378419742182,-3.7855215370649624,-7.724286846754894,4.71789170566853,3.4270489774332353,7.714739028140299,7.921537812352506
2.2520000000000002,-0.8386951760447715,6.964891401785458,-2.5296200061146976,-7.846981905497083,5.965497658206546,4.754439576526718,9.536694996892244,9.981116690843901
2.2560000000000002,1.9762038473318797,8.18228590129858,-0.37252429460393444,-6.8261235753510405,7.971706571972334,6.355843712511449,12.245362870351137,11.785792124587967
2.2600000000000002,5.176125448125114,9.361287665601564,2.1562965718551865,-5.292104189693717,10.273504887987304,7.672407163751004,15.555385628911848,12.860476421199198
2.2640000000000002,7.982195050004157,10.271851798206479,4.4893432375384315,-4.079146688367959,12.493916955298845,8.23899756718593,18.94895840686979,13.104447714344568
2.2680000000000002,9.946146068689083,10.909160825878953,6.267686506770987,-3.7117132891155658,14.454682688776288,7.892582518820355,21.83635537644173,12.813453605462486
2.2720000000000002,11.108702143418258,11.471019549141872,7.457481616083487,-4.078961167146696,16.15061706433183,6.836189325470489,23.751743206717116,12.494594302706531
2.2760000000000002,11.839476166821667,12.187072540452832,8.255713808342687,-4.518370090735315,17.629870055393976,5.512383061296337,24.483719042849128,12.575894194316392
2.2800000000000002,12.499805884465188,13.118632110347622,8.879099033253814,-4.24060393594438,18.884945509265087,4.374368130412828,24.10114660412584,13.178795807732484
2.2840000000000003,13.137432480618468,14.039606212783625,9.357661764862268,-2.8420406326683345,19.801654494171757,3.6704219307328607,22.86554341571278,14.067906755500406
2.2880000000000003,13.41919599060121,14.49294918713258,9.470989041180244,-0.57192906846391,20.190658188361724,3.3618779167564905,21.0945905915571,14.802584594938736
2.2920000000000003,12.85656829699175,14.007226295410739,8.888018591749924,1.8164685776969103,19.87420334723826,3.213486457091263,19.0605670484288,14.996397095018377
2.2960000000000003,11.159931603769314,12.356787084622292,7.407282214233005,3.512801141462607,18.77626155486246,2.9705001930464014,16.952366972312454,14.544443616282605
2.3000000000000003,8.511939213335028,9.73223436033893,5.15954086125776,4.122213618771282,16.987327320608856,2.5273455412540806,14.891698214933644,13.689350167061493
2.3040000000000003,5.578519660205117,6.712773693001342,2.6364298030599276,3.8579077699337914,14.772934956088621,1.9805978789568222,12.977273331074516,12.888371503051008
2.308,3.235814914552971,4.053115019810395,0.5000624237471181,3.3418995271539984,12.532105289002324,1.5465644182319953,11.316766235486204,12.565992425051636
2.312,2.174515300359385,2.4020913837659124,-0.7090105262684216,3.174786607846467,10.720295328431911,1.4234704330067007,10.0447562676571,12.893096307069593
2.316,2.587818192614078,2.071881284237983,-0.8254828532940879,3.5486371778455283,9.72991325587722,1.6680457592692262,9.310659112504919,13.703080484785474
2.32,4.118126536673859,2.9655647428103027,-0.12867454320348592,4.159487606433769,9.759498696832408,2.168129070149666,9.243301708604685,14.580755631990751
2.324,6.083945334099576,4.684018566009894,0.8122614031100275,4.463424906973145,10.716590124890022,2.713654838321768,9.902200812658222,15.05625050925113
2.328,7.823654034288809,6.716006110379033,1.410496041533829,4.075302729881021,12.188038993678045,3.0950498188570448,11.19769761222663,14.779357509429978
2.332,8.976048516947142,8.61143193918721,1.323597640383106,3.045370320380683,13.53394716913039,3.1714819400239156,12.837078626932772,13.600223712277613
2.336,9.538357195172358,10.052646588762556,0.5590617126796626,1.815350613642078,14.097279608724186,2.866889757211143,14.341102499795571,11.538769362899806
2.34,9.716124992474736,10.835525653050688,-0.5974619776237962,0.9080525812452933,13.47123515838367,2.136569420475709,15.163051040699846,8.716067844831201
2.344,9.696819900391947,10.827403661943425,-1.7567068307589278,0.57351057290259,11.711406805553374,0.9584244683086585,14.904861573419003,5.326800906899912
2.348,9.5084168652949,9.961215113102456,-2.602867805826735,0.6492219365873781,9.3836805543997,-0.6170757933361255,13.53359873928494,1.67168298356507
2.352,9.050324612238672,8.284735445924893,-2.977286752150434,0.7335190783944365,7.3912140415668235,-2.389561208427655,11.4747769328413,-1.8020927190721299
2.356,8.264823466960411,6.017438751488388,-2.861235508526035,0.5445772802648592,6.630302919044226,-3.9877923258382317,9.491473792337095,-4.536706738800647
2.36,7.315761229949206,3.545331726493326,-2.308135948645914,0.21110259969614864,7.609678969258102,-4.961805978743819,8.357468453804188,-6.0267119195740815
2.364,6.6327661046256745,1.319744922156995,-1.3904286258787923,0.2688059664541149,10.206507900657275,-4.975148538383659,8.47047953410155,-6.056626032798869
2.368,6.7520732107259205,-0.29748630791563624,-0.19298550448038476,1.3318345197793882,13.689620362405769,-4.013953956950896,9.61089228328282,-4.875204308911469
2.372,8.052187138565557,-1.1299063965965654,1.1909253554639356,3.664791380433062,17.034877168691438,-2.4587244270214867,11.031550119746845,-3.1562288202124194
2.376,10.512139695699172,-1.1726650375102619,2.6696154549790734,6.920632713624775,19.384592356502882,-0.9614668489684002,11.844443286848344,-1.7169033618897735
2.38,13.656142094143142,-0.4612777140839839,4.199546385773173,10.248398653784273,20.438790285460193,-0.14264280291844766,11.516900145915375,-1.1074544162902455
2.384,16.719581005209704,1.0632879547696934,5.824986733192938,12.715718146709758,20.56313021156278,-0.2794648197111691,10.187974610577538,-1.306770690493524
2.388,18.940061182070476,3.554367399110472,7.640927977291609,13.778711360782122,20.543297725079192,-1.1724195919394678,8.591350494508054,-1.727928656279217
2.392,19.850527497787702,7.089529345162537,9.68641609155246,13.51575647964229,21.102277537875008,-2.266160238563587,7.605020851160624,-1.5726832082753104
2.396,19.43341582511323,11.422481749013425,11.823643599659333,12.500779848188724,22.4420439254535,-2.9678478568411615,7.692474995856832,-0.3421157234619223
2.4,18.074809224200315,15.839615244927252,13.70038252183726,11.415424154641219,24.077761937606688,-2.9767257702353573,8.589982255952842,1.793142819601085
2.404,16.37738228549947,19.292400626506918,14.871178896428205,10.661851787998788,25.0856216934749,-2.422710755179626,9.457259647789055,4.020711163892733
2.408,14.943196809919458,20.815636144743237,15.04687506220749,10.239232752285332,24.655236487356753,-1.7309539930165325,9.419063376127863,5.32180483004639
2.412,14.208673907277351,20.037346246834325,14.336976900522782,9.929079926086587,22.638851918038007,-1.2997557459050473,8.172925465422288,5.072916853418507
2.416,14.332921914859554,17.46243782377605,13.283182002174122,9.581867949794717,19.75126728009303,-1.2353614795336068,6.237998924063342,3.4300483475789716
2.42,15.138471857387838,14.29538282225814,12.59444384200876,9.259476934390406,17.246529046646113,-1.3290432325303119,4.630760877256337,1.2227815182773605
2.424,16.091927030022802,11.827055644874719,12.672756370895348,9.082565710097459,16.191508126978157,-1.3161146073315662,4.108222960010059,-0.6222064363192441
2.428,16.354927764199115,10.690210803569656,13.191443261858286,8.877310860071193,16.72256153829046,-1.247293488256811,4.424016237705422,-1.7933486546094968
2.432,14.969284769546887,10.42656786170784,13.044703967502466,7.93535526700284,17.751068987869246,-1.677922157899224,4.133081229023802,-2.9743575192204497
2.436,11.176992522592265,9.667344593432754,10.781803174158465,5.1576936457763205,17.363083051582237,-3.4991821358243085,1.17190142905,-5.59384603163531
2.44,4.807112705132436,6.907462563532745,5.392237153074793,-0.36739562591151925,13.784630589498931,-7.425097511450313,-5.9922676019695125,-10.99959121696353
2.444,-3.4267140705052457,1.497166033338039,-2.946027839350095,-8.623197507256897,6.449315474802386,-13.406484695192276,-17.235387802939407,-19.48568270397592
2.448,-11.93224041407074,-5.719921937891267,-12.60212741183387,-18.231826213161455,-3.4241546135391507,-20.34663781378908,-30.351260638896818,-29.750338063754164
2.452,-18.624665394053544,-12.51621678773046,-20.92090106002832,-26.67403680221212,-13.105582410015703,-26.331726308320548,-41.64783542722198,-39.14706423645585
2.456,-21.620685508810375,-16.16538941330854,-25.235258437482898,-31.192938980728584,-19.415672447674343,-29.346780024959436,-47.386750326049345,-44.6877593387118
2.46,-19.976772830133015,-14.683950157652998,-23.988779946629922,-29.986529003425144,-20.08415760419819,-28.13630746832947,-45.38750731706196,-44.32268455309894
2.464,-14.129094978114047,-7.801174630505531,-17.41818535113316,-23.079600239020525,-14.733706323939533,-22.774835871344656,-36.01230218608403,-37.84872760577572
2.468,-5.798852065134421,2.838527897011681,-7.4581522200537425,-12.397961027718303,-4.998084689740784,-14.65179691585354,-22.03693859268257,-26.9859446719396
2.472,2.6298405559727875,14.348178897365363,3.0915226963056686,-0.9752566206129547,6.264095509757022,-5.86909782220103,-7.461025460688198,-14.594371659299398
2.476,9.00444439138613,23.80724527467818,11.707977490434011,8.310058591537647,16.232272168985528,1.6199965886962895,4.131898067994456,-3.4567098966851275
2.48,12.172924160105024,29.400915626405457,17.042331705882024,13.833554233811636,23.21348742868345,6.6975998663846115,10.89184843873003,4.7475345666392785
2.484,12.29988336148641,30.958613257244835,19.17318744387245,15.638496396095366,27.03365282115466,9.279047555887463,13.107302550728326,9.801505475257978
2.488,10.602555280853768,29.69185592701123,19.1671293103358,15.020575036965548,28.613358777797902,9.99768424120985,12.605208672168757,12.553187722770296
2.492,8.674010761092305,27.358582430776796,18.279609804430155,13.602376970764954,29.073589697661706,9.637878796934507,11.577139786768235,14.091953624548214
2.496,7.729228764079796,25.33559576683971,17.257969218405186,12.44446377905341,28.93378091355209,8.660614461401288,11.467521222701734,15.02270078651629
2.5,8.129209886710635,24.079179936506364,16.106376283162216,11.668030662505057,27.870094949225297,7.091476627379379,12.46192535628079,15.235323543621156
2.504,9.372801593462516,23.1829405193505,14.374202630060228,10.70744321422741,25.12441640135787,4.771413876028501,13.728946501671398,14.230349717930594
2.508,10.485009318758268,21.888061969506182,11.69568376907432,8.925488017337951,20.255319750492788,1.735503031285474,14.154894192946053,11.704085757099653
2.512,10.572618832923155,19.693378943445914,8.224943842300085,6.165229628005871,13.735446341306535,-1.5555197872672695,13.107342256371389,7.974476608413969
2.516,9.261937889599128,16.712090729138986,4.687335255406728,2.8982452246231127,7.0007499010129735,-4.31370422400693,10.803881692595265,3.9612732015937366
2.52,6.839475126642192,13.614825539838753,2.052487160599732,-0.05907233934877132,1.9041576639292135,-5.787513335978737,8.14873007786804,0.7485392388834162
2.524,4.0717225629093665,11.235727553403375,1.0325904915715753,-2.0331755395736026,-0.136081102390472,-5.664462519137524,6.200378923007317,-0.9875679575083633
2.528,1.8261809638578606,10.097644378475906,1.7073435783880366,-2.847839242532115,1.1814509820381556,-4.266294593778355,5.601603598386742,-1.3191486296283694
2.532,0.7125257623101304,10.143773925707348,3.4947764812504865,-2.81849736178458,4.895766862285221,-2.4008780591074212,6.278274259597081,-0.9552515995717643
2.536,0.8806515690772889,10.789736656937556,5.451276797519752,-2.438155294531682,9.23916114767126,-0.9729729963826115,7.525409772638384,-0.7633838895983522
2.54,2.0233987252143195,11.23667565234572,6.72453408812253,-1.997301454730803,12.445817064694184,-0.573229026894182,8.391459776473207,-1.232778374733508
2.544,3.552840481339335,10.86233237943474,6.912072983241401,-1.4098764760708091,13.493277099135701,-1.268387353808253,8.134960152283025,-2.2091071361675207
2.548,4.844342077071491,9.485052183376252,6.158285570062969,-0.36373358591308147,12.435926746070303,-2.6881839320040415,6.533255774071511,-3.0535459967283898
2.552,5.4560570258759435,7.391576824693411,4.995331194414035,1.3303742800504663,10.21776807022061,-4.315615251488458,3.9369624465842943,-3.1065086477524932
2.556,5.246643995292795,5.1442448805385865,4.037092760327932,3.443441189013961,8.111973026911526,-5.791171432705991,1.080332015751376,-2.1492578337851134
2.56,4.379062257370899,3.3053328629429775,3.707445220516819,5.317631393313588,7.103078610539527,-7.030284365803553,-1.2264261055768677,-0.5707481571314679
2.564,3.2292574017718665,2.2132801838197445,4.106524085264632,6.172047734540444,7.494408863068201,-8.121252358650732,-2.3951630801727775,0.8538195382602751
2.568,2.2316119337660973,1.8900193176842697,5.02548361041428,5.550128888881565,8.882198408246538,-9.11505468382595,-2.257704293693385,1.4251196737739091
2.572,1.7250083444645279,2.0902640022921997,6.074314917408147,3.639285107693647,10.442725290204113,-9.8618357157913,-1.0977300565300445,0.9311331133959886
2.576,1.8395080642069574,2.4188438977792766,6.827284705107507,1.2422387033079136,11.34139222320748,-10.044148747221419,0.4634190069381061,-0.25846766274031374
2.58,2.4602185178888423,2.453845930240224,6.949662696734868,-0.5898397441701295,11.07312866131619,-9.387368784338411,1.689878097776882,-1.4544099028677193
2.584,3.2777672143648307,1.830287201404234,6.287460380920319,-1.0771264457432856,9.59908920586316,-7.909830202975092,1.9859995662975063,-2.0947699713557135
2.588,3.902163284139914,0.29759309965941094,4.913113749413676,-0.11494692776802218,7.272906963963893,-6.043470321318129,1.095261836420451,-2.0888439682004725
2.592,4.00239654641601,-2.210170109676559,3.129738437068813,1.662151079920224,4.6409599515984405,-4.5024087437467415,-0.8097429482779335,-1.8391355917647196
2.596,3.411920519190651,-5.509621387786009,1.3908934321850506,3.1779241464571286,2.2181612837560376,-3.9535462381884954,-3.1999758309515576,-1.944757996640596
2.6,2.168045408392172,-9.133496406176988,0.15547291228603122,3.4192246073485575,0.3428773164145813,-4.65674853953057,-5.3966957236155935,-2.7837630118026375
2.604,0.481267767502056,-12.378774774862105,-0.2821858254115419,1.8894176171611843,-0.8599014314867066,-6.2906863184310895,-6.824610720357295,-4.249772584900631
2.608,-1.3592199060415466,-14.484913616603473,0.06959397427321079,-1.2095540604491735,-1.4310515786654125,-8.08550649639005,-7.219099871078363,-5.817865182181084
2.612,-3.086921625865675,-14.891573171555695,0.8951655553394691,-5.109223943762268,-1.482914238114466,-9.199053038054526,-6.684300420032239,-6.8875021069938835
2.616,-4.5234862674086775,-13.475446420546216,1.7067035187213246,-8.829028488492646,-1.1247497215651867,-9.14919942094687,-5.599226806387655,-7.180815374219071
2.62,-5.594670380124801,-10.641857811203185,2.0697136068055864,-11.564270675949938,-0.4457160996040961,-8.060202273264322,-4.423919429331623,-6.932097974916618
2.624,-6.308674459773496,-7.197706883374625,1.8063652507231083,-12.940996038875657,0.4461740153680962,-6.585119227557435,-3.512032990889888,-6.747949162169217
2.628,-6.715422077317957,-4.035680071928857,1.0605190791506454,-13.046083718248656,1.3661943323788925,-5.5417503743610315,-3.0237289529701945,-7.218087077856643
2.632,-6.867238903752577,-1.773814302052946,0.1961841167523648,-12.263846353281828,2.031060817649788,-5.45232361005123,-2.9492099205302633,-8.525692082322093
2.636,-6.811928148839328,-0.5472452470111104,-0.439601638670041,-11.053777489972667,2.0922176516663598,-6.250491719516994,-3.2125035424312376,-10.31630885970516
2.64,-6.599299429539616,-0.05309770907839528,-0.7467461961816166,-9.775463236924653,1.2375575983162062,-7.312622431226467,-3.76250198280115,-11.908012379223887
2.644,-6.296530702931755,0.18005293785915466,-0.9457741873898797,-8.635459174732578,-0.6826800452737913,-7.807159984161565,-4.586028849857136,-12.71230518631992
2.648,-5.995220641264746,0.45706267046409277,-1.4592076411861106,-7.743149629808758,-3.5628658050656714,-7.168233732988956,-5.646356831809777,-12.601239883560217
2.652,-5.788437248073227,0.7283197414355858,-2.6519764752699766,-7.197499371650573,-7.034457280242146,-5.420180479856485,-6.804199625940458,-11.992061662304739
2.656,-5.730485941723199,0.6624907809933598,-4.587896840677531,-7.130508626960138,-10.564833361939096,-3.188895013314038,-7.813401827947562,-11.595269336206304
2.66,-5.8059250648643825,-0.06323319749552425,-6.943850927116551,-7.668799990219338,-13.620918991819035,-1.3843356882843811,-8.421379454248747,-11.980634801829064
2.664,-5.931846717130772,-1.4572772582732005,-9.14618862835912,-8.842220360633178,-15.835595598566028,-0.7353800665964298,-8.538206735511489,-13.235047717563212
2.668,-6.0036315980441675,-3.1064607818370695,-10.664811130278611,-10.503515598205393,-17.109481461075912,-1.4402566059384836,-8.371739162147232,-14.923951671802927
2.672,-5.97275057693501,-4.359747576874941,-11.294373614695772,-12.318908779241875,-17.60545089513491,-3.104693203798887,-8.410770084261044,-16.374094916999084
2.676,-5.920588984334012,-4.714247685980093,-11.273573266992603,-13.874851945937305,-17.652950833562564,-4.996047518858649,-9.232830964476586,-17.107629503315593
2.68,-6.063312088585803,-4.15725539961115,-11.152228173644534,-14.84489569105729,-17.59854532713305,-6.446764365957087,-11.198792941050408,-17.137593853085868
2.684,-6.6647255341363145,-3.2348193047375755,-11.474970216391561,-15.139674153253484,-17.668095006421673,-7.16730094807505,-14.193625226854081,-16.95213008215869
2.688,-7.880851301304519,-2.772406126719975,-12.458069288666103,-14.952463890761367,-17.892323961212675,-7.300842743411472,-17.57191884798028,-17.1912463232824
2.692,-9.60173960822289,-3.389213077669632,-13.825574599471597,-14.657001566028868,-18.120864082772176,-7.2055921363255315,-20.367214266695193,-18.21281248977836
2.696,-11.39586598432768,-5.109063202093546,-14.916330721650565,-14.60498703186088,-18.10844961163587,-7.135521513613485,-21.69920240164856,-19.812547073200783
2.7,-12.622768454541767,-7.313694170722302,-15.005595595847739,-14.90943252422625,-17.636869492288444,-7.023825396563965,-21.17617080870781,-21.265879215065258
2.704,-12.683137545585287,-9.075571402793392,-13.666327905302222,-15.326044431725999,-16.617015352163577,-6.5064242266867796,-19.093884888594868,-21.669311797563054
2.708,-11.307190834570383,-9.687816574142808,-11.002545688381026,-15.317584694567888,-15.134003300894971,-5.173860779137028,-16.323651695250916,-20.388906969184383
2.712,-8.728789424640523,-9.058158809855428,-7.624845739069893,-14.277916848612971,-13.417254470257795,-2.8768513564584186,-13.915313107615063,-17.370574585205414
2.716,-5.629335573345314,-7.722525895223566,-4.395727985648855,-11.829154343698827,-11.75103453047505,0.10468407611444674,-12.625684238562513,-13.159245210154847
2.72,-2.852113522440833,-6.461212992059534,-2.0712528830643837,-8.048988153897676,-10.353551522765693,3.154203547187615,-12.594046177374361,-8.63407473733117
2.724,-1.0071069789056293,-5.76355895432621,-1.0102405196863522,-3.5069180564222293,-9.283872997118234,5.622076623401229,-13.314903081187982,-4.618041537030639
2.728,-0.18999439356389036,-5.5055063206828825,-1.0878432596764807,0.9084060317535632,-8.423594755092854,7.147758593790925,-13.928841835770532,-1.5737542823054147
2.732,0.036251500583268204,-5.043039646247691,-1.8167580192610853,4.317636443526665,-7.544432201784861,7.823595807127136,-13.666370941352262,0.4826637495283368
2.736,0.35150133879348977,-3.687564377982781,-2.6127339627712827,6.170270871230852,-6.446081544752158,8.082638126397569,-12.229839046860729,1.8445030698630225
2.74,1.224080629249263,-1.2543892754569774,-3.0546702247791293,6.416441728494531,-5.083492738717668,8.3885264582848,-9.926022456527928,2.877417060932241
2.744,2.5496667935299406,1.6818387577635128,-3.029418668962454,5.461522125120287,-3.621876077499379,8.922494675235818,-7.5030317130150435,3.8245463443471683
2.748,3.5968775250137544,3.9991619556301377,-2.726697500786838,3.919960418588886,-2.3871486258142283,9.454573172167011,-5.794027544809169,4.73892183484347
2.7520000000000002,3.35213213567316,4.628266949150332,-2.4821376817285357,2.326066799517232,-1.7053327367851785,9.498247165153849,-5.329600412933148,5.556764029548179
2.7560000000000002,1.096623778552052,3.1895689132526415,-2.573604907389624,0.9314256802834127,-1.7225886896751978,8.639991985765063,-6.111165471615069,6.222785691293506
2.7600000000000002,-3.0891270217889852,0.2713726372511367,-3.0651605542550775,-0.3049631483945525,-2.29978089096262,6.850161771739441,-7.636998599379379,6.77920330973937
2.7640000000000002,-8.181316851411182,-2.825805796084747,-3.7610154994039484,-1.5422839722500767,-3.046389069460133,4.574806255223551,-9.149429405143916,7.362582031092879
2.7680000000000002,-12.566331047321786,-4.744612127421672,-4.289565676152875,-2.8236828486739944,-3.4876711094228425,2.5494637086634433,-9.981620827981324,8.119284826779511
2.7720000000000002,-14.737420714972906,-4.75356471167435,-4.269069145217059,-3.921977126943959,-3.2903144170118948,1.450462449736185,-9.842065820962171,9.097155521925483
2.7760000000000002,-14.002070218643777,-3.080103022972215,-3.489160503457784,-4.381050322233324,-2.4364525265109975,1.5688454948719452,-8.9223434860664,10.18337459693366
2.7800000000000002,-10.832738504442434,-0.7303377604203392,-2.0223617938346834,-3.7403671778484067,-1.2355643680987591,2.703955515109749,-7.766408343216606,11.12444022485032
2.7840000000000003,-6.6466331571529285,1.087856901213759,-0.20414848100292377,-1.8126011197963043,-0.15712400653180514,4.321344216529662,-6.969750407580171,11.630787803663239
2.7880000000000003,-3.1201071158661677,1.5856639746799877,1.50576344149178,1.1424729263948499,0.4292475187567484,5.864287752705171,-6.861560299193121,11.518107043694876
2.7920000000000003,-1.3725144147639083,0.7251450457043305,2.7344165494940635,4.469100823894678,0.46792792929443916,7.036643282290749,-7.304645916172699,10.811944540614679
2.7960000000000003,-1.4488250843970492,-0.8823526886953239,3.360690624708411,7.380905066599789,0.2544801171322355,7.880918156334411,-7.735410569658179,9.765497136749001
2.8000000000000003,-2.393998813943256,-2.4005572591679254,3.546332465079179,9.293510434379794,0.26353460965972264,8.630186511331962,-7.44717148119161,8.763021844488227
2.8040000000000003,-2.860586439274557,-3.2259003993020112,3.6211953899326375,10.051743513235593,0.8502530922063656,9.447194354859898,-5.990251575640673,8.15218283238055
2.8080000000000003,-1.9249719460853578,-3.2228288339186903,3.86394082480943,9.92013272397228,1.9949721843997885,10.23578262060913,-3.499111340198095,8.083091260395861
2.8120000000000003,0.33887658700630574,-2.6514661270201287,4.3091650688869505,9.346408198533826,3.242516624910971,10.662463700681421,-0.7545640008405048,8.428634516522111
2.816,2.858508947979501,-1.893178859735773,4.684327241484948,8.641535276015652,3.886522273354638,10.367943310220548,1.0876839773259181,8.8285756582777
2.82,4.144386862108813,-1.1874159966381193,4.533144570235878,7.785129413015774,3.327811550900382,9.243480445286572,1.02267155706258,8.865456944330864
2.824,3.1498965399919707,-0.5407970880916935,3.4733245083475666,6.483307590178394,1.4168278633211582,7.588653449256319,-1.2628990642203508,8.289764278525663
2.828,-0.0732545108781697,0.16863291638683542,1.4415797512755946,4.452826239863652,-1.4119128263250804,6.026657578556664,-5.115937882172901,7.180842703094503
2.832,-4.281284574877349,1.0150375376235203,-1.1951509837112084,1.770128979347115,-4.289602131819937,5.215915228769445,-9.078473025333526,5.956606974849434
2.836,-7.578615910737022,1.916359212445661,-3.7505064902884824,-0.9551835842667853,-6.291797293205386,5.518728065437548,-11.472819403124468,5.209549791260086
2.84,-8.334184109003036,2.6641376791342513,-5.503147715149362,-2.726410288872688,-6.857000230338132,6.818372541974618,-11.155490976882987,5.430351991207816
2.844,-5.989390494215815,3.0553133977577565,-6.00786013058609,-2.5857841085934776,-6.031594836549624,8.589819977074395,-8.073156259932585,6.752030025527041
2.848,-1.3479139312958228,3.0023090049823775,-5.291290895531931,-0.12335761907804255,-4.425420247745587,10.17655740240047,-3.3473848316777435,8.838895974873623
2.852,3.801714437411972,2.550168141049236,-3.8198767959960493,4.223135228815119,-2.907757188660696,11.121062989453176,1.1744288152479108,10.979550608675769
2.856,7.523585754146362,1.8008033903020826,-2.2687895641342393,9.259818922182312,-2.2024358911872657,11.349356237178963,3.709712714762645,12.35289784365968
2.86,8.595242471312364,0.8210303844506592,-1.2117639982380837,13.499610392660259,-2.5767134169752404,11.131678685002191,3.3074390350520337,12.352341315346838
2.864,6.976996390566535,-0.37553296144197823,-0.881032542074994,15.777593654033549,-3.7688545483135205,10.854334907190099,0.2368505888130059,10.81904828502536
2.868,3.6680196863100742,-1.7627799386483662,-1.128245869827385,15.696469805274768,-5.171851881802355,10.740363370639109,-4.1926207204045305,8.08436229204845
2.872,0.0963998914654729,-3.1995466982720844,-1.5672697988406927,13.693512058594138,-6.154346045664079,10.699354339820363,-8.254323440591538,4.812558707151732
2.876,-2.6006617700967047,-4.397005329629411,-1.8149205350148048,10.71706530445517,-6.347998969808536,10.377276972602946,-10.557055842389627,1.7291057133463692
2.88,-4.0318371759782305,-5.013812842677886,-1.6911429912306621,7.716987195397964,-5.76568971555184,9.380032579452266,-10.572121154668249,-0.6459803072955452
2.884,-4.543839020810297,-4.8411343729471925,-1.2775353197316726,5.238135227239096,-4.735476817952202,7.528915938283338,-8.712061015683396,-2.152758165660277
2.888,-4.8285292541985365,-3.9719008076046363,-0.8308864851598834,3.3275160709087643,-3.7047090861416807,5.007424525060575,-5.983934054870322,-2.968644778847654
2.892,-5.416623606340589,-2.8267084261349673,-0.6035380464178974,1.765034082798536,-3.025395612424913,2.333236062333745,-3.4337407194410687,-3.445011778086527
2.896,-6.357719644150465,-1.996080631220078,-0.684420837144291,0.4231858048383599,-2.82585052363258,0.16581243949577273,-1.6874998333059246,-3.8937341510057903
2.9,-7.24469501831013,-1.9773068424368159,-0.9475633664321714,-0.5057306442488525,-2.9976946354452414,-0.9397673647646968,-0.7904598300018022,-4.4118146217768786
2.904,-7.525633304959233,-2.9393154945165882,-1.12740696326747,-0.5808404074403843,-3.2830605308175347,-0.7245037397935463,-0.3718989212065451,-4.824471259403266
2.908,-6.883672208299416,-4.643144967260461,-0.9792865291626027,0.5557066392649617,-3.3976392275521325,0.6971895553260783,0.0025067957655555695,-4.769488580217795
2.912,-5.428723582557472,-6.545146856175965,-0.4154210373476026,2.82055123378973,-3.134868673785884,2.8948070782305813,0.5399955421255713,-3.8858539111153867
2.916,-3.6186680421022968,-8.030060652768313,0.436445864668058,5.5509518396993585,-2.4417635085351628,5.2628296500118665,1.1359922090012562,-2.0330325077058586
2.92,-1.9825077431957034,-8.647496003878139,1.2861432595715607,7.721679802320075,-1.441686536909888,7.197843174333293,1.5110242802865272,0.5587955269583835
2.924,-0.8304921097670173,-8.243353749565657,1.8243111473616862,8.427568855386195,-0.4037022338305576,8.258656943659235,1.4693634358052519,3.2871965111752193
2.928,-0.12708982585779305,-6.9645458100028454,1.8721599529511872,7.371582288028584,0.33575228069464425,8.27674673640847,1.0840270696508956,5.350006518357122
2.932,0.4103739854668058,-5.173243855330157,1.4672047615595663,5.064934370583231,0.4877723601426591,7.399938750117833,0.6929107300979167,6.030695362157485
2.936,1.0674092930550292,-3.3330357092867455,0.8410486479608967,2.602476791157595,-0.07017653842973504,6.03272604602972,0.7079764329929348,4.98564845470068
2.94,1.9168514192774144,-1.9046294147255824,0.30918837370545393,1.1261134284671326,-1.2120497075853756,4.684777571271475,1.3564977646357992,2.418920383741419
2.944,2.770582545912486,-1.2473360537559237,0.13265345421971908,1.2605468414098384,-2.5690530962851055,3.7684636301059933,2.519917470826146,-0.950537580720789
2.948,3.310588849960026,-1.5204238978295765,0.41388383411839813,2.8282455456574582,-3.634501131067629,3.418586706636755,3.7655148440833623,-4.128769473595886
2.952,3.305647528273063,-2.6001744384672767,1.0770300150622534,4.996592766877062,-3.943582752030103,3.434915782583561,4.5680280879200765,-6.20356675639898
2.956,2.764683920745008,-4.070091128506277,1.9208597671188459,6.749732749540479,-3.265577321410904,3.3709702565332136,4.594836773570917,-6.689051261756992
2.96,1.9408943753341656,-5.3284627980231285,2.7179105960605616,7.417547045209842,-1.710564559285251,2.7643546406601627,3.8921617339331824,-5.704533247753449
2.964,1.1985220288524547,-5.805040724723595,3.3153761418528465,6.975441408309977,0.30420470416968337,1.39215486310595,2.8662660282895396,-3.9060169023084663
2.968,0.8200013441986163,-5.220200854419662,3.6702899410897603,5.952906436053231,2.2090247905311666,-0.5929201721507473,2.053038484643924,-2.2180153428390468
2.972,0.8828991604331217,-3.7423160745176247,3.827878380714532,5.041503010526975,3.4915225431907437,-2.709444135508614,1.8111301912408297,-1.4667146522804213
2.976,1.2632931226647675,-1.939397495699441,3.860035494798637,4.6524629283279655,3.8630376113681684,-4.372690842847664,2.0949252471983506,-2.067599226041604
2.98,1.7421120618263797,-0.5145812564448793,3.8086938954095872,4.69630461562223,3.320885149775636,-5.172896797179654,2.4486977657974354,-3.8884856402029673
2.984,2.1324764086142975,0.045338639723552454,3.664870661930567,4.696729330378828,2.0904123692171304,-5.068649973174664,2.249475323786444,-6.337889744142529
2.988,2.3381047471148326,-0.29351261860383104,3.370829366960681,4.1413823021929606,0.4860895013668136,-4.3932257103606105,1.0524552449922764,-8.63369307533548
2.992,2.3432340174303095,-1.1138740242804555,2.859057517723109,2.857537049802409,-1.2125825891064732,-3.663377292875234,-1.1342940737624114,-10.122739957304434
2.996,2.1691766478794685,-1.8002608557536697,2.0917753391951903,1.1635277910472164,-2.8212357791870746,-3.3210043678616845,-3.798846432519833,-10.525092379950106
3.0,1.8554912463733642,-1.9029075186515019,1.0878340857256026,-0.28705488361125964,-4.2273174608481785,-3.532516584284141,-6.134597085931395,-9.996844552926074
3.004,1.4960404154070677,-1.3898660138237113,-0.056900370902635444,-0.8680600454612795,-5.321237394377201,-4.143575867240874,-7.409293287205909,-9.00210536557405
3.008,1.2815795033767832,-0.6489313671676664,-1.169556883556293,-0.3300268465208238,-5.945756953731683,-4.806736352583258,-7.312703819422419,-8.066023965309787
3.012,1.4974017878989843,-0.22609207738168857,-2.0049102757291757,1.0823786413230967,-5.90241241456741,-5.178529340414448,-6.0922008886216705,-7.5189822362033265
