Timestamp,O1,Oz,O2,PO3,PO4,TP7,TP8,Fz
0.0,-4.547473508864641e-13,1.5916157281026244e-12,1.3642420526593924e-12,9.663381206337363e-13,3.922195901395753e-12,-2.6147972675971687e-12,-3.979039320256561e-12,3.296918293926865e-12
0.004,12.242403435201027,29.682236944158035,23.028833458602094,17.304159201296613,23.123600358693636,-4.266002443469006,0.29512312772476434,-10.23798075028526
0.008,20.85148716043261,51.42540617679168,39.79873306368677,29.787047489315682,39.689685641322114,-7.199501737720993,1.1918636219709242,-17.086574228814243
0.012,23.999271148845878,60.86249768472169,46.96818193669503,34.829543841908276,46.22513191614428,-7.997186595166681,3.066349972082662,-18.684495855146338
0.016,22.456987552094517,58.906178823254095,45.47599049225056,33.06113605160539,43.79268758329653,-6.6878424295421155,5.889837765136576,-15.490542715988795
0.02,18.98800035400609,50.802467064248674,39.69198263160422,27.75293264302087,37.10919397474015,-4.085586950687116,9.176828505017625,-9.988130320386972
0.024,16.705622175276687,43.12156124262066,34.88317770859851,22.945104392712324,31.879947947910978,-1.4085771826227074,12.111074903608369,-5.453151804162303
0.028,17.369636602062542,40.43567973372154,34.47915651986875,21.38893056908097,31.8964946216189,0.2602336736907773,13.842013178270577,-4.419603067727621
0.032,20.607866017429046,43.502758030596965,38.664265455190446,23.4364187424776,37.49343385150593,0.4297464577507526,13.886020226905885,-7.58559609481938
0.036000000000000004,24.437185550713707,49.75903795859199,44.943235185313995,27.37488729631002,46.06322534109165,-0.6449683112687126,12.441704148092072,-13.65501224486195
0.04,26.67971226338517,55.51862070814258,50.094071056557425,30.82830773031418,54.0620235430132,-2.1643187701216675,10.394509146708401,-20.14196627402214
0.044,26.321868997418505,58.32280523336931,52.15939335019573,32.24292430208675,59.103217322381965,-3.2343141886398143,8.931900677950978,-24.69409325046081
0.048,23.995055514508408,58.0568807160833,51.29722198585398,31.583205241780433,60.925293095224475,-3.3487441106194638,8.895934967417247,-26.245819237673572
0.052000000000000005,21.360223261551937,56.37755886956103,49.15005018719859,29.94574708907868,60.847524286567136,-2.672526990988331,10.206452070652574,-25.466230231149325
0.056,19.862946416510226,55.098276107136996,47.35833111254806,28.507468187492634,60.315184548074626,-1.9844346789690235,11.703867475019251,-24.327578763042766
0.06,19.704161986073984,54.753422360070886,46.3102480857691,27.592559735745795,59.63633801775569,-2.296705702451618,11.571722583506073,-25.051304779285033
0.064,19.679874972637663,54.24360740499134,44.91493751375094,26.45306798606657,57.71566795220281,-4.3363397634104786,8.202823944583997,-28.968191807593428
0.068,17.99630523031493,51.74883606121924,41.51822168742774,23.89055233293925,52.93718558849474,-8.130740511837189,1.124765982372196,-35.807580281768026
0.07200000000000001,13.545485316048484,46.241968041517424,35.31848415018149,19.280046971561262,44.576962521721725,-12.897518829585579,-8.49404641342079,-43.73108826229725
0.076,6.818192111616071,38.54212901472471,27.302203216955718,13.293717330769766,33.781350191691615,-17.302304479220993,-18.05860249167023,-50.060610614852635
0.08,-0.13242610985520287,31.19065311749881,20.042270267437914,7.837628867658907,23.432458076905647,-19.957176211799094,-24.439424276039688,-52.33719553711961
0.084,-4.693024953048308,27.15137678760567,16.40537823696374,5.18393877406271,16.880867712519176,-19.92133121242381,-25.178227113502487,-49.244592431594924
0.088,-5.0745588070732595,28.148767710648258,17.94192575560993,6.809298860588683,16.277965223331364,-17.009987462276456,-19.490566929215788,-41.040555147254224
0.092,-1.2622656149355578,33.68496836117188,23.945912985218825,12.632100182299894,21.482214728433235,-11.798990604776861,-8.604496063280237,-29.37353596883196
0.096,4.975062188987351,41.283096812580965,31.724193518096712,21.041013738273534,30.121871897283114,-5.372844199508904,4.675692987121295,-16.662644415004593
0.1,11.012787819386432,47.796105062673234,37.920001807501734,29.6678569113883,38.75191816543966,1.0449642502456982,16.98209339992991,-5.310715210623073
0.10400000000000001,14.6702226954433,50.952920231911094,40.10519771188149,36.41967625292858,44.40981453548957,6.437310999301189,25.54067150742958,2.969517205883676
0.108,15.156573839826507,50.30254396415907,37.809498560268196,40.22740071820397,45.79600072606584,10.202117145425461,29.024357424788946,7.525958073300501
0.112,13.218029899167163,47.154844070437974,32.53842281449005,41.20999494757319,43.58942552502296,12.191688055212978,27.815275849213265,8.747017516165783
0.116,10.535120783763574,43.70916023807743,26.90368050463374,40.318425768370645,39.88727576687535,12.615686079617149,23.651251284086186,7.729005672172946
0.12,8.794282305873026,41.94701391029116,23.40595829228198,38.75718731783354,37.15833557752572,11.87708209869993,18.855030868236497,5.792927492791534
0.124,8.95400763957673,42.80948809378458,23.433322587065874,37.49289455008329,37.18537582404571,10.430539912008271,15.455099996196282,4.025705771486912
0.128,11.049107095768534,46.00492697686644,26.88949988598037,37.044097899629264,40.44733377292306,8.693579004326352,14.52329462549244,2.9903070307035478
0.132,14.493416088455604,50.400914955481454,32.50429985275113,37.53803242127924,46.12794394197246,7.0046107357118785,15.945713012928309,2.671635170685647
0.136,18.5734941217533,54.678778489227,38.55727393886943,38.87012731029387,52.63806472032644,5.605746599940517,18.672257009392922,2.6277691850648353
0.14,22.77419492383649,57.879479565934304,43.61133157050796,40.80786197693942,58.35804698752057,4.634718814070766,21.30681645526198,2.28519373231552
0.14400000000000002,26.75942837080305,59.57475832221411,46.904423491881545,42.967762003179814,62.208008216745014,4.124734689782258,22.762738621311144,1.2516738652932418
0.148,30.141676483107062,59.73759233846505,48.34837407046331,44.766367276396466,63.8610384023352,4.016967828967836,22.703359783857593,-0.4911247221401709
0.152,32.3048750806185,58.530305160667695,48.285520842639755,45.482617337314764,63.61557076760752,4.171905552383009,21.606620993143338,-2.591479932375023
0.156,32.49197730957138,56.17158747614667,47.18631714126599,44.469619741009296,62.04888532076532,4.382600357501133,20.410576195771228,-4.53429696005071
0.16,30.175387518203024,52.930902886595334,45.426616693380595,41.444822202265925,59.64810769950071,4.412405423822406,19.945943324904874,-5.934739869347368
0.164,25.424723971914148,49.114289798001096,43.16237765325508,36.64643825382234,56.54970816283242,4.055421556294732,20.43954708197623,-6.751047885227422
0.168,19.055636058417292,45.041538903555875,40.361237130350844,30.791079456326372,52.56235925845505,3.227295773176479,21.37999967831297,-7.259070244721443
0.17200000000000001,12.434187345350665,41.02569452202158,36.95960249402708,24.845796102036843,47.46274720199267,2.028813600505032,21.81165020167498,-7.833876809100502
0.176,7.00146757971595,37.37546219069719,33.067675458823544,19.724450963688923,41.38959895467974,0.7258581714696675,20.89147855896681,-8.671314154621768
0.18,3.753036021552134,34.417109206651446,29.10825688782569,16.04111967360012,35.0784910744656,-0.359718730790064,18.394382960075404,-9.606368628834389
0.184,2.8853567295839753,32.40292085189401,25.70652164239982,13.957373203823408,29.66442584916109,-1.0164966484395563,14.845438798115083,-10.166657315013026
0.188,3.7774445347727124,31.342505134176463,23.35959294168356,13.167698428184849,26.11749134483506,-1.285162779355801,11.188480112855359,-9.867869511509639
0.192,5.318747077199816,30.892199560787958,22.112891743864395,13.051023792622914,24.673701514053107,-1.468108577354883,8.231286064075448,-8.557669899586244
0.196,6.407789236466556,30.40029738952927,21.43963874969353,12.927148548617197,24.61326088721836,-1.9804926506535594,6.193376948725131,-6.611115800338894
0.2,6.406214453159464,29.178089716907834,20.46600157494163,12.345075955630364,24.596334067916644,-3.0912996987818815,4.659313436725256,-4.813184886927161
0.20400000000000001,5.34702338854413,26.85337069232486,18.41856424763222,11.268256854172023,23.3677954390875,-4.690101969581178,2.954766998717332,-3.962342994687333
0.20800000000000002,3.8665413229734327,23.67367014990384,15.111742314335913,10.114742845623027,20.490494152064628,-6.227841231165485,0.7230357597491093,-4.40246230089565
0.212,2.9209900212910043,20.58043913146406,11.204443433655513,9.625698178356515,16.69461075623377,-6.925373806259927,-1.6934444938433444,-5.791501425562501
0.216,3.397136762964692,18.921626613660976,8.02874704402052,10.571653101921243,13.595338242414755,-6.172716669378815,-3.3605407793540962,-7.288231235891203
0.22,5.7568421741932525,19.871661760525797,7.021633141563655,13.39360902305225,12.894625402031693,-3.9040630271590544,-3.2788534791294524,-8.057501283773036
0.224,9.820275106621011,23.770054313324636,8.98394812178509,17.902157935634136,15.442264348002368,-0.7206331596103155,-1.0481672744308526,-7.792086059945063
0.228,14.767428835422834,29.77204242056189,13.595686317901936,23.208943585522206,20.70921214454205,2.32914178630881,2.7727658648529996,-6.937009281300561
0.232,19.40478142510483,36.10454982786007,19.518559828611842,27.999981253819556,27.02218898634601,4.2196535587286235,6.879380245681318,-6.430595984602746
0.23600000000000002,22.592531082255505,40.80537125643616,25.002257053071617,31.030406420000304,32.386443737983086,4.4325749987842755,9.88809704557832,-7.106932242822268
0.24,23.682903932075078,42.63635670792564,28.717834399424987,31.641146546338973,35.48014648805014,3.1799175270202795,11.077496875039515,-9.118815426714036
0.244,22.799640053778262,41.70393848138235,30.37657906903098,30.0690793748347,36.28648344275149,1.2480284643900177,10.741506949567679,-11.745619098583575
0.248,20.778947582648016,39.39647887480328,30.766298329335086,27.350064448719536,35.98987776746833,-0.444470798449629,9.938183106954853,-13.732998894990942
0.252,18.773916106391425,37.62433812757149,31.1669649689876,24.833200919012143,36.198338866781114,-1.3077861146875875,9.785616091698785,-13.984912573258725
0.256,17.670099593135888,37.73650014116504,32.472741297784296,23.53067253083907,37.93707403056146,-1.3058467874682265,10.732270593255862,-12.208048239980599
0.26,17.636271865866433,39.76075521802795,34.57922315481471,23.656351996530702,41.02747542668101,-0.8559614813095777,12.255505101604513,-9.137280813788948
0.264,18.044020813710972,42.38160829417882,36.38413987238562,24.5850897414507,44.18287707683817,-0.5101205329867753,13.166080030224293,-6.201117176623029
0.268,17.795645940346503,43.661828283917544,36.41555107914803,25.235299475585293,45.74140462709215,-0.6313833890694696,12.351377371166564,-4.79086137328818
0.272,15.913701117408891,42.08980585786412,33.698384930832276,24.649668204286172,44.57745938251867,-1.2575644434391506,9.479370475351743,-5.548480435750207
0.276,12.088187432154768,37.392153616120595,28.3724168497738,22.473719082557864,40.685875876610794,-2.209672681853135,5.232175189937834,-8.077646372676327
0.28,6.928355594064669,30.749720211098747,21.770781276629577,19.138249734450028,35.19825601967045,-3.313327898526495,0.965291657196758,-11.21725947515165
0.28400000000000003,1.7712077024192467,24.306810461188434,15.908145246540812,15.671428865747203,29.851077839682716,-4.537677708765841,-1.9788750221273403,-13.670805120643536
0.28800000000000003,-1.8823830455348798,20.19160547703791,12.589332104399205,13.230630678034913,26.15984663785332,-5.943281757254681,-2.91317413716024,-14.641379146755071
0.292,-3.0268142295866483,19.528107781536278,12.578563921454247,12.595219764606327,24.71252407460213,-7.482539655638675,-2.044216256183745,-14.109744472608782
0.296,-1.595296719242242,21.926412743027072,15.244126842569926,13.857909862171027,24.92977297739776,-8.84125718593259,-0.21407067089285192,-12.664387487927797
0.3,1.5465682822618874,25.734809004086742,18.881586124112914,16.4664369616346,25.43521040218036,-9.502508496091423,1.6447420267568305,-11.072536754835255
0.304,5.038043431004439,28.896485031869815,21.548914424225586,19.554047672488878,24.832999904601706,-9.041300207942186,3.0066893875869027,-9.871970749633874
0.308,7.645079856329517,29.94719989761495,21.986488399031487,22.351658687923646,22.4873644270142,-7.467613499817389,3.913106322806243,-9.202551773062623
0.312,8.727784716733254,28.625567886613,20.13936770838575,24.433657076092913,18.87826592242004,-5.372481207552937,4.763438028843211,-8.92841626528957
0.316,8.384094781203657,25.865398800904018,17.088487348127728,25.73221109555334,15.402896879696982,-3.7181072814685194,5.933515626198414,-8.879649195073853
0.32,7.243565480556299,23.265486639084315,14.49287842799572,26.382701590007173,13.764592323319675,-3.353855983935773,7.500728785857973,-9.028623882005377
0.324,6.057503953998321,22.316931571095097,13.822752038217004,26.520014208949988,15.223237490577048,-4.531051640590476,9.223645547362366,-9.5010847009612
0.328,5.3392506269140085,23.763589972715067,15.751171367053303,26.17176846719235,20.04082789271115,-6.709568112221405,10.762180400728312,-10.423444333777752
0.332,5.201683979712129,27.321092115059855,19.9113796802111,25.275475582758418,27.321246310999413,-8.803345109106886,11.930208537734643,-11.750961783790217
0.336,5.430963047222463,31.838922840387568,25.089418829461465,23.782393284588807,35.309520591406454,-9.747981331740675,12.792173604644177,-13.221471527496078
0.34,5.732785981443612,35.856146809916254,29.791304973807087,21.79450813903918,42.072187080145,-9.066971111744806,13.568420925540977,-14.472529857685231
0.34400000000000003,5.9566956137147145,38.25929754956178,32.88725395901258,19.61630939609813,46.248371898819414,-7.114835081408728,14.436283771038461,-15.215888964796704
0.34800000000000003,6.163385322123418,38.711636297206496,34.01044280771248,17.660353810009383,47.51043166663385,-4.842949337464233,15.370874877418714,-15.358662740828095
0.352,6.52423166758922,37.68023558688424,33.56159682400801,16.261691233317947,46.54421204425444,-3.2218578373904165,16.16474935312567,-14.959490008526927
0.356,7.114962982433781,36.08262941783107,32.35512922734051,15.49118370700171,44.578604160750274,-2.6860211412615627,16.59716622385986,-14.082980685437178
0.36,7.80531029479539,34.81712846594405,31.16816888724543,15.133907623778441,42.7665439932008,-2.9296144697264026,16.62625978010624,-12.68367495289317
0.364,8.316204571395815,34.40118743702453,30.423480893585065,14.845540376597455,41.71583695318827,-3.162789921246258,16.465099017426155,-10.635683690354199
0.368,8.410375049823074,34.847098653390844,30.109782936385386,14.387982758478302,41.35121765270901,-2.6585900722675433,16.461650874207635,-7.894439015008629
0.372,8.07776380679752,35.76837573405032,29.906808401848934,13.787210638341094,41.099591432746706,-1.240218514260505,16.85195329675571,-4.684269693132137
0.376,7.562207814908788,36.59865832211108,29.38713399421988,13.296801766902263,40.23513380495888,0.5784774332064444,17.53933284038021,-1.5758576369582897
0.38,7.211125249080169,36.855726605822724,28.21851294404314,13.215251128948239,38.242539462234845,1.875811873131397,18.066727689466916,0.6561716446558421
0.384,7.234250657176062,36.328277761044205,26.272942121937604,13.67388300923335,35.02611533880349,1.8652995430622923,17.81914243357187,1.3568200940744646
0.388,7.522060136576556,35.109376761729436,23.61930078768114,14.525846526703162,30.89636782122193,0.37315300330578793,16.355962146959428,0.3352603462844854
0.392,7.673019578727462,33.5052543065957,20.465014055712345,15.417407525351337,26.40629422513041,-2.0181682028558043,13.704917416346234,-1.9411726275338879
0.396,7.25523915384133,31.90006139860725,17.120044643889514,16.01855057050534,22.17519463541248,-4.23912270135088,10.449670805551705,-4.4347323221813895
0.4,6.1696233348320675,30.688833518459205,14.052733513984094,16.284030990544807,18.829845338684322,-5.263911031325733,7.575801944545901,-5.905771978237908
0.404,4.83805335873808,30.235676738859638,11.921929591539765,16.52883445742691,16.999904343197727,-4.6208790135651725,6.113274733182379,-5.414660809901761
0.40800000000000003,4.048598011754848,30.794328555663697,11.476185262439344,17.226069490585814,17.25330979296018,-2.622114989902002,6.747048931131985,-2.735734423894428
0.41200000000000003,4.493977763829662,32.35004079171222,13.254831617349964,18.606864733805878,19.878595980419163,-0.19638029381485467,9.543414394581987,1.5143176918381869
0.41600000000000004,6.2554648513535085,34.463405015324724,17.215351738408117,20.310905561709205,24.595802075153188,1.5716604199778885,13.899823867069244,6.092838997753461
0.42,8.596630392461066,36.304692579641824,22.55478237846455,21.38385267179592,30.44618779526172,1.953542987718265,18.744695419683012,9.621454680850093
0.424,10.258443597194628,36.93332610993775,27.87759281620015,20.682165224156734,35.999242033924475,0.8867166505738169,22.886601390589703,11.116039626027487
0.428,10.157412840468623,35.74546758412998,31.704866195969316,17.509433085603632,39.8647743678971,-1.041729650004072,25.39529666249382,10.352723970105671
0.432,8.070073225273745,32.82249263398285,33.06552928899282,12.090639202194552,41.248632524772006,-2.9098913677194105,25.85835646229134,7.894444292383923
0.436,4.87319810289182,28.952614547226858,31.865940324889152,5.58422327713015,40.25533049393016,-3.906402119066115,24.424528883489756,4.773029120008232
0.44,2.160911855048198,25.314082095833328,28.88705329748427,-0.3858421823858862,37.80037230600067,-3.6920226012039166,21.682866878510822,2.005204233926179
0.444,1.3949326307745196,22.927839691217514,25.38928175525848,-4.454752338995604,35.129762572944855,-2.521273753778587,18.430703613788182,0.16626008254661429
0.448,3.0626057591800873,22.149702501188813,22.518710086299734,-6.097154386770853,33.1811437482761,-1.0758831257348902,15.42225244049132,-0.7697090860374374
0.452,6.376027983146287,22.502179817197884,20.830310772839766,-5.722641519985245,32.13946256069789,-0.09290164440426452,13.192998367504742,-1.233606393640457
0.456,9.7150554073296,22.952179192019003,20.155774863463648,-4.258071983222635,31.41377509258723,0.012388971160817164,11.983703611348119,-1.6571999673642495
0.46,11.61896208926737,22.547832168057766,19.8948051691184,-2.458853280080575,30.080400097296433,-0.6682703936630787,11.761901777324283,-2.12493303560359
0.464,11.709835258745443,21.02410696354582,19.494555793106883,-0.42224267958681594,27.499751231923256,-1.6324375592375873,12.273152973716378,-2.3192950403336
0.468,10.942358125080318,18.9762452977252,18.78800394117252,2.3593860077760382,23.711171791858874,-2.2897731393704817,13.101896415788588,-1.7956390907497735
0.47200000000000003,10.979818613043562,17.452221167319976,17.973408668527327,6.418100433929567,19.361780866304116,-2.308099118948121,13.742880950965628,-0.40648694234778304
0.47600000000000003,13.066691111132513,17.20792806484178,17.287873581029544,11.597301725699936,15.237680604812454,-1.7809556044230703,13.703999726633583,1.4100634876617733
0.48,17.09931794633121,18.134496989618356,16.68893990541028,16.743679029284294,11.777835379988346,-1.1378688997651807,12.66758537564715,2.734692968485433
0.484,21.50224961170261,19.23222796750042,15.793658940363002,20.080249366505086,8.893897590166034,-0.8443959046239797,10.66031837018113,2.6526835913778086
0.488,24.04850678667276,19.174028454940753,14.140430866065799,20.096324189780262,6.1945192633766055,-1.08800842177925,8.127763479160876,0.8382367173639977
0.492,23.133765267886474,17.111029328498716,11.596428868380144,16.420032495452006,3.4364291529685715,-1.656959932929567,5.820203408830366,-2.1244089256233565
0.496,18.762168661527994,13.22888215651551,8.619786379142852,10.128031214046132,0.8686102068120363,-2.100339775563043,4.499409978921449,-4.937781756730146
0.5,12.62984331871985,8.728286231511902,6.191066327148064,3.270874384091485,-0.767760755094514,-2.078214904107881,4.581538590320179,-6.269451527894944
0.504,7.1916689808520005,5.201019551657737,5.392447056357923,-2.1662386050984423,-0.6238056929225877,-1.6711963295542773,5.897490977999269,-5.541230379310491
0.508,4.276761517398654,3.7591817376371637,6.849847675925048,-5.264223826450461,1.718360518894542,-1.421991726891065,7.734059538553083,-3.3442604810975354
0.512,4.092822333587037,4.435566610667138,10.369341145307999,-6.531485198222526,5.908924390140783,-2.0368965664197276,9.168094747895339,-1.1635280449906986
0.516,5.226203987542249,6.212949536524661,14.992357958872162,-7.408559773322622,10.928942155640016,-3.8999479510152923,9.535864774950824,-0.5311321996853167
0.52,5.638766988142152,7.68508383643632,19.465293430728252,-9.216521925927509,15.598088816728705,-6.720334977160746,8.783285139445525,-2.1107797772742742
0.524,4.027015399064567,7.922748058234788,22.831806398176468,-12.209117567415433,19.166549259142585,-9.562756444495335,7.477177694642478,-5.274546310450887
0.528,0.6946800702908149,7.001502578794998,24.797029861773694,-15.334526393711485,21.59889954206858,-11.283662707698113,6.4373035657172295,-8.462040275760728
0.532,-2.611545226113094,5.866530263153322,25.662594747256662,-16.867582002164,23.363624640078797,-11.137147957063917,6.210126841293231,-10.121509577865481
0.536,-3.796184540814579,5.656093458130954,25.92671287023279,-15.514291034979578,24.890387738369213,-9.188733397827036,6.710154593252582,-9.65166157576391
0.54,-1.7580106768925816,6.951697705270817,25.86672744856753,-11.29139876379395,26.103376873662228,-6.299255653090313,7.248084978419456,-7.773564913667769
0.544,2.8461249073783392,9.411647270551725,25.370714030407044,-5.630521980316871,26.35644377347444,-3.6723255137899287,6.944905763758015,-6.099124869683465
0.548,7.925645411049459,12.022153251653094,24.132130423388276,-0.6070926064496689,24.857725160356722,-2.199274768393934,5.314230054996415,-6.10951332201148
0.552,11.139399581044813,13.74530269667764,22.019980914250596,2.2105947703632864,21.287071505444942,-2.0038082094902165,2.6434282550185344,-8.18839571035187
0.556,11.196571742164679,14.109313043521524,19.31978054394324,2.5740761598092377,16.169965636917368,-2.4641931668859343,-0.08638857585060578,-11.325392447206696
0.56,8.53057143160811,13.406978410620923,16.674055874485248,1.5626311708554113,10.75162071871739,-2.6834171613306808,-1.7040756247095032,-13.692141852159466
0.5640000000000001,4.94597526383393,12.389908542313947,14.727425528949425,0.7881841209896265,6.3922371521003924,-2.115306670577411,-1.4893359675368174,-13.754936700890312
0.5680000000000001,2.4896292060971064,11.694365800783316,13.704482201627911,1.3017622010077048,3.839808360673146,-0.9503823919540082,0.39985141272882174,-11.239739334308297
0.5720000000000001,2.2591507693849735,11.395038728759914,13.206070262965454,2.885221105879964,2.8315759394695306,-0.017751057485156707,2.989978795656725,-7.332926799233974
0.5760000000000001,3.8230233289735907,10.972711173617654,12.389824130596821,4.150237270829848,2.2845741158250803,-0.26330416682731084,4.999705354048274,-3.9808400467004503
0.58,5.580415690518066,9.751683648417838,10.493583696177325,3.4026437312172675,1.0171067474449274,-2.1295351733374446,5.516094339044457,-2.7131404371928056
0.584,5.799667827237954,7.501927661316131,7.393592621615539,-0.2554885289384856,-1.4192441409800267,-5.222034982657078,4.454690292948044,-3.6964401782208824
0.588,3.661238829422018,4.769443922726737,3.8228036064240314,-6.269816015655351,-4.3395813372550265,-8.472504180150509,2.5564326053863624,-5.6272721618702235
0.592,-0.2986987680741322,2.680825690196116,1.070585265088539,-12.812322996696594,-6.240525901537808,-10.691527367299614,0.9405263346764059,-6.532211562838256
0.596,-4.55580210548419,2.3158068082822183,0.3107508825938794,-17.68559102027416,-5.66060110479782,-11.180858261889398,0.5000699920606166,-4.985706795077249
0.6,-7.457335488009676,4.071554988712251,1.9638886763281107,-19.389068972012865,-2.0451717134151295,-10.047874233427365,1.4709014794677842,-1.0220537363793483
0.604,-8.050981581190513,7.386463445087543,5.431874812117371,-17.761144889227353,3.879405970734979,-8.058575568874176,3.388098153202691,3.7966280535079022
0.608,-6.442839442894865,11.00120905991298,9.369719698267659,-13.890654047214639,10.446374549176767,-6.144461097437443,5.412356064301548,7.207296830682708
0.612,-3.5608875547159187,13.60285751879951,12.341022039468726,-9.431473091900898,15.899087300939073,-4.872446387932541,6.807535429027894,7.491726228324524
0.616,-0.5510752156749277,14.466354887997568,13.475944665738098,-5.77390768530779,19.23073635612775,-4.19865712667729,7.288157538807127,4.41876595288295
0.62,1.8102875504320082,13.777452344298581,12.821959326499268,-3.5168689503228734,20.56327982187463,-3.628917767985058,7.081277103244474,-0.6508827485156417
0.624,3.365182598024944,12.466318838801499,11.213699943006759,-2.4760221994954463,20.862290539506375,-2.6582114794607605,6.696381661699206,-5.538271724599326
0.628,4.424478919871262,11.656964570491823,9.74665571343894,-2.108225989434345,21.175578927500396,-1.1900106302239237,6.553669913134854,-8.427149748986722
0.632,5.412421626421974,12.048577588011426,9.161248965183972,-2.0031406170423907,21.87584590117615,0.33932293515044876,6.692027441270739,-8.771699511572706
0.636,6.56089023016159,13.5482758043903,9.475407122055117,-2.1181228851337437,22.36923225352109,1.214863521708594,6.730808500829426,-7.434890110354445
0.64,7.818978956714204,15.347075894228055,10.058332749598662,-2.6402109441739867,21.46285755781048,0.9084230764626682,6.0907069897518795,-6.024485657435889
0.644,8.962199695680624,16.36492263508353,10.071400149982765,-3.649356878064168,18.16066480909285,-0.5350543044201004,4.358381601964993,-5.8501215749456605
0.648,9.777825827959873,15.814612030626904,9.007264601330462,-4.875784828581459,12.402209080866783,-2.42614238312035,1.61014140186046,-7.111098824801047
0.652,10.176689784293785,13.58367948191892,7.008589461462975,-5.760849697161348,5.2826068949627825,-3.7310768592499244,-1.4704133385251907,-8.769681151650957
0.656,10.158604781159056,10.241668391695953,4.777575515214835,-5.810622387432545,-1.414297020710876,-3.596154094162557,-3.790620810821906,-9.17410256441417
0.66,9.71260672205699,6.724801088106574,3.153593869094493,-4.984344881669699,-6.094830443157491,-1.8137525185945833,-4.309101557862846,-7.072356885852059
0.664,8.752983703138284,3.8730918262483556,2.6013875215313647,-3.82864814535219,-8.153481227508337,1.0358159088618777,-2.5653649288882434,-2.4310875288026637
0.668,7.142873420602655,2.054161878805985,2.907587106847245,-3.2226475013827667,-8.23290734981805,3.847628417677697,0.9791557445407761,3.4167819596666504
0.672,4.829125400682187,1.0619192210032224,3.2717556493164466,-3.834858841974892,-7.786707308728637,5.547061789454347,5.015030035353334,8.4053612124942
0.676,1.9788189005059849,0.30672319366465217,2.738341373306298,-5.621027467263389,-8.204961276642678,5.650455164185814,7.897175437771693,10.802087912860543
0.68,-0.9685896457624494,-0.781716089499696,0.7689030784797524,-7.67354382167639,-9.964364425327062,4.532910441056856,8.40492706887403,10.131016280487529
0.684,-3.3649383640350834,-2.350846854913243,-2.365239755993173,-8.563770294798246,-12.285664959064661,3.2624205859715403,6.380674236538198,7.4427272341768
0.6880000000000001,-4.534761077566031,-3.955682495155372,-5.608536998452621,-7.05318844974488,-13.520103792652378,3.05565196380644,2.872216446111338,4.750480143943264
0.6920000000000001,-4.0394146614062265,-4.766554889590054,-7.608745931269709,-2.8389920065659453,-12.104464873024085,4.605847644207415,-0.37922410227929504,3.9018899850137814
0.6960000000000001,-1.9582093162761112,-4.103354014180809,-7.460659102275486,3.0455791554613825,-7.600050267078586,7.61816965109756,-1.923918559541562,5.458551219156561
0.7000000000000001,0.948367022253592,-1.9862030407948623,-5.284957128203928,8.453009150191633,-1.2054202762789146,10.79881318936225,-1.5386202830642333,8.206704373897423
0.704,3.3199175281783937,0.6243261543199878,-2.3150253741132474,10.913884451256536,4.565926465483756,12.338725960308352,-0.547685900829606,9.603599598540086
0.708,3.5868094088740463,2.1057992751105985,-0.3963330382543404,8.679087952446935,6.941960256869095,10.698040817415404,-1.2640976643430122,7.000588256949186
0.712,0.5709255128006703,0.9043534499548969,-1.1078177188118161,1.539312545716598,4.197572358448781,5.350580591473545,-5.730811006139106,-0.918930163355185
0.716,-5.898566204687484,-3.6190712149037267,-4.940067271710689,-8.961885188549559,-3.4335681462947036,-2.8521692590358043,-14.397522799260173,-13.21237380266939
0.72,-14.630216572142956,-10.639376937825489,-10.933186630466707,-20.014734478316996,-13.67804772841879,-11.883626809865405,-25.467074669214412,-26.763207673913143
0.724,-23.224727126434857,-17.961246334411953,-16.985738093572024,-28.531587293742064,-23.047821362703814,-19.24017220495682,-35.3557957100187,-37.39856489714555
0.728,-28.816994121916252,-22.816970684925423,-20.7235887203355,-32.24131496428197,-28.21955511321869,-22.842021265624,-40.144776099253136,-41.56343340853414
0.732,-29.179991733742725,-23.05357093565084,-20.542325616361495,-30.452010751279545,-27.365490120961056,-21.76027001550824,-37.35968412695922,-37.79547163666871
0.736,-23.71636606158262,-18.156849762815284,-16.34473667274665,-24.191486024238884,-20.866726758499397,-16.481277357356248,-27.19520295471,-27.318501060341873
0.74,-13.83784398067479,-9.565828252801907,-9.600346146916138,-15.694179339214315,-11.093293185023583,-8.625061058987967,-12.550248123642177,-13.505693199161783
0.744,-2.5013550720048556,-0.10012597744076857,-2.707901083259401,-7.499849952418799,-1.3862043989536232,-0.2767694458358392,2.170704304874448,-0.4834412492110687
0.748,6.961067887640752,7.248075497861521,2.03538038334068,-1.543130386483881,5.285058816483684,6.7487938386177575,12.891637068708974,8.486326749015916
0.752,12.165521971673456,10.542196929804618,3.3441269574210537,1.3883092035538311,7.371720446696941,11.419359574799046,17.424190478445894,12.115342163661694
0.756,12.525396532673312,9.552751919287005,1.3253011288311995,1.6635346940122417,5.084253365156542,13.612644604962725,16.065477904818067,11.266099171329756
0.76,9.262604054295934,5.59909668241221,-2.7561276491986177,0.39246030659876396,-0.0008876193881519612,13.89047672111974,11.058578658982015,8.216198572509256
0.764,4.63396414338672,0.7399172960535338,-7.152499818568231,-1.1509539783050968,-5.77835784661022,13.104413273059322,5.315222104403233,5.450392797882955
0.768,0.7970459097764433,-3.2144356702143,-10.379640478579972,-1.9996858858382893,-10.461169090259204,12.027336082055285,1.111012529911136,4.576915383105984
0.772,-1.078964748205749,-5.353840679056134,-11.685073035856703,-1.6954284365199328,-13.07616791164611,11.15013882260348,-0.6357223315178544,5.828524435915483
0.776,-1.039211594674498,-5.728656766180279,-11.096401199932416,-0.23067149504424833,-13.490070472371997,10.662618128346253,-0.2799580091399321,8.273844635949672
0.78,0.0804827087493436,-4.916591761123186,-9.128880185555886,2.1310958295283626,-12.087684741709324,10.532496033400662,1.1839810996827964,10.490088379907434
0.784,1.3823483468466975,-3.4584535794533053,-6.385876379222282,5.011689788404965,-9.380268589920036,10.60009568386306,2.8278058715321777,11.290309914770432
0.788,2.4510915260011075,-1.5515866933336042,-3.2913168861367694,7.977239994594186,-5.781668512277918,10.630896283774746,4.1865380336204225,10.171169481818424
0.792,3.3956234710537387,0.8263412983226317,-0.07704617664609259,10.519796917478345,-1.6399409266609837,10.33750890683632,5.214341216278854,7.347810726957164
0.796,4.465337954778931,3.5293821010035913,3.046209752777372,12.064205324416719,2.589652181670374,9.43180357766903,5.988349793178713,3.486517401307424
0.8,5.589164020167686,5.969426916468819,5.737693163304414,12.085870292791583,6.257276724362498,7.723435253912157,6.463588319362316,-0.6421038973036275
0.804,6.2057466641711585,7.222379321182018,7.539932808211404,10.317014872816742,8.64079145688413,5.219426477103752,6.457414501465223,-4.415007300263142
0.808,5.533660282238657,6.499849544499625,8.060940733025063,6.928389161266068,9.232047579333937,2.172484876756698,5.824868532889241,-7.456089232232671
0.812,3.113004910949769,3.7020759767016784,7.214524982171383,2.5567156702135208,8.017581656939683,-0.9652104058891382,4.6530511253567965,-9.621512585362893
0.8160000000000001,-0.7575056752188516,-0.34363056871001163,5.336386666614828,-1.8754421422560767,5.545425185821216,-3.6920994355450603,3.2834645878833726,-10.959876767259402
0.8200000000000001,-5.002146149925238,-4.157861755032513,3.0889926823851397,-5.465369085112911,2.7149101358171492,-5.6322893407697165,2.1219920405717403,-11.690209726066541
0.8240000000000001,-8.231825185836556,-6.296222582294433,1.1890449989562057,-7.617738831525401,0.388551130063604,-6.645085175614213,1.3791468165699143,-12.167039999303938
0.8280000000000001,-9.411032530317812,-6.057122477956057,0.10911813090103806,-8.155277117447497,-0.9544527652950592,-6.819951856679268,0.9466921308560359,-12.764793950946
0.8320000000000001,-8.32907929554841,-3.8077970014731477,-0.09799832017603194,-7.220917618049839,-1.3458103278000522,-6.364399784854754,0.5009750550053695,-13.686540124414591
0.836,-5.630025487121827,-0.7564038234861528,0.2136132055641724,-5.090572476223713,-1.210689410250552,-5.467826704713389,-0.24565565460130756,-14.804768575982848
0.84,-2.398229415020637,1.7252832770263922,0.4883325559352443,-2.0231712577521535,-1.0783405290438282,-4.233914078935413,-1.3293812998288104,-15.645056967050323
0.844,0.4217349249369704,2.8187278813064154,0.22776589756233534,1.744159936438507,-1.318336421097797,-2.7246917023726382,-2.5240958115735452,-15.58759374295812
0.848,2.416123598111483,2.598551015321789,-0.8331157209765365,5.867907207784356,-2.0545334171138165,-1.0691992983620366,-3.5645570083538587,-14.230629242610917
0.852,3.687658251777634,1.8102845560586616,-2.70659431251471,9.763228821627365,-3.2743955264814133,0.4556973105414954,-4.424902288926205,-11.713632508965134
0.856,4.502036613295388,1.2420032566549821,-5.2671321667288,12.610538285398036,-5.017650395486498,1.4596552136481478,-5.4360497707291415,-8.787383830704698
0.86,4.907277127170971,1.139237526069735,-8.360821443815837,13.594272124498275,-7.438629451927994,1.6027996656010828,-7.104396879672322,-6.535396023011742
0.864,4.622130056130231,1.0455792815615155,-11.814694306931557,12.296512267627634,-10.650567773817869,0.8045364193521891,-9.709160532632723,-5.835130133584869
0.868,3.2795790175240995,0.17097169747211183,-15.341061429606697,9.023678257022254,-14.43703156257439,-0.6412079977013718,-12.934331050129742,-6.8487746032412815
0.872,0.8354002832052174,-1.9606371279583072,-18.425737403718557,4.832223653098595,-18.044384927409908,-2.1536775362567937,-15.81074723656559,-8.85095029000206
0.876,-2.1757668489018727,-5.0348532085383795,-20.34426628020688,1.164212847067347,-20.279676079844393,-3.134844424153414,-17.066423301190582,-10.530885753008874
0.88,-4.787399361307337,-7.9805524837505,-20.36684411628943,-0.7860589981166299,-19.95090306604547,-3.300820351086827,-15.774493840006414,-10.671538158006229
0.884,-6.098492254115655,-9.522310262093185,-18.08190129206986,-0.6534891393059752,-16.45847567895916,-2.8883166122200805,-11.933010363978212,-8.844085354497054
0.888,-5.817413250593489,-8.928980355526164,-13.672945202576756,0.892314164813456,-10.217695353508134,-2.585279926004773,-6.613946771127132,-5.716998705859908
0.892,-4.49487587180198,-6.492919540471462,-7.96888079627945,2.464432007202163,-2.636076321264227,-3.185309532773772,-1.5597287669408502,-2.7747849678956413
0.896,-3.2626650209333548,-3.4474035734596384,-2.217973895549619,2.652055072979465,4.378067522175684,-5.140509954093886,1.5798050157330294,-1.5746878507144402
0.9,-3.175264499185971,-1.3143066056145472,2.363291642759009,0.7712562091609243,9.191295055440378,-8.231700296141298,1.9882752481045713,-2.9125424974531597
0.904,-4.5414878197141775,-1.0593409569903542,5.052436872782209,-2.720879432145921,11.110509287792894,-11.566946107672834,0.013955449578759271,-6.375099806998264
0.908,-6.695793253925672,-2.5724389718402563,5.839979626586569,-6.409904727897128,10.576802257644317,-13.957953186232999,-3.1200668300098187,-10.552303487659856
0.912,-8.371971099614598,-4.7709108096782415,5.307287127276481,-8.618897921392204,8.807975349493631,-14.483936829685035,-6.048536999023099,-13.772575677365012
0.916,-8.47701869584182,-6.280860475437066,4.224711976179606,-8.270036069789057,7.071544618363873,-12.960776043819578,-8.0085708795566,-14.97166766102805
0.92,-6.78498833702298,-6.263751689109085,3.111642799887136,-5.452101562425241,6.007848281463282,-10.071726346594232,-9.1927120952746,-14.215858908635255
0.924,-4.106855121478304,-4.886027745053866,2.0131170210232767,-1.379393916191816,5.376354614326033,-7.06917111861253,-10.507897077728785,-12.574572544408397
0.928,-1.8177798545443125,-3.157459128406799,0.6204549267833386,2.2472511599678455,4.343227626047451,-5.194090010375021,-12.879487118822453,-11.422778920506744
0.932,-1.0079675348274577,-2.261612239115948,-1.3755241816857051,4.126155541466687,2.099042366770618,-5.117018129111102,-16.541164103650317,-11.593081071668507
0.936,-1.7925004896179075,-2.8333974753764437,-3.967776747144171,3.9901261112103157,-1.5982135253199203,-6.675447557404254,-20.765844928272145,-12.874493964127396
0.9400000000000001,-3.199275641218378,-4.605631061822692,-6.752311425538551,2.664616434885943,-6.255964854272406,-9.031600330143192,-24.189869890617956,-14.143003331176942
0.9440000000000001,-3.7370525960639043,-6.639104079495269,-9.151290405498116,1.5281225760641064,-10.935275376751974,-11.136093429558969,-25.5459258819144,-14.028619150999475
0.9480000000000001,-2.3508784650789494,-7.987291820108453,-10.805833370673326,1.6655798505842085,-14.802948430574702,-12.248454798600505,-24.395358211751955,-11.73999422952329
0.9520000000000001,0.8326550073904855,-8.339527643291717,-11.857434909143194,3.214404486442504,-17.575500805969227,-12.237236662596388,-21.402399464295513,-7.556816952096369
0.9560000000000001,4.438546587149062,-8.228314981187964,-12.896939833199099,5.286138695269074,-19.567196278173355,-11.509346803195058,-17.973704918244835,-2.6813660185878234
0.96,6.53827704307389,-8.649223482442608,-14.552383721938895,6.508235643438411,-21.308009749381426,-10.663940833036122,-15.455204106796373,1.42431185030523
0.964,5.710368926311276,-10.349043101490224,-16.967203900550203,5.855347415554206,-23.01306991430306,-10.10100864604783,-14.364377294911037,3.7930163776950394
0.968,1.8575997577690941,-13.237131844672149,-19.503824696552556,3.286113868417033,-24.263434087448786,-9.833293069876163,-14.126230337400102,4.36139526195484
0.972,-3.67111142723752,-16.302293183856364,-20.907766378998076,-0.18505578376107223,-24.135994054332286,-9.59161734677582,-13.481230850838529,3.801049534012236
0.976,-8.75144406696495,-18.133528558862736,-19.921179596331513,-3.039303791104203,-21.753332359344085,-9.11232263900638,-11.330442657309504,2.9192856363856663
0.98,-11.551989983447356,-17.711882150657402,-16.006638002786076,-4.08998505748059,-16.908898053373832,-8.407241433374566,-7.493000071914594,2.051278953963447
0.984,-11.411727669460106,-15.00333930435545,-9.763200924846615,-3.1258666541552884,-10.377356994688625,-7.828566055026386,-2.934633455524363,0.839221370893938
0.988,-9.053161419345088,-10.994105649225617,-2.7636326566027947,-0.9810723210862307,-3.6849103559784453,-7.875232632314692,0.6906266713413061,-1.4536258598018321
0.992,-6.051978465932393,-7.137011659747259,3.144502582958239,1.0086680056242585,1.569087931896206,-8.852553058618014,1.9544893445033722,-5.285390024708249
0.996,-3.935704180270477,-4.573576926210308,6.677160730078754,1.8067998993253696,4.438467623794622,-10.61428311149507,0.47135895274004724,-10.290818215043828
1.0,-3.4397541273715433,-3.5885912603987435,7.638012308676252,1.2549840966375996,4.994725744097991,-12.572380423445338,-2.880312586292348,-15.252817515090555
1.004,-4.295691332967181,-3.600669323492866,6.849381280350826,0.09766241255465502,4.130400344218174,-13.977869956531094,-6.458057718977443,-18.65651329906086
1.008,-5.612850756298485,-3.6689147152172836,5.540167744389805,-0.5540300224374732,2.927687128801267,-14.317317176439246,-8.781527278651538,-19.530649798592094
1.012,-6.539996569601499,-3.170992151766086,4.563409795561483,0.028814776580475154,1.9773217118890898,-13.589305197306658,-9.360205844389156,-18.086361030276294
1.016,-6.758047411323332,-2.2356175111439143,3.8967348016949472,1.6965628718414791,1.044156147577496,-12.287162221828112,-8.944129262959905,-15.737933548619822
1.02,-6.540728994751589,-1.6511903221899047,2.7373006968646223,3.492018106710475,-0.7073651866081718,-11.100566057949436,-9.031983276958272,-14.42303928381807
1.024,-6.396126875050186,-2.3175003751682652,0.12516149913017216,4.247858774469023,-4.077895616762589,-10.516461347987388,-10.931381917501767,-15.562709721116335
1.028,-6.587469924560537,-4.590868266789357,-4.290371527226398,3.345186069559986,-9.172583499586722,-10.549193011388525,-14.91196029002981,-19.210988667846777
1.032,-6.898875901971223,-7.943477020386126,-9.821418807754071,1.1470428638131125,-15.134975183257211,-10.77147576225434,-19.945609410320913,-23.903826839638896
1.036,-6.818374630688595,-11.185571338066893,-14.95529186251315,-1.1870476034216608,-20.478730774158066,-10.61731075618718,-24.1850454286689,-27.316248799450477
1.04,-6.002049876338788,-13.110343848084085,-18.088431734328424,-2.3988754805709505,-23.820082058824937,-9.768368321094385,-25.897353317795933,-27.400646529480582
1.044,-4.680796044258386,-13.192637507791005,-18.383738428648485,-1.9307955690267136,-24.60009683730209,-8.38866926185392,-24.34324850852954,-23.413668009169214
1.048,-3.701894956742535,-11.93515510032421,-16.26813434622295,-0.3385661024849469,-23.385409866058808,-7.0650826348369264,-20.118945352585342,-16.306834104785594
1.052,-4.1405724226917755,-10.646649861652577,-13.270565179350342,0.9527602386801846,-21.56325697759894,-6.481981108042419,-14.815090316285932,-8.298391919457572
1.056,-6.6732454715388485,-10.755986195801142,-11.267381173391186,0.44214779088792966,-20.59261539678164,-7.013446519575609,-10.203179842048485,-1.832848455900148
1.06,-11.087112683273745,-13.021654060813034,-11.518331035917527,-2.5436258184904545,-21.209833490936944,-8.482347300667243,-7.3780292207993625,1.5152113786916743
1.064,-16.240627502241296,-17.062631747104206,-13.997776870960934,-7.354388943957929,-23.020398730022634,-10.226594565189316,-6.327113227252539,1.6397668304161925
1.068,-20.53248838352374,-21.466867122526992,-17.37699737486173,-12.231965640375165,-24.69615856537621,-11.453403276686004,-6.128673734103813,-0.2680155147068035
1.072,-22.652099109415758,-24.440943385206765,-19.674530482816408,-15.151672699988012,-24.679975357021476,-11.680619263177505,-5.629361042931123,-2.5259189762600727
1.076,-22.217302518973383,-24.691989869295867,-19.255838451585532,-14.86188417065432,-22.040019298097604,-11.005139475292253,-4.205642706051549,-3.9318734594676243
1.08,-19.932269475330486,-22.072387002439427,-15.653814053458063,-11.54689911952164,-17.00091559489806,-10.047575966344994,-2.1605759988169666,-4.35875694313836
1.084,-17.193634923751006,-17.679102030401282,-9.812012167834155,-6.758437720111942,-10.8912687282359,-9.594264240208304,-0.5514513730636281,-4.674223063658246
1.088,-15.351184459325168,-13.353448945419132,-3.645486468584295,-2.650764347248696,-5.539028336122101,-10.124892827405802,-0.5764506766395243,-6.0631973872664275
1.092,-15.026115830833078,-10.821060325733924,0.8573095161705169,-0.9268956319301651,-2.4223480275570637,-11.499242420210976,-2.8568336926055053,-9.163275686933503
1.096,-15.875932233669346,-10.915325089864837,2.5329938381132706,-2.063588100308607,-2.026800114902244,-12.991171956899507,-6.994940137880803,-13.522249658358305
1.1,-16.909286495655124,-13.25668990352051,1.5000531338266683,-5.209195805541185,-3.728066288442051,-13.677384542527761,-11.674406654234645,-17.724917173676204
1.104,-17.154543243284024,-16.52990859598185,-1.0360822261857265,-8.775628137534113,-6.236346343279138,-12.978140499125402,-15.275316206963907,-20.121457495273262
1.108,-16.277451194937612,-19.183059139523266,-3.484052240492474,-11.354487434713064,-8.334369898676414,-11.042060699963713,-16.669457082563895,-19.763632478727686
1.112,-14.804305270236,-20.176600572850475,-4.686062741714522,-12.443384285466891,-9.50407826558012,-8.750452972289168,-15.770779411752756,-17.01881862961818
1.116,-13.794741667200014,-19.401582697606273,-4.444832228057749,-12.579757240129311,-10.111763030333805,-7.292218087066431,-13.546670501824337,-13.463028908633078
1.12,-14.150806575505158,-17.572496691893093,-3.5048602954498165,-12.832220040536413,-11.067464161264752,-7.515850667256927,-11.487926532198799,-11.09283849067424
1.124,-15.999366736229149,-15.720090763591998,-3.0468727121512984,-14.001707672827251,-13.191553563237221,-9.419780174141124,-10.819922051166941,-11.282345941209769
1.1280000000000001,-18.506921305049673,-14.586957224504204,-3.992519850240569,-16.014153943036945,-16.6514726287935,-12.059892693043366,-11.875582373500947,-14.03663018518273
1.1320000000000001,-20.269492170193644,-14.269175352838829,-6.489232443351284,-17.877955060392196,-20.779639395395634,-13.971722814363602,-13.988640049423793,-17.96863166917865
1.1360000000000001,-20.114927696090035,-14.329429366926888,-9.871148647941482,-18.269725507368094,-24.413127455781705,-13.911724150979353,-15.941916674135882,-21.03561596525651
1.1400000000000001,-17.842895790241982,-14.25166400797616,-13.067195652374721,-16.385753208628103,-26.52681589939357,-11.515504847795455,-16.710049443826392,-21.641239144648353
1.1440000000000001,-14.46460329349702,-13.9156452352845,-15.183323616396137,-12.546344387707904,-26.77241071117669,-7.52703474873033,-16.0732423526988,-19.489848158787026
1.1480000000000001,-11.741483242758932,-13.743165849317847,-15.908248744619414,-8.160899982157389,-25.592269307189554,-3.465503098679619,-14.714671667249604,-15.719141893010601
1.1520000000000001,-11.225750618550137,-14.38583917276037,-15.512665966584336,-5.03868443117608,-23.834229701189088,-0.885238026044135,-13.734620576495217,-12.245261716378081
1.156,-13.334749554912378,-16.16754176945915,-14.503573182978926,-4.428396130691908,-22.13182827866831,-0.6249471591881957,-13.88715397168562,-10.681457951514858
1.16,-17.002715263351092,-18.65833362025205,-13.196155610795358,-6.3385109979089975,-20.451436986629233,-2.4490891643772557,-15.036213433859302,-11.46402749391109
1.164,-20.137877466177997,-20.706520527469365,-11.496776026093357,-9.527084708885013,-18.111257016395484,-5.2459032954957365,-16.182504657333084,-13.651838844697522
1.168,-20.68350658640111,-20.985864346492235,-9.054898763993606,-12.1769855677544,-14.298450289804805,-7.64547850292638,-16.075709609429396,-15.508449480405943
1.172,-17.726743737475317,-18.77900656427073,-5.682871220788002,-12.878383686585039,-8.776132251472063,-8.694945886281857,-14.05826618961055,-15.530393740242289
1.176,-12.040652932300873,-14.53522441934092,-1.7394222295770305,-11.360412262058617,-2.319522185371625,-8.21882202956931,-10.5971105876406,-13.29960691773067
1.18,-5.726385117231985,-9.792203813868582,1.8372237071625932,-8.549173929376593,3.4621141687694035,-6.700229323434542,-7.1174329878112985,-9.675338990035016
1.184,-1.1564475608438443,-6.465198355494522,3.8990111143516515,-5.965876294607369,6.852840482041302,-4.823902240242205,-5.209398463698562,-6.259494802800873
1.188,0.21580037647891004,-5.852221313815335,3.693444549292053,-4.839051351468697,6.934424999582916,-3.0156091843764443,-5.656103858918868,-4.464859493808035
1.192,-1.4493722601746413,-7.887420749996636,1.3619533973674152,-5.440634935370326,4.158638321220678,-1.2797142122963123,-7.88337658607179,-4.73226979532501
1.196,-4.558779833731933,-11.116402410500541,-2.0207875532692015,-7.031692083121925,0.19675286240044443,0.5947768455762343,-10.224050986026668,-6.34160326442543
1.2,-7.014799856360696,-13.422984408080538,-4.923081516729326,-8.39690778874774,-2.8764913568329575,2.6488806547267814,-10.839340132211873,-7.868329890788118
1.204,-7.3383608722324425,-13.116776071971799,-6.107748576337599,-8.593974707378038,-3.625497843434914,4.5054746112946304,-8.79863444647981,-7.980674195573556
1.208,-5.391881565941276,-9.805882436556203,-5.260134646443021,-7.471921211967128,-1.9622772382549556,5.478717588758627,-4.673660974277482,-6.129102152737687
1.212,-2.3261041783603105,-4.574862629740892,-3.136178893736087,-5.646964553472571,0.8751586651160324,5.01400615991588,-0.2510260620056215,-2.7533687716122586
1.216,0.1507813717521458,0.5860204545297165,-1.1551697821773814,-4.000967480835243,3.0349095538399524,3.170749469782095,2.466538747082268,1.080630222898435
1.22,0.7108489486881808,3.754547121739506,-0.6706432468763524,-3.0739905475893465,3.0352179032051936,0.7923102514641869,2.385634095579917,4.314089882603184
1.224,-0.9589075976514323,3.920694103302594,-2.3202751032272317,-2.7469048811144603,0.4713811734432056,-0.8028759999997419,-0.1253435497465034,6.415271508933984
1.228,-4.123793310507608,1.3044998755080996,-5.7605259116216985,-2.3914829988380006,-3.890060973740219,-0.47590781768212764,-3.521925562211436,7.547172063602375
1.232,-7.4935342690519064,-2.9338099523270103,-9.880114354155921,-1.3562890548000723,-8.615906962110785,2.0961417229455037,-6.024719339613512,8.32373075410942
1.236,-9.895582056215972,-7.358635841129399,-13.346045420342762,0.5461895844182436,-12.378398712960461,6.185661440846161,-6.669215832700502,9.377462129534251
1.24,-10.729222330704943,-10.874791133549934,-15.1576783481637,2.887781635594365,-14.519065450741437,10.356630833609415,-5.785287174028781,11.024155327966582
1.244,-10.020238913980847,-13.001066173910203,-14.952194801492624,4.886703702361956,-15.133977165725355,13.193580943638153,-4.639623316079451,13.169967058617658
1.248,-8.161603103610105,-13.752729196735345,-12.96128771867825,5.902147460796186,-14.711580580451482,14.002382108220445,-4.489866466145031,15.44169894057086
1.252,-5.594394734413072,-13.340108692447302,-9.748808922443004,5.816523559828056,-13.63894625955254,13.086617886522617,-5.682718715162991,17.378064759775953
1.256,-2.6651341975994,-11.974624415977814,-5.954739631841676,5.034512481774982,-11.949821043772772,11.466878380040725,-7.375055654259995,18.562612249242193
1.26,0.30940325628671417,-9.880939613909959,-2.1628392856264327,4.12443351400907,-9.444330144908236,10.212379347046408,-8.041157868695336,18.660962790883787
1.264,2.920087906571098,-7.436506661707426,1.1049231483384574,3.3622852313164913,-6.058209663960042,9.820351389473217,-6.443798967868133,17.431135507969884
1.268,4.676841905656147,-5.228459681894492,3.3831787445196824,2.5169586162865016,-2.164320281111941,10.026743964061097,-2.472612636660415,14.793292356702295
1.272,5.215485893936602,-3.8829654822534394,4.342630311805806,1.0437591367399364,1.4422230809232133,10.102717526635388,2.6705271283590264,10.947877536973465
1.276,4.58516676594536,-3.7335868684276647,3.934779122530017,-1.430159511884085,3.8842008038063796,9.433344340581243,7.06561201448676,6.462429290067121
1.28,3.383517025224137,-4.5350638285008245,2.5192976463576997,-4.654112938748767,4.675705083153389,7.9953817974965204,9.091879377152509,2.200307410955247
1.284,2.562128533354553,-5.461154034746869,0.8474077644004865,-7.667819138770938,4.028140176599209,6.431008498915617,8.289260074870981,-0.9289818598354032
1.288,2.971526003309009,-5.447473894712857,-0.15251886230998934,-9.173794201163219,2.799182257784196,5.675360566894597,5.575102305701876,-2.298749123387097
1.292,4.886872249041517,-3.720456936260234,0.2875180929468115,-8.18619718840091,2.107838281032855,6.374456907769854,2.7291206663967387,-1.8054625813620078
1.296,7.80945015503039,-0.23562578045039118,2.4485552927362733,-4.593746555537109,2.8059032100991317,8.461192139044215,1.4773971881468242,0.14598723466224328
1.3,10.677941012709198,4.232723295432152,5.967311882214744,0.692547173013736,5.086430669510719,11.135662975486412,2.6594834475017706,2.893551991399363
1.304,12.382939138281472,8.406705970897747,9.916628549823145,6.09803851083052,8.404519667646127,13.257628933128217,5.885763763235445,5.859137775260024
1.308,12.29932029529482,11.05928682517424,13.09020676554428,10.06360456929633,11.706963542427275,13.920423877088979,9.821887242688717,8.765342915869041
1.312,10.53837539606775,11.529393191004601,14.388172526892049,11.692804619257913,13.838217079111928,12.888564031716669,12.89325233843283,11.603705780969904
1.316,7.785186438115488,9.920237296485539,13.149952563518127,11.037118790817658,13.925690045909505,10.691084937485357,14.011532446749698,14.441725600947393
1.32,4.868459083497328,6.946157167334604,9.361199549274716,8.932179496570825,11.639257239792641,8.36226211066787,12.992579004043364,17.254009812773802
1.324,2.3227617235406797,3.547156316791188,3.6755955046955933,6.503785858756601,7.266347076796592,6.983323425038179,10.526272660175891,19.897568161190065
1.328,0.20202357136076898,0.506328128950372,-2.7468714481392453,4.6227231684188155,1.6241087669759509,7.246202539603473,7.792262112227036,22.2381414620977
1.332,-1.758401211220189,-1.7290664062384167,-8.531800263981495,3.594928817203254,-4.129508188630098,9.213392009995005,5.968705146326101,24.313790667187277
1.336,-3.809549277363658,-3.046876910692845,-12.495365798191415,3.1553865505084104,-8.799758705232307,12.318942197733122,5.784263635538082,26.32396335521298
1.34,-5.938095567056735,-3.5775082024656513,-14.045466012350516,2.6995900599795277,-11.517646866746873,15.553011433499705,7.249942920454487,28.386603373675825
1.344,-7.854667149451416,-3.6110831117621274,-13.426248400069198,1.6004626688181816,-12.053324968783272,17.762911802956296,9.613410483958432,30.20800620569389
1.348,-9.20534442646749,-3.5503489791535685,-11.667499905344812,-0.5278385705041728,-10.930786486868783,17.99238766901908,11.549805562466645,30.929480411512486
1.352,-9.84393882657696,-3.8558194741508487,-10.200712040231338,-3.7011802931265265,-9.246420724254676,15.78203506366117,11.551997989101437,29.33733822506656
1.356,-9.936287581785109,-4.903438454809475,-10.244183492215598,-7.5496199899680505,-8.193139526470077,11.372730301309275,8.46896115753043,24.480473058734788
1.36,-9.796914538836972,-6.756416956723115,-12.208198474963865,-11.368684687249697,-8.465802088889177,5.717796296645247,2.042610456204784,16.40037060868599
1.364,-9.570664980076799,-8.983688421595616,-15.424880565248714,-14.23586788234934,-9.856435638251241,0.2507836869772291,-6.756538744677528,6.503441905795626
1.368,-9.001885160460915,-10.682845284260111,-18.370491466322164,-15.202078917916879,-11.27441219366392,-3.5499693054534873,-15.787226581840514,-2.7213658295586356
1.372,-7.478995860293253,-10.764178751572217,-19.295921511142296,-13.541755700711292,-11.212715827000466,-4.65902944935624,-22.262552616039102,-8.583627155379872
1.3760000000000001,-4.362789161449655,-8.424142686171763,-16.997679712791978,-9.013374304202443,-8.476672828060146,-2.8514030612586794,-23.63784543892325,-9.279734784216998
1.3800000000000001,0.5761713144047462,-3.573236656799054,-11.363559999901554,-2.026536906050751,-2.8075529315919994,1.2761597444114159,-18.576782753949374,-4.630911211348575
1.3840000000000001,6.860996062952836,3.0150681982486276,-3.4433271819052607,6.3596482127359195,4.906989063039873,6.608123887466718,-7.574028037583048,3.8866338360930968
1.3880000000000001,13.372743607370467,9.962558359263312,4.983842969881152,14.670331466191783,12.962571834294067,11.986677724358742,7.076451157974589,13.837036026839996
1.3920000000000001,18.76259207313069,15.84383230318781,12.129385296654618,21.420751940504488,19.548564643238933,16.62414473903482,21.99393849081025,22.87166607117797
1.3960000000000001,21.981975058186435,19.720153143961397,16.81305396325115,25.51849591131395,23.441998217186665,20.238862708261877,33.8450244455089,29.58230360216112
1.4000000000000001,22.674850630106448,21.396188682101638,18.724781338720277,26.53457712684758,24.37318538468935,22.896711265191698,40.441119880693805,33.77579907744621
1.4040000000000001,21.24581791952187,21.281504063309512,18.27138404289053,24.753101066464296,22.921397580775192,24.70317762932973,41.368482605319514,36.11551674556904
1.408,18.594856279024498,19.98262589796377,16.17437162994338,21.00180543557508,20.063535723664245,25.587648929567877,37.92790517710091,37.44416495173937
1.412,15.669429937172026,17.906071964604962,13.090027480464414,16.3552189946422,16.67236433134258,25.328036406346655,32.43719816551493,38.24289298661097
1.416,13.08712274166919,15.103404069320277,9.426639888171849,11.826476901054775,13.21309085257326,23.79644353251024,27.227949156909744,38.507516034296714
1.42,11.014861910771288,11.456124597395501,5.420453523134711,8.15874864991929,9.784042565966956,21.262780624345396,23.8032910150323,38.036871332915325
1.424,9.28398738314354,7.025632482501351,1.3268170431620092,5.7243418452471815,6.387206504292408,18.481224009643483,22.48485596806131,36.84120864221404
1.428,7.6274515324867025,2.2957720058566338,-2.4619279771004585,4.51473508618983,3.1959919866312703,16.44259967729704,22.595608454552348,35.31136231187702
1.432,5.909090039669536,-1.8605635690037161,-5.439312180150409,4.2331574943073065,0.6677349852416228,15.9128342226104,23.015291669251383,34.05055950132555
1.436,4.22685719614401,-4.520572105678184,-7.149799956880088,4.443028956311537,-0.5867603105270973,17.007178618352555,22.8056400709047,33.48025338102707
1.44,2.871383276310553,-5.152548008478334,-7.37354839163163,4.737095921442233,-0.08157246294376819,19.069207034059218,21.618377852579215,33.50040288132914
1.444,2.191261129416489,-3.896562580450336,-6.199390001989741,4.889007991261678,2.2991863372126318,20.970649069515275,19.75092799808226,33.504329006786065
1.448,2.4587127544682517,-1.490500892802629,-3.9290762435011857,4.943032489183679,6.237320315471152,21.68775160642508,17.89597353777208,32.76727746395045
1.452,3.7812761690429397,1.131149110876322,-0.873853694914942,5.201722559502741,11.139314435758024,20.852683376080677,16.792342680002548,30.990794833029213
1.456,6.046651262136038,3.2950302407698473,2.7809435121616843,6.077561841260831,16.372538009838536,18.955911617118545,16.93188646031922,28.639754075877136
1.46,8.90471966763289,4.845320946940774,6.9554323154252415,7.869627566218696,21.439436118190315,17.079121141803626,18.421857194600307,26.802463248750428
1.464,11.806776802535751,6.077482203063482,11.541506798695991,10.579526404046192,26.02787400564557,16.30280490491168,21.043302838863383,26.623743720843777
1.468,14.134635104657718,7.418606190549326,16.25084842953038,13.868494211415964,29.94612104370026,17.106860882006004,24.371951513217937,28.61504875123501
1.472,15.401506567846809,9.079639789591056,20.577896474832414,17.184836282302058,33.02930142860441,19.106195208201825,27.89467887580213,32.24816222152185
1.476,15.450400227568025,10.88781036950968,23.92307272295784,19.9904541340984,35.094598021280035,21.259676458517788,31.09729537610292,36.10737612610501
1.48,14.550989031429708,12.397483791643026,25.8177019019231,21.964374467346715,35.98676790814534,22.429272224406304,33.52216508939091,38.52884176125917
1.484,13.312246411787783,13.187126852260917,26.121415225577948,23.07050309501028,35.66286477862013,21.97262275508001,34.84516253689253,38.393611407760545
1.488,12.396723819820181,13.12131612961366,25.05572661487895,23.453421404903565,34.23609252858114,20.037528234835918,34.94637359324588,35.65204795729005
1.492,12.18619543267414,12.429970137301098,23.071199915583747,23.269808664141237,31.96329016972868,17.427870956249535,33.94814607531589,31.32924823878966
1.496,12.57394258714703,11.541224672538192,20.61350221166049,22.568051521056987,29.157286093992298,15.144250516001193,32.185452116867964,27.018530016199293
1.5,13.022710704459314,10.789585510143297,17.92025280758844,21.30635031179918,26.072529101076725,13.8775879153618,30.080549629321467,24.155237836599554
1.504,12.880615205587674,10.206222845005868,14.993229931410497,19.502236359036033,22.851492674995825,13.734782473718951,28.006718611455653,23.474445340363673
1.508,11.790926068233603,9.53163885586946,11.749472633152436,17.399419115148703,19.561167370537078,14.31117451073078,26.210639925957366,24.8690307124416
1.512,9.969513904783526,8.451227105374528,8.243631007221666,15.51823083358613,16.29607427368319,15.03526891238289,24.812334983915207,27.645259336351955
1.516,8.118978090496967,6.8448309913746925,4.773339791010585,14.47084960891516,13.226988399194852,15.522943107207539,23.841228838662573,30.91316879785154
1.52,7.022121240195702,4.907747694218415,1.809751452474302,14.631096522653024,10.576913342239095,15.728554310586333,23.264005869545144,33.86440979687541
1.524,7.064357338398622,3.065179295339476,-0.2180479284706962,15.870759095518224,8.541777543779972,15.836750840418972,22.96852500876048,35.85933403856325
1.528,7.9788389281875425,1.7474983122065169,-1.1304919903941482,17.553232621803545,7.218609488067159,15.99821433245961,22.71867013834526,36.37207328193108
1.532,9.017155662691948,1.2031697093116236,-1.0445288471055392,18.849607550973815,6.6190181348129045,16.12626192548487,22.152450408711957,34.98278723433032
1.536,9.442078661253618,1.4417059069346578,-0.24024822798492096,19.21325252936913,6.751405226379575,15.915268009779538,20.895603812503396,31.55172040137404
1.54,9.025421550151805,2.3308123832175625,1.0774886733688618,18.736266788255307,7.7150657073261755,15.077503266122221,18.785136403912475,26.482942271559295
1.544,8.24147209439252,3.7469933649008453,2.935025433316696,18.155593495177527,9.700549231702098,13.638312308128661,16.085711513886054,20.84419197398529
1.548,7.9868694141368906,5.652600569999777,5.5370450728933065,18.45354426281301,12.861714711658351,12.050093738042051,13.512630658260605,16.14229810121833
1.552,8.985633686086658,8.045341575731072,9.02987417555596,20.271853281736185,17.122864776380084,11.015593372838339,11.975355636190216,13.74636866277433
1.556,11.244900253073865,10.796504101806931,13.211172323695791,23.4590220423579,22.00694344764088,11.107954516020982,12.126534498962428,14.19585747068777
1.56,13.949049071125046,13.551384391173997,17.422581098589944,27.06233597532082,26.661307704107458,12.414450675169064,13.958336612733547,16.84139189887719
1.564,15.900024995351487,15.798791073430039,20.74727784550305,29.798389926399977,30.122322470084328,14.433930464427249,16.70538724263315,20.084850457962602
1.568,16.259059522895768,17.110159780955655,22.44822436582035,30.746539608968305,31.717884002408937,16.304345476797607,19.175761277399943,22.166261454694904
1.572,15.130832899183588,17.411827273066592,22.39826964597887,29.870836610367405,31.408880949889863,17.25772303762278,20.396220025424554,22.122963602294476
1.576,13.569928336557496,17.05584191087837,21.192277333275342,28.02265572078977,29.82606668263179,17.03071073188039,20.173417617257655,20.35973752760765
1.58,12.962877772293723,16.61777575119413,19.845186533802917,26.410543270543712,27.95128278527045,15.970187092712877,19.235700094992353,18.43838628902813
1.584,14.125139951986057,16.496732416026134,19.19407066128042,25.830582937265717,26.565299430703817,14.779358033349126,18.809500503455638,18.147095590320532
1.588,16.697399767555908,16.580659117284085,19.36070664755607,26.14901109022503,25.78416253312389,14.072480734448618,19.805832092672063,20.383143990431563
1.592,19.23365304003073,16.216861653792876,19.611465608963044,26.354170683978737,24.953859873477086,13.99860756351518,22.097007094764194,24.4849648821164
1.596,19.978527319738077,14.553684838001573,18.738557086342098,25.174347492542438,22.989719857914224,14.197851261416872,24.380729467764468,28.479425345784875
1.6,17.952594072507054,11.13533857616676,15.814374108035281,21.951539794284145,19.049038928919344,14.125849523458783,24.816758105858753,30.189061781903547
1.604,13.67032207027296,6.380119669010128,10.87652473095477,17.227137386136746,13.162579792484394,13.507145305866288,22.095451636187136,28.564523882829235
1.608,9.035841250690282,1.6222007981596107,5.119298828059982,12.658333613857394,6.450748563167508,12.614458721764095,16.35462426397862,24.451287548905384
1.612,6.425517042654974,-1.3759879150184133,0.44252132740803063,10.267408766223525,0.7716360921385785,12.17651672017746,9.379246459793649,20.292334288773418
1.616,7.417834215817493,-1.2813181588371663,-1.4767801801863243,11.376181487525173,-2.0973339492666128,12.918688990008377,3.8379096144635696,18.829689791651617
1.62,11.903895320947413,2.070940498082564,-0.04150879166809318,15.837325181961205,-1.29563152031551,15.027345127251465,1.9432792778170551,21.52279185338557
1.624,18.109612312991885,7.49903614528921,3.9693877537720255,22.01370828425388,2.717301684366248,17.89614199474454,4.267155621952043,27.598317187330395
1.6280000000000001,23.51721355216432,12.99287716015715,8.842152580367838,27.539001953979096,8.417005305305793,20.354582304640644,9.375891054940439,34.30362797673661
1.6320000000000001,26.177986351231084,16.700942474335534,12.877969270759422,30.4711336379587,14.005880143315153,21.282555506008066,14.535578714514486,38.281062636513525
1.6360000000000001,25.67264466915367,17.843055686404114,15.290775172094072,30.20585878156271,18.28429607736507,20.26139348833385,17.130176014836252,37.33403633437047
1.6400000000000001,23.189095998466655,17.044829221616965,16.529266664663737,27.657629963974614,21.12198405998788,17.86303815953579,16.01549778977278,31.598381002764654
1.6440000000000001,20.699270216777222,15.894450539915852,17.840696683273563,24.634196160484862,23.28150677830672,15.38970350172167,12.086325303065678,23.503817779095698
1.6480000000000001,19.75715404110815,15.977038288863696,20.35694855658221,22.790640677134434,25.729367529873343,14.187332425473869,7.7343873326699395,16.548594337135
1.6520000000000001,20.633646658703583,17.959732506407818,24.28807901093751,22.76052998206069,28.881405830162294,14.91577730840072,5.53438222706427,13.546355777296412
1.6560000000000001,22.266735629860705,21.217743189441535,28.690752043696193,23.93285409947748,32.222893699027736,17.21428467644364,6.914689036402706,15.302179047244863
1.6600000000000001,23.030110545145362,24.234035684457922,31.984564111060536,24.981078665055975,34.56487387909692,19.946312641095574,11.515637191490896,20.39261010739574
1.6640000000000001,21.799122476852062,25.509804975205043,32.88879960511258,24.764239571899452,34.76157327693909,21.858743211785622,17.529484368138583,26.061893592210254
1.668,18.650476611583144,24.421062855031778,31.185009619019183,23.02955558427493,32.425957792227564,22.26500504173964,22.72006779860385,29.677450817402132
1.672,14.812416037626463,21.56212412228342,27.876746582649503,20.536922842264175,28.245772900512748,21.35953345486996,25.555917875441082,29.965994146088633
1.676,11.883809103765088,18.346758442667124,24.617390324216103,18.532839323444932,23.663888194139872,19.990016057119647,25.817556696838437,27.396765561410575
1.68,10.831282274113619,16.14090200197461,22.772237459392272,17.938417649125768,20.117540145103703,19.06628402358183,24.37632668909282,23.638872740331863
1.684,11.421195493541745,15.481533556080649,22.687523844914722,18.789124346872995,18.301991515596455,18.993787653904292,22.446013971833963,20.54333477167529
1.688,12.405857088539051,15.819365694012049,23.576716619119907,20.25405123836572,17.86374827059717,19.47535284015612,20.81172237959254,19.239673664535076
1.692,12.368179088451143,15.947273026116818,24.074870698450468,21.226958299917897,17.703291130981597,19.78694927218021,19.50017839404245,19.784722310818324
1.696,10.680661400971076,14.809675283978322,23.09152475454539,21.07708390771586,16.667372964574497,19.312163487858925,18.01467618861716,21.402268844822174
1.7,7.953237420248115,12.156355042945506,20.408691884908876,20.04618899486013,14.186349428382528,17.96809953671618,15.873402964652996,23.03672160114911
1.704,5.684722942471126,8.647412781603634,16.69096452658414,19.033340793754178,10.503512962452987,16.24867603083112,13.055180006394949,23.877220244974524
1.708,5.342432355539131,5.383584613702624,12.97205671750271,18.917935716803186,6.419687275449178,14.877392529342615,10.080435148343895,23.593652337183812
1.712,7.479865459370558,3.25579252218904,10.063917189737367,19.91660611093903,2.834934490472733,14.32513704462508,7.7246161556668085,22.300689348692686
1.716,11.412355137594204,2.5181243340311994,8.247856554140526,21.396446031973028,0.38016618004985503,14.51144760565876,6.56420190956851,20.396556213590884
1.72,15.659698359879258,2.8459853341173584,7.407301557537721,22.2975302952309,-0.6537262310766891,14.88702652860411,6.681833208785974,18.432596209879193
1.724,18.857438030940102,3.77030220677716,7.420676840357373,21.88081663957928,-0.14515351973750512,14.82537558435979,7.690632608404485,17.03017226357042
1.728,20.51351148197864,5.085045183976035,8.414125227980549,20.2625570846576,2.003696685932482,14.034641786151042,8.990989733070819,16.75346787547278
1.732,21.122314462940267,6.895912182286338,10.619614639621432,18.339603574995635,5.7931503989393605,12.696513929524372,10.044630181948378,17.87780150472463
1.736,21.592899535547076,9.267174573210468,13.933750831527504,17.132294130273294,10.860390072664813,11.263683369716091,10.526636016704288,20.160952101266957
1.74,22.39687499226875,11.76463521839014,17.55182416153093,16.96976606316457,16.255113564115163,10.06148169003427,10.326566638210352,22.7667841735838
1.744,23.06507951430376,13.32429965218762,20.06116806812679,17.107498942108577,20.554496228693097,9.00758732111899,9.489440188081062,24.51411292828925
1.748,22.448583862445957,12.694669108886046,20.111136043063198,16.130998016295052,22.429819232129375,7.68727323555504,8.226606133463065,24.46117275900724
1.752,19.60055051135714,9.262649368422899,17.30439978740469,12.939229803519993,21.398357498394034,5.739501885534992,6.984246918809731,22.497420047655396
1.756,14.679719417126762,3.7054455493753267,12.691960093507078,7.660955203569756,18.255860270382072,3.262978456692508,6.448690447550689,19.534164277953096
1.76,9.217356746329642,-2.0469074555203406,8.446467674271844,1.8635171236746828,14.827510361164968,0.9259970289676858,7.358123111729583,17.12592393848172
1.764,5.429419626972049,-5.704941289811359,6.726069396825551,-2.2090552072731953,13.020186753974485,-0.35936558635330584,10.078841456714144,16.633587071486545
1.768,4.903735271470396,-5.935355078938301,8.338474207496802,-2.9827990971352847,13.656720634629892,-0.03977384034806164,14.152523123029823,18.336623215680447
1.772,7.47640234615028,-3.2722070899490063,12.075458933777554,-0.6435065782261518,15.838290722261263,1.5826991015201202,18.185273143462837,21.06131016647487
1.776,11.07367212294048,0.014731860854226397,15.2151984117354,2.7681968768010847,17.303865366249738,3.3235038290058583,20.27727250634598,22.64079046146253
1.78,12.752057826236523,1.141962621917628,15.017431083595511,4.430705787050101,15.686309438251556,3.6544917796200025,18.866997721595908,21.01346276725417
1.784,10.411004472551213,-1.5187776779130218,10.383146386247063,2.402412068046033,9.984146649212562,1.5438728574172274,13.599907193975014,15.38649086404439
1.788,4.1758068210119745,-7.325287105718417,2.6703543603453,-3.117709166035638,1.3601638330828791,-2.893002061853622,5.721768376155524,6.81157955648996
1.792,-3.4327572691154273,-13.523675987675233,-4.881148350117655,-9.733442641118017,-7.264158393835714,-8.350829964014338,-2.300849060613473,-2.2063496930259134
1.796,-8.760938301180431,-16.723643094501313,-8.90398018151518,-14.131969914415095,-12.702849906198026,-12.961103744979482,-7.845215002194891,-8.913631295501546
1.8,-9.063156526885905,-14.872130756842125,-7.824878778213133,-13.98536686585794,-13.242971897197094,-15.25556450219301,-9.344094235018929,-11.668012070134864
1.804,-4.146005014811635,-8.558231261060428,-2.8082056057073714,-9.351181559382894,-9.602629734463335,-14.93179385997064,-7.01492574473923,-10.697676857749684
1.808,3.3522458302450104,-0.8667702221191576,2.8441307801031144,-2.742915966657165,-4.5507947622363645,-12.993097730934096,-2.7249373785780335,-7.896432342444314
1.812,9.278631028779273,4.223344368588187,5.552076226204008,2.211641424422851,-1.356227839969506,-11.18896570295692,0.9789323379482084,-5.7833032100097626
1.816,10.15093385018281,3.9863168564115767,3.48688593764291,2.7395854726128164,-1.9696812746751675,-11.082011267646521,2.135725565300163,-6.201441411149062
1.82,5.001650560037888,-1.5679161392436072,-2.3971395218450198,-1.6110461612461222,-5.980058107771583,-13.268418638293952,0.2734285431288299,-9.4725086695762
1.824,-4.150126755277597,-9.72549405665086,-8.94389456393219,-8.842681647740392,-10.951442315101303,-17.15291256762066,-3.512739415251417,-14.404676873662538
1.828,-13.45640288642062,-16.599261716114597,-12.649186835635192,-15.757457530542524,-13.92285054713011,-21.36931121050111,-7.290890938445955,-19.078425310468447
1.832,-19.331438195353257,-19.23968487523598,-11.672541575985633,-19.788683087857862,-13.148902298949906,-24.566912337757458,-9.37909117297204,-21.923569640413916
1.836,-20.279133061555513,-17.124572316590275,-6.8370385820644515,-20.320369415481764,-9.049921071054086,-26.08785079837253,-9.186523107631729,-22.449301476015535
1.84,-17.47329096514568,-12.23476553373439,-1.0721226811965607,-18.774126482057,-3.85660948540135,-26.191564934890266,-7.387122318195907,-21.280169602869137
1.844,-13.837498087486892,-7.760597187032545,2.309507200634471,-17.50293380535004,-0.2357649095411034,-25.74976251447515,-5.4334630426965305,-19.58689943013451
1.848,-12.252070734836707,-6.264992520314081,1.4644845992061164,-18.241303006017006,0.2348544491096618,-25.654916597406555,-4.749554241605438,-18.32212870758667
1.852,-13.963828619484048,-8.364467817952573,-3.0526120918048036,-21.079908439623978,-2.1515072884430992,-26.325230047859804,-6.054891167110327,-17.726478852717264
1.856,-18.080237163629135,-12.639715440454893,-8.784649834514312,-24.55758041831905,-5.62708686503629,-27.56676273346966,-9.160460797438645,-17.36076553060593
1.86,-22.32121675824419,-16.691255152389203,-12.907109595344991,-26.71951510751751,-8.20359519648082,-28.81438348487609,-13.253484858043521,-16.586610296149956
1.864,-24.465016241904777,-18.602241090966345,-13.833869224689806,-26.40874000264921,-8.951166506375557,-29.54960511945501,-17.415823661054674,-15.146316041264072
1.868,-23.594817294868335,-17.927371006443536,-11.967249810449175,-23.96749368280507,-8.517937804725989,-29.61795497460116,-21.0279006846813,-13.45381241215182
1.872,-20.454596204488553,-15.687006302697228,-9.230436829950122,-20.94612224227876,-8.610975553319804,-29.274535435155485,-23.87711120829772,-12.43757545938388
1.8760000000000001,-16.818639292466287,-13.51681561759142,-7.777541233277589,-19.068631796299996,-10.825953951520205,-28.966236443868183,-26.021192701342443,-13.028495210237452
1.8800000000000001,-14.346162518136225,-12.584693326180968,-8.705137578781432,-19.131791868516302,-15.573046096328653,-29.021002011884775,-27.5673472223516,-15.578665057611943
1.8840000000000001,-13.682373312587515,-12.983662427541276,-11.546585604906795,-20.5575709686309,-21.78525464205495,-29.44779922329326,-28.55701324857364,-19.557365944143385
1.8880000000000001,-14.317988158682965,-13.916620479774792,-14.758690649240634,-21.844846360537304,-27.549532821467892,-29.951904446688786,-28.996628861473255,-23.671539719591237
1.8920000000000001,-15.16068154853383,-14.41378462226021,-16.779960392965222,-21.573656664367263,-31.20804197801135,-30.133637446509965,-28.970797590786788,-26.368045685081597
1.8960000000000001,-15.368038691559377,-14.056010453427916,-16.972852933855393,-19.319011849336675,-32.25369420203606,-29.72813987657537,-28.699599167828637,-26.500618420954197
1.9000000000000001,-14.874031152903626,-13.216295710999475,-15.880461597677822,-15.907532997326598,-31.48559090159415,-28.744743983555963,-28.462140761524097,-23.83511809882657
1.9040000000000001,-14.300462542015339,-12.704283048846264,-14.725151288533198,-12.897517046008943,-30.39164575874929,-27.450673667879528,-28.43123785395801,-19.18080990242015
1.9080000000000001,-14.39843146849671,-13.127081969984829,-14.548471352953129,-11.65249724332898,-30.192954982439915,-26.219923069415017,-28.52597168824468,-14.095599432226663
1.9120000000000001,-15.453021095140684,-14.421589910219154,-15.566423168053007,-12.595021585440008,-31.12789952716139,-25.364777899711044,-28.43280832285018,-10.292234521215505
1.9160000000000001,-17.06984572700094,-15.897870798732583,-17.15638503594164,-15.087720733057722,-32.419364154199684,-25.032558592165515,-27.830286769678423,-9.0091862592717
1.92,-18.47920325650648,-16.73654021791981,-18.390275483635833,-17.951882275926437,-32.868524043069556,-25.18407761890012,-26.66078703103176,-10.580530788839496
1.924,-19.13184035204449,-16.58178856433915,-18.713389119738622,-20.251443183973606,-31.652837285986607,-25.640197411898043,-25.263031322443567,-14.354496879686849
1.928,-19.119409891197392,-15.799607875662787,-18.28511482584281,-21.810804058698523,-28.82567783498007,-26.145152568935373,-24.22514600757495,-18.986405654832197
1.932,-19.11317796590174,-15.203786027516344,-17.762303715263897,-23.151252448424202,-25.225960370092707,-26.424430941328865,-24.014028168461664,-22.95975073079171
1.936,-19.851135190652712,-15.437519976827389,-17.705787198955477,-24.91969707136468,-21.900095454654092,-26.218377089007845,-24.590668530735456,-25.087295686724246
1.94,-21.49997804546274,-16.42694987591085,-18.043256790625946,-27.209652045366965,-19.441774770671145,-25.32383179322005,-25.23607441731383,-24.810883529082275
1.944,-23.360237086725647,-17.315972355986105,-18.01940295773784,-29.269165573282407,-17.707174950455737,-23.656636615576645,-24.77845455210536,-22.255033773753894
1.948,-24.15896769832443,-16.97453969713206,-16.70901545400602,-29.823165207270904,-16.079418095388064,-21.307624836848845,-22.19111857947064,-18.07300237081472
1.952,-22.77916906929886,-14.758745429060582,-13.754421003764946,-27.821466400906502,-14.053416992673192,-18.573863868299668,-17.2358341151903,-13.199277864930991
1.956,-18.989110887192055,-11.048550016353147,-9.843004897959418,-23.159085052877344,-11.739082697344656,-15.908910513916453,-10.802747732422176,-8.636342278948177
1.96,-13.731976879299054,-7.206748409323154,-6.550876112211881,-16.926382013849434,-9.927813270420756,-13.799221582398786,-4.702386684804878,-5.325795026884407
1.964,-8.743445652057744,-4.921511427142377,-5.565165358879767,-10.994697215167434,-9.64198161275499,-12.601362033826263,-0.929850787308169,-4.050009524386951
1.968,-5.6651710135352005,-5.278011214743856,-7.688983722888679,-7.118278696111702,-11.426048715768957,-12.389927014428395,-0.7121636483807379,-5.255733368995607
1.972,-5.155315996865738,-8.085021173025325,-12.219663937344194,-6.041859069269776,-14.835693752725547,-12.913003104671589,-3.8441861756327853,-8.847520507617446
1.976,-6.507203906596715,-11.860935460485962,-17.11582304369813,-7.1172725184924275,-18.49068254858048,-13.688071586249862,-8.696237556268898,-14.055192529616761
1.98,-8.00816400339454,-14.525706365863243,-19.93232942552322,-8.65967588539661,-20.715142879191262,-14.213164986744232,-12.948174494544219,-19.51338136299455
1.984,-7.878334255359732,-14.466228732898344,-19.088955744678515,-8.883123334017,-20.4563119877389,-14.208169125564382,-14.761466742897937,-23.65548029728052
1.988,-5.29165410655196,-11.422672637304913,-14.813535356214743,-6.934097430024849,-17.98135400190813,-13.777431801596322,-13.804700176870938,-25.34549018076177
1.992,-0.9126726936588057,-6.695378438163061,-9.20418917213783,-3.45652579612306,-14.90346945401734,-13.42030947577041,-11.571131867385702,-24.46374036877205
1.996,3.313164064704324,-2.5821321813327813,-5.342836047030232,-0.39099765506671247,-13.484600890039928,-13.862429222505853,-10.775637258813731,-22.119241100929685
2.0,5.022656439428829,-1.3326379830086807,-5.879409358991779,-0.08734193811687874,-15.54763428652177,-15.754321305651501,-14.051758711266302,-20.299088646511336
2.004,2.55018359710175,-4.101969302616453,-11.746675532199333,-4.135014023083386,-21.514921756197054,-19.349180467191218,-22.53786757792841,-20.99573811072696
2.008,-4.225279965875416,-10.382964909893872,-21.610198698884233,-12.462111411208753,-30.048518639163376,-24.28552867939652,-35.04082520424254,-25.17600234879501
2.012,-13.662687668615035,-18.137064074765476,-32.29728921877313,-23.132791524289132,-38.465280495235675,-29.58232871564087,-48.231867986578436,-32.114030303453546
2.016,-22.893417067427436,-24.5598734729233,-40.01339033186787,-32.971700873499685,-43.74121910251233,-33.8725606931348,-57.82156847669103,-39.437116258834976
2.02,-28.88035762632444,-27.149515642920505,-41.81773574818908,-38.7599887373799,-43.673330915461065,-35.805500622495856,-60.23976311665501,-43.97919372810429
2.024,-29.55559883358046,-24.628313395459372,-36.71978836103335,-38.48524468020605,-37.6922180064621,-34.48538725258186,-54.083571867315186,-43.099525273504696
2.028,-24.626103405894355,-17.411373049932536,-25.9985242226021,-32.14524171194489,-27.036614853795072,-29.806701462332967,-40.70006870819452,-35.88035901570311
2.032,-15.725062391791653,-7.465905588764144,-12.675661766883877,-21.763751423743088,-14.261059254775319,-22.55825065697354,-23.682306353833155,-23.642956297701858
2.036,-5.848121548540803,2.357618326795091,-0.4110879456584371,-10.62563544984505,-2.3347952559579426,-14.244443406124446,-7.504586525328705,-9.527966991111498
2.04,1.7153241213932233,9.277260251601092,7.730043709671463,-2.055874921776649,6.293310769278378,-6.661767428240637,4.104294950671829,2.6842532859636776
2.044,4.600271181540393,11.516946828515302,10.213802815421786,1.7878390810319615,10.359440966843522,-1.3541466302631306,9.393403096201837,10.026362740376499
2.048,2.2483075605050544,8.878969403999236,7.368312583243551,0.6147375999498763,9.969604287361562,0.8448258896005427,8.918576621073498,11.395064786928742
2.052,-3.8725175997792576,2.793572515627602,1.088486621562879,-4.035628458586416,6.339342847602666,0.03628286546882009,4.940030032447794,7.7694333689305495
2.056,-10.828933500064522,-4.193585806789997,-5.929048196254371,-9.515395701772832,1.2417455354782305,-2.83687438288689,0.25857788996881936,1.57891342970197
2.06,-15.409366225652775,-9.373000175336983,-11.163787513485659,-13.184471973913332,-3.6418060869259534,-6.390349553710621,-2.999450012860052,-4.461657661262507
2.064,-15.44356433888288,-10.890022000796762,-13.112376998626132,-13.453353502881782,-7.239751192442554,-9.347611542910272,-4.111048064279203,-8.488537351958257
2.068,-10.694456637489111,-8.430042380694886,-11.715097038671047,-10.331832453246989,-9.320717502621392,-11.003210977227354,-3.7285259820487227,-10.070220032238467
2.072,-2.8942543536700214,-3.235843995041023,-8.194691667159077,-5.261212290982257,-10.344380646569107,-11.393708125072408,-3.194924289935898,-10.019278862786905
2.076,5.092274246614579,2.5573877512244962,-4.381743334557086,-0.34416225335871786,-11.019993272791453,-11.104422809456992,-3.5944330806578364,-9.618561134962874
2.08,10.586816516684394,6.964080404133483,-1.8158116402930773,2.652287996119867,-11.793209562421907,-10.829460941678008,-5.042066518235515,-9.727155547991515
2.084,12.25006146285341,9.052697223005225,-1.037154920116791,3.0420867876764532,-12.527455665072011,-10.927637433895143,-6.586448260587531,-10.269510819364768
2.088,10.478168226673006,9.220818255433414,-1.4395824085079312,1.3510130401523384,-12.585838668732094,-11.223883620081779,-6.793602219272998,-10.38348248073953
2.092,6.898629705572603,8.722955035938867,-1.7527722400932362,-1.1864889892408428,-11.280869993614715,-11.175695388436907,-4.700808376345776,-9.122422117626684
2.096,3.321705284573909,8.766108516331315,-0.8869971061978958,-3.4399301373809976,-8.433146040048314,-10.296589622921601,-0.5709280866340123,-6.259816322369261
2.1,0.7665792463831167,9.713943518915357,1.3260994817985647,-5.032489906810952,-4.694009541148262,-8.563191178714533,4.0185095173555965,-2.671791404412488
2.104,-0.9142234665566775,10.869887738036368,3.9274511967300896,-6.467440819964395,-1.39399995291933,-6.54548624548579,6.854454639696996,-0.026168126419634063
2.108,-2.6238034375905954,10.985044755705758,5.317158074547933,-8.661506815051325,0.06590997982857516,-5.1550105969404285,6.234192434677425,0.09080034886346766
2.112,-5.150637262220698,9.188237491498057,4.198699941913219,-12.167872459158843,-1.0115650498653395,-5.127773543056264,1.961080270445109,-2.8594126511202376
2.116,-8.440261935543276,5.732639756053231,0.43799695897359925,-16.577638163257234,-4.135639299282957,-6.545341494796958,-4.384222326171766,-7.893905917278062
2.12,-11.501008336181258,2.0330839954865496,-4.7021340095263895,-20.49925839921434,-7.775033952163312,-8.691749529904882,-10.127376934535278,-12.87850588046831
2.124,-13.026967830471676,-0.08808131824639531,-9.133231829110173,-22.19350735763055,-10.122151214208998,-10.36977417198841,-12.842770008269326,-15.603891976832529
2.128,-12.293358116734908,0.49630205821108575,-11.020019202402636,-20.51227495667763,-10.070065962069066,-10.518104062222392,-11.636205292531486,-14.988479412111701
2.132,-9.733341744177324,3.4584468175621623,-9.755490219442436,-15.605993714465967,-7.839587270881566,-8.786047332279395,-7.656461001590742,-11.728424584335244
2.136,-6.756819916142604,7.110455419724076,-6.263562769622922,-8.958804219545527,-4.86646520283125,-5.726331610322632,-3.5104129519545495,-7.968018251395733
2.14,-4.89684875136777,9.34546109826556,-2.4477369959374755,-2.7078912586825936,-2.9879888536911494,-2.500495225991017,-1.8764558053935616,-6.147848967023037
2.144,-4.832709680345943,8.88124158418259,-0.10486620744700303,1.3775809366961767,-3.3824773582005037,-0.2614223907194173,-4.061648125142256,-7.657799245871956
2.148,-5.9516274088118735,6.012417526163063,0.013289309274796324,2.6772771316693706,-5.9117131341934055,0.4348262232056186,-9.312210026140292,-12.039720430150737
2.152,-6.754596869821853,2.4111629663982512,-1.5370223213940335,1.84596582587983,-9.245778416969415,-0.14419023089612892,-15.257133908649848,-17.221447024776808
2.156,-5.863967793418624,0.07887911968418848,-3.4320568721427662,0.24684305190385203,-11.709475511630671,-1.1507684214138862,-19.222891311657804,-20.67883563262967
2.16,-3.034464284090973,0.0673071089536279,-4.56326059433195,-0.9625908169837203,-12.351697436334462,-1.7148366837227513,-19.687004649577602,-20.863818705818176
2.164,0.5231750474576984,1.7878375306245289,-4.804377306407105,-1.5221338432024822,-11.557745505064076,-1.466283730347186,-17.03966823969722,-18.071819321753537
2.168,2.7838994923295104,3.369289600589582,-5.046502510850132,-2.1218548546687543,-10.803135009895868,-0.7207620066560594,-13.233690896758844,-14.244929988381045
2.172,2.14127839153889,2.856112629740437,-6.486358215997598,-3.8320473312312515,-11.6921566850217,-0.24876027461687045,-10.577415842211394,-11.851988280806381
2.176,-1.5514712875888108,-0.5199324968170913,-9.670721823631084,-7.317913606388174,-14.88441424811549,-0.7960101511771427,-10.424079264461852,-12.510045388571143
2.18,-6.768327716350541,-5.779596300390494,-13.930381229108662,-12.322416455208895,-19.564340191783458,-2.642022686643486,-12.499375832308033,-16.13032606368438
2.184,-11.08780046052334,-10.705916904180185,-17.61437673731257,-17.731565016570585,-23.79896352771857,-5.4528844438523265,-15.22948520689215,-21.07698249357827
2.188,-12.555162299604035,-13.15114778173745,-19.036851578781352,-22.19003316429894,-25.613052310469357,-8.491283565196682,-16.821990025996,-25.205947814674346
2.192,-10.7791396453772,-12.289371611781803,-17.504543714452666,-24.820298170035585,-24.08580870307094,-11.004900248647573,-16.37753710770812,-27.09936421375096
2.196,-7.127623972105766,-9.073562873634728,-13.796441489508993,-25.62338134295419,-19.844510918800097,-12.560771860952627,-14.376165207041367,-26.77569467604303
2.2,-3.915629441587953,-5.63024420987324,-9.763383046117156,-25.34087873503654,-14.67063912223648,-13.157935799225925,-12.27967544434614,-25.495198730638094
2.204,-3.071770307065435,-3.9623706438401314,-7.249256292933865,-24.88764285776142,-10.45566245177747,-13.09511960025793,-11.52598994993923,-24.806825737785402
2.208,-5.0768172261446125,-4.795020068338658,-7.024164698537334,-24.75251256579668,-8.176907442453967,-12.727463609361166,-12.594963363349052,-25.484735497608654
2.212,-8.793134944512758,-7.263947701027519,-8.38922270450064,-24.75730001157808,-7.50668810440925,-12.286997956139658,-14.74945146360642,-27.06104866505075
2.216,-12.222742279697059,-9.585907069577729,-9.676895122998985,-24.29520022499537,-7.244988645139415,-11.85679674525636,-16.569345672824966,-28.21641958840064
2.22,-13.698295564844102,-10.24927466380359,-9.333830530152682,-22.857127560771232,-6.25497486518816,-11.471543691849092,-16.907652020188834,-27.739149305439014
2.224,-12.77966987198488,-8.945354865817308,-6.902353447967016,-20.47267904972523,-4.281689397842683,-11.219350773782935,-15.65461078226781,-25.432380713243447
2.228,-10.358011555838743,-6.679818695468157,-3.299820399540522,-17.773882450678002,-2.149910796110703,-11.247000114288767,-13.823232387471307,-22.374236349432522
2.232,-7.979706453631479,-5.033378421177531,-0.23420556792973457,-15.650077420644607,-1.2344271103689834,-11.659873551341207,-12.917133382640941,-20.357404903095812
2.236,-6.862929713486324,-5.0977400270132875,0.8526894130479832,-14.726917671325964,-2.5790550891482553,-12.405187693736025,-13.985737258095924,-20.84486985771241
2.24,-7.241532227684502,-6.81128463377263,-0.3774736077173202,-15.024049879913036,-6.263180639176767,-13.25027854007294,-16.968721490356643,-24.09401745926675
2.244,-8.367096622187091,-9.082008262329396,-3.0317472613239715,-15.978830276399776,-11.38047812142247,-13.869322703777925,-20.711848601990937,-28.95424588707874
2.248,-9.084943307617323,-10.567871560343178,-5.605230179249247,-16.800830758676966,-16.60648977814867,-13.994492374692527,-23.604977427481344,-33.457965208574024
2.2520000000000002,-8.57635966032683,-10.555155904880962,-6.908509435740143,-16.92615494809388,-20.94174311996096,-13.54899832521619,-24.44597087177476,-35.853108581769106
2.2560000000000002,-6.7983398475344075,-9.354854242574675,-6.712652735862491,-16.293269746905935,-24.134636452317295,-12.670893026316776,-23.006822714879263,-35.459782510361265
2.2600000000000002,-4.406361681726764,-7.9891640718551,-5.723317414265125,-15.305465364718657,-26.52811778239675,-11.61572005693938,-20.009763340640802,-32.88470099953179
2.2640000000000002,-2.2897782184734865,-7.416384832418885,-4.957847197924991,-14.544723198195243,-28.47995716945121,-10.610758791453804,-16.6001824845182,-29.52857046741792
2.2680000000000002,-1.0804135093565037,-7.872133355318738,-5.00193432820879,-14.458043376969613,-29.82766143525737,-9.763152874125126,-13.704535475233115,-26.735894948548207
2.2720000000000002,-0.9205774805818692,-8.751711862489458,-5.6342054210931565,-15.178026842603458,-29.78899138330712,-9.066418581252037,-11.659516133311627,-25.096365805776713
2.2760000000000002,-1.5532136513301111,-9.087434132894884,-6.045663448037317,-16.526471860885977,-27.403588239845703,-8.465235788955397,-10.279851432190753,-24.26373302603622
2.2800000000000002,-2.57121457465621,-8.249099846047898,-5.452222923817601,-18.123791271694813,-22.221502952633045,-7.91206565349205,-9.21435797483764,-23.315151911020166
2.2840000000000003,-3.5879616674017143,-6.346346366278283,-3.6374149550788957,-19.48766094031032,-14.749534658867162,-7.365730036760624,-8.262054651778499,-21.356124736330912
2.2880000000000003,-4.238357196175514,-4.080963934127794,-1.0752504555072164,-20.09872271136294,-6.35793235914241,-6.740455218079433,-7.4312645432744375,-18.005102120369997
2.2920000000000003,-4.101347775724662,-2.1636998822858686,1.4470369804604388,-19.472223666078946,1.3395905191848385,-5.8862676544205215,-6.735425654858602,-13.515749872601418
2.2960000000000003,-2.73237867976394,-0.7537792672610522,3.3960249463271452,-17.3088845694586,7.2481011696000905,-4.6589658011185975,-5.950609561609781,-8.549570153364357
2.3000000000000003,0.08224237933325185,0.6221645572963155,4.800952717189091,-13.730964487721394,11.19765388557289,-3.072248278318625,-4.601999880355322,-3.830119755733108
2.3040000000000003,4.013010016263706,2.619557136209778,6.093502432271521,-9.435547658772862,13.775974752577383,-1.400272182503727,-2.237502090931855,0.10971196192258503
2.308,8.06903986943604,5.395740876138632,7.590892745511724,-5.602373918866988,15.70497156404474,-0.12792570101339606,1.1530344212671935,2.9758553813206845
2.312,10.86606725869683,8.222449878762177,9.031771311554905,-3.480794887153934,17.20600484627232,0.277048045753304,4.899968716018407,4.636125618647611
2.316,11.262264094860143,9.728875468882393,9.542298686404592,-3.7846011468909637,17.781159965944767,-0.31231093491601314,7.841985678276274,5.073731061571721
2.32,9.025858952759904,8.675180918639,8.114164133589668,-6.22356227080013,16.544274896417903,-1.4728975890815263,8.882017849891781,4.420594976189932
2.324,5.125751137328052,4.795115558501891,4.316455596034075,-9.477221624657886,12.888887824426547,-2.3144625161704653,7.610710343944106,3.032607952194553
2.328,1.3861979593784781,-0.87415983771524,-1.2575400240616545,-11.723327081017487,7.025959021330152,-1.8700503708345195,4.605053384624171,1.4927431793378219
2.332,-0.3883589967310854,-6.411083411647894,-7.1185129180389595,-11.493874494454076,0.05290943400279957,0.38268587020456835,1.2066587168770866,0.4581350827480719
2.336,0.657630711771219,-9.96382654184032,-11.570347240379874,-8.419399720736806,-6.501851220281424,4.151547402424285,-1.1285743149860537,0.39001453675291486
2.34,3.956856665676355,-10.70021001764269,-13.589282189590278,-3.4640962204422294,-11.393251742418158,8.343312222324812,-1.5705988669068347,1.307262405450956
2.344,7.824901523616802,-9.163443618662598,-13.339946267905816,1.5229902040692878,-14.175187365744762,11.502348891345036,-0.3037721887017142,2.7483624622327625
2.348,10.364957242774153,-6.867509715527433,-12.02608099581795,4.69634753870946,-15.242717420832435,12.472807445232547,1.6387556009261743,3.9901470965251065
2.352,10.491145421636134,-5.37021676972131,-11.140472167968483,5.091103925923562,-15.393763598971816,10.9513925359405,2.9946810231163,4.428190441767811
2.356,8.483150016861543,-5.400243921167714,-11.570995174883933,3.021952248962748,-15.218166246313558,7.642216544364032,2.981343818386449,3.907316030666607
2.36,5.796004866640146,-6.526844761272116,-13.075264798192904,-0.1571340738253184,-14.701378897205245,3.936099470219119,1.6948118105182175,2.802589622409414
2.364,4.256360565501893,-7.512188866655492,-14.412117658484249,-2.7590806903536986,-13.269965890846265,1.2894001608891585,0.0016342666563105013,1.805186969078136
2.368,5.079253184749064,-7.107492969571865,-14.052422204120376,-3.559312346837487,-10.237997668949902,0.6105913311753284,-0.9849799224324443,1.5495501549721666
2.372,8.283834815537773,-4.762744041943847,-11.026046627344613,-2.2552480120965583,-5.339485356993578,1.9478951071916981,-0.5057361476644928,2.2995916514740884
2.376,12.762958699797991,-0.8837067845907427,-5.459404623293835,0.5621755308351339,0.9639244923595243,4.595079477602894,1.4783055998022974,3.858685854915052
2.38,16.87700825354068,3.43725175133153,1.4616447530410142,3.8019440311585413,7.5682445021535045,7.499270750369874,4.320631981459542,5.72711903022639
2.384,19.227997084396748,7.003032832156521,8.030487830151912,6.385095003207425,13.142367239538203,9.733343237339795,7.057933620688573,7.390242791405058
2.388,19.176621077090658,9.012986005680489,12.713856528521262,7.602798580187255,16.615713939157843,10.811747135404175,8.868576473491203,8.55325493781902
2.392,16.922178495291405,9.264971220320945,14.670747798541186,7.237092337502418,17.515784390309022,10.756687346767649,9.385488639836694,9.194049963337307
2.396,13.206855431924737,8.024569345672433,13.87840934037115,5.494482159414247,16.013185453253357,9.946961533979902,8.733952502597845,9.433032157205048
2.4,8.889271305896273,5.749283809488475,10.926091847197085,2.8827989189787786,12.734521022676688,8.886159542797259,7.34924114248588,9.344010498823991
2.404,4.644559653217357,2.892910921334078,6.690029054188017,0.10992157761404542,8.498506318361763,8.015785286656183,5.72383714158741,8.842092107741678
2.408,0.8875870861841122,-0.14453214376180767,2.052111119914798,-2.0269947160387574,4.085452527606776,7.628927968416747,4.212853669219044,7.713671514463158
2.412,-2.13508592107155,-2.9670991557853768,-2.2423717017506988,-2.8086858162401995,0.10532862763557205,7.861658627075485,2.9545264934924944,5.754605095012721
2.416,-4.242900123943173,-5.183612883711589,-5.652721157030101,-1.8324457994250452,-3.0765973366874846,8.705667055776985,1.872651716332939,2.907960918501203
2.42,-5.29142646154196,-6.510549219273571,-7.902512744038063,0.7881367051587631,-5.379052494882444,10.028108188354736,0.723520264110789,-0.6733151106782316
2.424,-5.222997947287126,-6.915498953355495,-9.038316763037528,4.389111280187876,-6.997399567084074,11.585751261668065,-0.8121064621481082,-4.665952676821462
2.428,-4.1653470895157625,-6.710977273552544,-9.464123169445998,7.9358094100474545,-8.347933049343624,13.0476203877447,-3.0235947945516273,-8.699479234700675
2.432,-2.4605643443493364,-6.449178630815368,-9.82152197827702,10.398359145794188,-9.896874455778516,14.053103228992768,-6.036821946800046,-12.478447653880039
2.436,-0.5788575633654318,-6.637335134420482,-10.698358142744041,11.152300462561925,-11.910004499514912,14.292445776181466,-9.668772746432296,-15.83154752565838
2.44,1.004393718560891,-7.449144831992385,-12.28064910350497,10.189825395179696,-14.242122842763251,13.580014334553653,-13.354756853051413,-18.685452010170366
2.444,1.9278986091693469,-8.600758044251393,-14.15022270776035,8.047008057182097,-16.293850283777715,11.893749938912833,-16.247152999011178,-21.008078079020834
2.448,2.025950217504601,-9.494766503523806,-15.403139743124484,5.4989758510649835,-17.214000850063485,9.385241967844877,-17.492969614299454,-22.763306045917034
2.452,1.3799283751683333,-9.52253400581617,-15.045659388575814,3.2309146268564746,-16.25238166292945,6.383799509441587,-16.580261666156275,-23.88131242901295
2.456,0.357649687864523,-8.35661032923963,-12.503886027956582,1.6643502675309492,-13.111991940869189,3.394015347561435,-13.590147276659991,-24.23302752855261
2.46,-0.43294511644114664,-6.089345727732507,-7.978016429852687,0.9637768938615636,-8.125942286422173,1.0368004506735815,-9.213894619553002,-23.623818794099634
2.464,-0.3186454915835384,-3.1586366593865023,-2.4266142569761087,1.1372739316335583,-2.1695544845863424,-0.10274021881855333,-4.5019118510613225,-21.836855957812304
2.468,1.1434397130815341,-0.16047101897470384,2.81589286143128,2.0897707288804668,3.632956601052797,0.30313538318387145,-0.45318603766509113,-18.733588950530248
2.472,3.8205764164410994,2.313041894281696,6.598563391439825,3.5418260079397896,8.261122576566095,2.104067652729327,2.3496117580616556,-14.407817186756802
2.476,6.81146881693212,3.7317400361037016,8.396711300579227,4.886321069738642,11.045221293094983,4.588786446975746,3.8726928944745396,-9.324047672642337
2.48,8.593100926265151,3.6089512455774866,8.409549636573956,5.156921628785767,11.72227304612909,6.638239988138139,4.476614588070333,-4.349335141117535
2.484,7.546278477508508,1.5415153883906214,7.327662326141876,3.272136934524042,10.369832521992407,7.124466338923867,4.605492090692678,-0.5751831138293255
2.488,2.7000017565012513,-2.639632383825301,5.913569005148361,-1.4680014805701376,7.297920415877229,5.41663403302573,4.50619265201658,1.0558553514497362
2.492,-5.650220456185139,-8.648716659542856,4.645319672290043,-8.862079071492872,2.983382455047945,1.7411317165144737,4.135642343109566,0.16620006293874212
2.496,-15.816348044813253,-15.619491114307834,3.5871418792550003,-17.59388964637742,-1.9603360934215743,-2.8140862888858464,3.2741946734897738,-2.81215613742188
2.5,-25.21017215526149,-22.2254523715211,2.5069516918417776,-25.52311113751921,-6.834456515171269,-6.696998318029273,1.7468477288527993,-6.7337855095527175
2.504,-31.278096628866024,-27.06178144122316,1.1374281981234162,-30.414498307608483,-10.962360364550818,-8.53304022822499,-0.39465888895938406,-10.173426278414354
2.508,-32.51926156733805,-29.193029892274353,-0.6393757061498491,-30.840415019259353,-13.892057764238189,-7.720486890522579,-2.873027021531243,-12.046693971727109
2.512,-29.07529431690898,-28.56314101268481,-2.7574539563159988,-26.794337915539018,-15.575518263820754,-4.689897581942205,-5.3524766013922545,-12.109111921792874
2.516,-22.61797553358315,-26.028314505176695,-5.0581057281166295,-19.69865756746026,-16.393909113961854,-0.6868088068215457,-7.635740020063849,-11.053315087166538
2.52,-15.588115270232038,-22.958918786897016,-7.393434419439245,-11.790205834738572,-16.960927899824014,2.814488884532466,-9.744857047545338,-10.136780535869775
2.524,-10.13982050945117,-20.573630407809674,-9.62082896067534,-5.166642703115031,-17.74400529998377,4.763902388453744,-11.800993283096659,-10.498996561402464
2.528,-7.31255267246479,-19.36813950499402,-11.502172336763351,-0.9750621037183009,-18.70876460844056,4.925173438951106,-13.775389656948619,-12.51327435653343
2.532,-6.783152093338458,-18.924371265917557,-12.5966110357881,0.8918660210085818,-19.191522819503007,3.8396522099612866,-15.294585231819383,-15.522640200653768
2.536,-7.26226989890381,-18.206868167456264,-12.286508482693876,1.4756997109539043,-18.132489377505635,2.422808539421567,-15.666177784461524,-18.122306924347868
2.54,-7.271866699000384,-16.169876498990902,-9.994018614353877,2.033725152661191,-14.598540526656961,1.4400922542056378,-14.16460775127939,-18.858739414275306
2.544,-5.905859123599157,-12.342733748152227,-5.50620733420385,3.319198966281647,-8.34852658830198,1.1520187859896396,-10.441874924578315,-16.987576032722473
2.548,-3.2270102699733343,-7.112438482498419,0.7537743922152913,5.212447032984073,-0.1589604243932854,1.2895997999828523,-4.849761118139213,-12.89780927252491
2.552,-0.16137632248273803,-1.5696849112367772,7.685636623367259,6.852676020117087,8.296275788362095,1.3137630240607905,1.5238230908705646,-7.991393391374004
2.556,2.0156722426506803,2.97676527543058,13.779852992613769,7.153298200591053,15.001626343851967,0.7756368861719238,7.166153972156735,-4.0634207084110585
2.56,2.3027721744115297,5.54279085569658,17.604618841633737,5.4000438366663275,18.361077955154087,-0.4331031537626586,10.681409483893958,-2.486855682719579
2.564,0.4188243204007449,5.828135140213931,18.325770072636033,1.6390144034583045,17.841622292016837,-2.0581784831101686,11.324340252057027,-3.587467885009346
2.568,-3.079104835014732,4.258857298917064,16.025057141494244,-3.2963109392328533,14.19852628678052,-3.644973193574515,9.291615168973749,-6.489077238088157
2.572,-7.033540219253382,1.7471490013076618,11.676188776635172,-8.098272528133293,9.171775136708902,-4.760659848105661,5.631917505537103,-9.498049067372904
2.576,-10.154798421337546,-0.6848125835163046,6.780775889046936,-11.46716453729141,4.775023409213077,-5.145010875186472,1.8286919948534432,-10.83148427497008
2.58,-11.509502663451485,-2.2447041346601964,2.8235219094190143,-12.543099090439455,2.488849814269429,-4.728052757461683,-0.7485527246265065,-9.358858296209291
2.584,-10.828135087618648,-2.5603886952123958,0.768644879664862,-11.128401203035537,2.707819047378507,-3.5556787445889313,-1.3106805492391231,-5.038503143083744
2.588,-8.569322449775655,-1.7452112862722515,0.7422476878823545,-7.695716140956847,4.626607134568189,-1.7326529877514076,0.10937367468227421,1.0757697600461142
2.592,-5.726129779629673,-0.3369346778899853,2.0243840899563565,-3.2104970958855574,6.624235952014601,0.5683767814575731,2.710087586241116,7.226321357595225
2.596,-3.441508960126612,0.8835629344887366,3.3634535863611745,1.1677184628247232,6.993617312967785,3.0660004723217753,5.245196806082731,11.58960978450068
2.6,-2.586970312405356,1.1564288009763004,3.4870940193866318,4.408708127290765,4.699093603483789,5.360236355515099,6.4855594136938635,12.895947638766302
2.604,-3.43844841890359,0.060894427932453254,1.647195331049943,5.899603974981346,-0.1276430015323058,7.0170311635083635,5.685956348813761,10.841097574966625
2.608,-5.575853253468949,-2.220607847402107,-1.992284867367971,5.629583812564988,-6.149038833467785,7.742563501902168,2.9163704058410076,6.191270578480726
2.612,-7.996375083403336,-4.7937742602334765,-6.270743786805042,4.239416214395078,-11.244032835342296,7.553335445936227,-0.8617525779709467,0.565017117975458
2.616,-9.441587698446256,-6.251566410918031,-9.359969619210915,2.85743333444384,-13.269220813127731,6.806458288026079,-4.07025366069638,-4.0647036587624825
2.62,-8.85285364219203,-5.194892268007834,-9.453910778567433,2.716069969905675,-10.895973960546826,6.033181136071562,-5.099765122025929,-6.020965129524484
2.624,-5.772205296040283,-0.874868854235956,-5.571454868926139,4.669465650771599,-4.1936353815431175,5.647823439024705,-3.042250082648934,-4.531417811670508
2.628,-0.5924996898822883,6.286795403397264,1.8260381683851392,8.755313232819162,5.2448348042012185,5.6893557501157375,1.7318127482162708,-0.07951077472853285
2.632,5.447397540295697,14.604322121323321,10.732487626198917,14.00316032225328,14.724203884263716,5.737120125162619,7.454183022536199,5.65146628960747
2.636,10.556036116812265,21.582783486304606,18.146027886103866,18.61718512463176,21.29671526663674,5.085492675633304,11.449937357067029,10.286672403548437
2.64,12.910753732968942,24.784660830443727,21.118320900145363,20.522237861748863,22.749373756249724,3.102006871269168,11.137699474026249,11.589029336537351
2.644,11.259465656464272,22.771068084598028,17.922353086660905,18.104668164267423,18.36997882925334,-0.4174022265333406,5.174847707630761,8.310622037205576
2.648,5.400326585286848,15.695469076739073,8.834062328604205,10.871694393872986,9.195346104441342,-5.071184383660693,-5.766271369867809,0.7448498397993717
2.652,-3.625811964072909,5.308459385043761,-3.8190953974130935,-0.2179872313981832,-2.326675154428358,-9.940787444457783,-18.975894809234433,-9.260770074100037
2.656,-13.747874734405968,-5.642468766038519,-16.420338163413362,-12.921170233380963,-13.147535382857996,-13.898317570316976,-30.534905401037577,-18.863703702626026
2.66,-22.453069094186958,-14.358714611851155,-25.34333571127877,-24.339320589972886,-20.592874923753016,-15.974330760033808,-36.690603226590156,-25.152085009199254
2.664,-27.56278202041608,-18.88381129417826,-28.22418415731272,-31.793182103912386,-23.13512709752331,-15.631500984749437,-35.21843883810152,-26.083097053236543
2.668,-27.927560849945394,-18.62745079711067,-24.726571249138033,-33.64615745603487,-20.72500967198698,-12.855762902471724,-26.213339848164196,-21.094738635742488
2.672,-23.775372372771926,-14.371633135662705,-16.513460436157402,-29.782247401203676,-14.60916542827863,-8.089462728716171,-11.990899974559397,-11.204823645891793
2.676,-16.582471608874357,-7.858962019778346,-6.510208232310561,-21.58724810909098,-6.782990981425428,-2.087110223495074,3.807033862228309,1.3856116717975056
2.68,-8.518271970981687,-1.1774284946895932,2.1887261491513073,-11.455447436145732,0.672733704048369,4.221241884083156,17.47688169284902,13.97401692650783
2.684,-1.6810983259724708,3.8497397114538217,7.329122347679004,-1.999152865418182,6.150831903866219,9.852109231030227,26.376375578349325,24.079684515842928
2.688,2.5911863241008177,6.113450198291957,8.068281710806104,4.770331999767677,8.833498465262437,13.927530739199028,29.52079998487261,30.00854575781159
2.692,4.088784402205192,5.46220629318168,5.007338842495301,8.022717157520674,8.772308412355187,15.870204107812242,27.538027790099022,31.14879704200939
2.696,3.654977978723764,2.712098093159966,-0.22024316728402482,8.250738653237477,6.776645288826558,15.604700112062346,22.151627209683284,27.99197101995287
2.7,2.7165344436893974,-0.5996064068745,-5.58532139402746,6.930768686244846,4.159394334407807,13.646567127482285,15.480893396304964,21.916563218970623
2.704,2.641104469011225,-2.68714892615958,-9.28087263167913,5.844839806150048,2.391296036416634,10.979435192487017,9.432447512588624,14.790901848536578
2.708,4.172890862109398,-2.1387593538513556,-10.176159853364652,6.3233758359465355,2.6924134567034343,8.71990552246234,5.315498134268637,8.482325580121596
2.712,7.142051346083235,1.502888317824727,-8.03510525397678,8.695913224190917,5.6348121186124445,7.672466807180172,3.6897347593603627,4.361959228484466
2.716,10.565804677187998,7.458457427726216,-3.495287178021499,12.184995225603416,10.883115507883758,7.98826029787233,4.384943390771696,2.9609680047328766
2.72,13.058875162720824,13.899794184352231,2.1584890605956844,15.275535463999859,17.19622013255821,9.119159517340904,6.644314314114581,3.8910644231250444
2.724,13.399586861775106,18.632260914096605,7.396371667905896,16.40989017423044,22.778862574188224,10.110066961015946,9.38514106718958,6.087469836689706
2.728,11.034893200790748,20.007784498066712,10.913838799280029,14.7044829841725,25.894216620166844,10.09567168909507,11.547038388627698,8.29550429378196
2.732,6.320917588203429,17.660662803119294,12.037633491953102,10.365622732819247,25.519302335667135,8.745258963439483,12.43476467031087,9.58732921681758
2.736,0.4094685653647048,12.690868640091594,10.9112611876144,4.611643438448709,21.74858094140791,6.412669474315408,11.944507696239725,9.678337237556661
2.74,-5.167710618559795,7.1814689687030295,8.387338666754658,-0.8437237149400971,15.759329266800023,3.9283604760425987,10.568836674994145,8.927696597280374
2.744,-9.055502206588471,3.2694550104411064,5.655108739749721,-4.504258637882685,9.337566771503816,2.158856586193451,9.161451847624903,8.047570038418598
2.748,-10.568002955315478,2.187018831366231,3.7257463789460417,-5.693651264233949,4.144205476936804,1.5810543596439857,8.524204052571804,7.682726073466711
2.7520000000000002,-9.89547659185041,3.7703647624098267,3.024710129831192,-4.757146767857876,1.0848001765173194,2.10365821927644,9.028141441504886,8.094760346082694
2.7560000000000002,-7.979702583114204,6.637166307985808,3.258476547708824,-2.819138404138812,0.04959988517111924,3.202231134142494,10.433609171830085,9.092108790347993
2.7600000000000002,-6.102676255235792,8.90920406574628,3.612079756862613,-1.2292024213472814,0.12256310278053206,4.250520327141658,12.012733457191189,10.195434026429666
2.7640000000000002,-5.368058736343983,9.101463957440728,3.1891241263313077,-0.9650207422798758,0.13986224762061283,4.8403993021725,12.900413917576316,10.903901739077355
2.7680000000000002,-6.295121287855181,6.728437667314211,1.4733077752571262,-2.261448376955741,-0.7052239860463487,4.911750175992438,12.503885436102337,10.909926417315546
2.7720000000000002,-8.658168410515373,2.3916660045324534,-1.3913096413043604,-4.580580433970681,-2.490947857611445,4.655194115157428,10.771832659374923,10.159726315833268
2.7760000000000002,-11.608811578313862,-2.6080289792810163,-4.625888190892965,-6.884296884852574,-4.581662619673807,4.305719785042584,8.201670393948916,8.780885486455645
2.7800000000000002,-14.022206449636315,-6.882232803127863,-7.140335707100803,-8.066044799770225,-5.997061683851371,3.9840297087966974,5.604622882342483,6.9660743659869695
2.7840000000000003,-14.896401190712822,-9.445540541694072,-7.980991313362438,-7.341919675682448,-5.895731772242016,3.685688885741456,3.7570903962041484,4.925335939311935
2.7880000000000003,-13.667501164417217,-9.915211914719976,-6.714944835049437,-4.48828601543687,-3.9480143989469525,3.3883021837300475,3.0943944880268646,2.9047609172030207
2.7920000000000003,-10.363385330133951,-8.442670464743287,-3.6020003565774914,0.11037005127718658,-0.4575260353253725,3.1563556672444975,3.5636401369806663,1.1897741677707927
2.7960000000000003,-5.572258855847849,-5.51524091172746,0.515276476084864,5.5820613656396745,3.804043043148795,3.1400912129824974,4.683078447584194,0.05395247086971722
2.8000000000000003,-0.27504448574336493,-1.8006038037576673,4.523480346454562,10.786556472693519,7.91583752131055,3.4449024087712132,5.753785407434407,-0.37561229869879753
2.8040000000000003,4.405780823939722,1.9311211564456698,7.417394337397127,14.58912323831828,11.115206939173277,3.9789601733514246,6.122228407492003,-0.26328393400990535
2.8080000000000003,7.487169251468458,4.861423279350674,8.592808273874653,16.139192160680977,12.966550471622213,4.4113677982277295,5.3970825763644825,-0.08870448602328906
2.8120000000000003,8.373199305215849,6.261205854611035,7.976225024097857,15.100422803535594,13.37550883772451,4.300172797352843,3.5571793233875724,-0.47604766597351045
2.816,7.01576547013542,5.7251293292144965,5.962965966831462,11.760922185586196,12.49446734206731,3.3445044684103777,0.935010194795268,-1.8717613424273623
2.82,3.950488959157383,3.400996708848652,3.229602304539412,6.975433987095357,10.614807173676581,1.6088647382480303,-1.8930428231610676,-4.222722596512995
2.824,0.15270010230028674,0.044012972164637176,0.5005727413497425,1.9079532743794516,8.08968263061979,-0.46758643024168123,-4.283219272145743,-6.882962581364154
2.828,-3.292421294936503,-3.236354130111522,-1.6873521000325127,-2.3792225095833146,5.266877897801578,-2.310089137621617,-5.735797204729579,-8.857174302256226
2.832,-5.605786182684142,-5.461939371296467,-3.143450828039022,-5.3255137426083365,2.4334232936247417,-3.5651174038466706,-6.067375246236679,-9.293099103743316
2.836,-6.63852530639906,-6.2733014014079345,-4.068561443245244,-7.085689973863964,-0.24750632292000319,-4.351751072569186,-5.486820788024488,-7.98518174210858
2.84,-6.949925828087316,-6.159542513097449,-4.993246577284026,-8.444866074690026,-2.8058732602487453,-5.230680005142403,-4.563221147023796,-5.620715578453201
2.844,-7.567077644525625,-6.2474664526776,-6.580905753607908,-10.433451807589563,-5.459660566946241,-6.879560685712363,-4.061502355714765,-3.571697813466585
2.848,-9.462200629941094,-7.707527260024563,-9.330927416162297,-13.779992441796026,-8.49673268945429,-9.62655810950389,-4.667255360241938,-3.282587169200383
2.852,-12.96601804479269,-11.053009224125617,-13.266243274690623,-18.443525516673162,-12.050300289712368,-13.127776773273126,-6.699784239625387,-5.5375849631413985
2.856,-17.42790238915245,-15.724749349338026,-17.75974747557632,-23.487140670790495,-15.884845710245372,-16.411658194924257,-9.930290739505153,-9.988723232873099
2.86,-21.334608395408623,-20.22236070421991,-21.62480347544033,-27.385040316400136,-19.334800182423237,-18.294750856211976,-13.6112863737535,-15.217394908670485
2.864,-22.89624987277807,-22.751607616511592,-23.49916187340864,-28.653012805784783,-21.475380070053916,-17.97006583624716,-16.737369268538487,-19.35068604685671
2.868,-20.887903567658213,-22.099553509107864,-22.418941188981762,-26.541669631498962,-21.509220495921113,-15.462618051727532,-18.448588016991152,-20.95571855912908
2.872,-15.340141182769457,-18.28113335946432,-18.325159623687682,-21.44825001000936,-19.184215839625608,-11.701930351491228,-18.405769069279813,-19.777048451789597
2.876,-7.706452959371177,-12.616343996385353,-12.245997438886889,-14.829980678094898,-15.033543952973787,-8.141607887671398,-16.968493343893897,-16.942248530679763
2.88,-0.3609220355178877,-7.175917325610499,-6.009692496156617,-8.634955380282463,-10.281700954152825,-6.102160652172188,-15.071199262374648,-14.503767183404534
2.884,4.366896857240704,-3.849032139616611,-1.5432459946140398,-4.504760880021877,-6.399141018272985,-6.16416461213521,-13.804857284306308,-14.491912894558254
2.888,5.2004459821607725,-3.485955447766969,-0.05512184896679173,-3.1124959911264796,-4.500044562222001,-7.915413815783722,-13.890810002876151,-17.924143657879313
2.892,2.488839739494324,-5.526282294709631,-1.485124593835053,-3.9549103969036423,-4.8665789138722175,-10.177933671925757,-15.299216029312902,-24.252493241675893
2.896,-1.962429790695296,-8.301317958239451,-4.516114906534995,-5.701032616908833,-6.853757107137994,-11.59846059992924,-17.22497549935656,-31.52793327127324
2.9,-5.737993269433105,-9.864312176334579,-7.1881359158441,-6.913582021413049,-9.243689786513073,-11.305645451569717,-18.459740440165888,-37.22457388716043
2.904,-6.932708385379669,-8.928649979157171,-7.835480889393011,-6.768952498669478,-10.866997157127571,-9.314405880709273,-17.998254651256048,-39.34110969879316
2.908,-5.005525123809775,-5.46989559553424,-5.895924063561779,-5.424172369193002,-11.18168068173486,-6.489351248615094,-15.584122604452432,-37.278944708029485
2.912,-0.9728662046433101,-0.7151040058593026,-2.187964215755642,-3.856812144966625,-10.50370183696964,-4.105281771122236,-11.899578147916145,-32.08180412647448
2.916,3.113978143763802,3.4398842046070968,1.4792179220245316,-3.299815090406355,-9.78662039847984,-3.237050970383052,-8.284573012361761,-25.94740387116053
2.92,5.130150858883667,5.279237220866094,3.1662160349009127,-4.587175644993522,-10.082991118232371,-4.283576304498183,-6.119636819143807,-21.256477823299065
2.924,3.8135987681868073,4.0014357766499415,1.7287296210522527,-7.742679511138931,-11.957336866518745,-6.842461809525048,-6.162557597661589,-19.584186195879965
2.928,-0.762714599317178,0.0013191973559969483,-2.6561114884757444,-12.009078959529575,-15.167941971217488,-9.967367645062495,-8.18694970438628,-21.12850694211329
2.932,-7.32480204372996,-5.359215275299448,-8.570837663737962,-16.23474334722846,-18.743537234910605,-12.641841841659243,-11.082069983485553,-24.760944648283157
2.936,-14.003795622974053,-10.347058653033287,-13.984689055832519,-19.381236183573378,-21.399538002575355,-14.21592735491572,-13.369709190993262,-28.62865766916275
2.94,-19.09651277527155,-13.53833584513518,-17.116199971978517,-20.898483423427024,-22.083814434540955,-14.598814483432307,-13.88760930198714,-30.999465393000946
2.944,-21.60541478244977,-14.277817857813943,-17.119115434330297,-20.79488877877543,-20.37990099432227,-14.148648056055663,-12.297030709357841,-30.949850353702004
2.948,-21.38428459673571,-12.77897597655135,-14.309942452944938,-19.443844807315827,-16.61667538353629,-13.362917604869608,-9.179055457622098,-28.627355062094693
2.952,-18.968482601266942,-9.906646105853383,-9.912142376623478,-17.321832496486763,-11.692945131542274,-12.588874021500033,-5.721849630975612,-25.05512591348952
2.956,-15.249623180896492,-6.782410153679166,-5.487540000104445,-14.844827738495951,-6.739086780247021,-11.918509974238987,-3.1774621926689406,-21.623417245117935
2.96,-11.165256100647866,-4.38119097926085,-2.3207843178180383,-12.359312539933171,-2.757308151961695,-11.301570330596178,-2.3501999009780548,-19.51979807972384
2.964,-7.479380137572207,-3.2343027282447565,-1.0007284161262078,-10.192693630398708,-0.343458839216396,-10.751857086901055,-3.3364070130043046,-19.30983476112874
2.968,-4.663684460280024,-3.313755890869402,-1.3137574580622413,-8.644895354081882,0.45204163996686475,-10.466097808765198,-5.568307467594082,-20.78343833298004
2.972,-2.8459915450281414,-4.094097125004055,-2.4255836134133233,-7.863013950320692,0.11850089624573457,-10.755685337663408,-8.086229355851628,-23.070159140832402
2.976,-1.821267912297003,-4.771544710465037,-3.2614977294620076,-7.679170953870766,-0.48241683072620845,-11.813321270543156,-9.895227373308671,-24.95642608653634
2.98,-1.1314720765694801,-4.567276051840565,-2.9310365226546082,-7.549794733606518,-0.4112840986725246,-13.464808200922334,-10.267988836865925,-25.28459613469613
2.984,-0.23953098747813328,-3.0251099296211237,-1.054678985177759,-6.71924294849498,0.9903176820980093,-15.100096868729224,-8.926932243519559,-23.340700351695205
2.988,1.2325940257417187,-0.21039065333405915,2.100992519140675,-4.586967700712421,3.7934611869065975,-15.878736679614576,-6.084977341115632,-19.10193243879928
2.992,3.3243064296450484,3.295688277138538,5.740638053376017,-1.0816631354497304,7.397447470026123,-15.126984598326317,-2.3554229508074513,-13.256132401395917
2.996,5.698250590700695,6.612815944263275,8.863631982298102,3.174422339796365,10.742095705707698,-12.720648152679132,1.4361994500537776,-6.963286087581309
3.0,7.7956641542774605,8.908996700762486,10.665285699249807,7.054218226522607,12.759871964047989,-9.229181091434953,4.493604141360606,-1.4408748217221046
3.004,9.11129197158425,9.731579087813827,10.851376225741035,9.402746643087767,12.872359690302972,-5.710397288419472,6.290980285741739,2.465347085917756
