Timestamp,O1,Oz,O2,PO3,PO4,TP7,TP8,Fz
0.0,-3.26139115713886e-12,-1.9113599591946695e-12,7.531752999057062e-13,-1.4637180356658064e-12,-5.258016244624741e-13,2.1316282072803006e-13,3.254285729781259e-12,-3.737454790098127e-12
0.004,18.43319637667137,41.84900071813177,29.480109038457364,16.97784737851056,34.54375033460239,2.246863620052963,7.829322357214338,7.12247594802578
0.008,31.428369049332886,72.57168036719337,51.05164676242993,29.57305517801511,59.65864967379002,4.329352119063202,13.785888579792058,12.293316393793589
0.012,35.95510994042099,85.79547111663376,60.222123709326745,35.298526773225895,69.98619398007688,6.155403971558854,16.72261387149007,14.322013025178109
0.016,32.60001341248412,82.30596408647673,57.619071943181616,34.51040471201008,66.28481062665415,7.71228782785569,16.599488186430335,13.18991323657292
0.02,25.003171047686237,68.96874477436461,48.16704408557822,29.953939179340352,54.47818829663302,9.000404308050761,14.342251185666314,9.943262546188151
0.024,17.890338159584616,54.9171357614714,38.31620271760888,25.22623873279381,42.359787968191085,9.945289870753257,11.295600389948888,6.1442206153943175
0.028,14.777558808842812,47.11967619655513,32.876474937450226,23.01563343952106,35.78343711708931,10.386341191872475,8.600617552085325,3.191116745227916
0.032,16.541936306937593,47.64848127767429,33.13516852442275,24.056359167568793,36.343800815526336,10.186531027875176,6.824404904312772,1.8335630959267348
0.036000000000000004,21.48761009871678,53.82975518488343,37.07205046116839,27.248989895924794,41.5674355395589,9.399398705294104,5.969450169061616,2.060972818292342
0.04,26.671354904629283,60.73615363066499,41.213653221650624,30.692846361579903,47.12992458876052,8.36466451176031,5.749706640604515,3.3391869647845454
0.044,29.621704991860646,64.31903914727792,42.862346637269965,32.91616967970465,49.59962745226787,7.616018078468173,5.888719883130548,4.967663718932656
0.048,29.479183974747592,63.35691502282043,41.39164150830254,33.57014231516665,48.12039590383925,7.604592024924997,6.230328821481763,6.363689110315036
0.052000000000000005,27.083574493386088,59.427418542051534,38.10211684182987,33.313093033262945,44.34388594831485,8.39981672388285,6.664620505707219,7.1776695048691295
0.056,24.17197481832035,55.358471918422964,35.03927052440744,33.12794996845599,41.0063946282576,9.568530412876541,7.015261647701877,7.267657325026036
0.06,22.282538443505707,53.333731230685075,33.65080558552752,33.59326278082971,40.180773750486495,10.348099905719891,7.027966591009985,6.63637132824833
0.064,21.998359387995293,53.81851027846375,34.113771960499754,34.5837820099999,42.25517973502523,10.048027981008943,6.516854903778736,5.397719987740118
0.068,22.865838147310313,55.7483928514698,35.565602434282845,35.516223108982906,46.04900847131566,8.471036013163953,5.557989649823327,3.7796254461139256
0.07200000000000001,23.909641863758168,57.62603763475299,36.91912654000603,35.90832922941646,49.79348056311866,6.10581458007961,4.576475243894642,2.1128323411545296
0.076,24.333358413832748,58.66408101575662,37.61983068745444,35.8303301746432,52.24167740131887,3.9518988235811463,4.214536049742307,0.7596199183241055
0.08,23.952281211359967,59.18834630553468,37.83874550891968,35.912723918149325,53.19603296972913,3.042388713887476,5.007311641596701,-0.009784605837552363
0.084,23.1622617174002,60.1589823544695,38.09247679471982,36.91128916665491,53.27090833490759,3.903955190941801,7.042686773863672,-0.1357577517494235
0.088,22.544769915039733,62.250581871331484,38.65231626447658,39.120766830415214,53.20406270951956,6.25836712506981,9.816573261333957,0.19928757471058134
0.092,22.433552382543617,65.2288185559959,39.248095955839375,42.05732563421012,53.29127881636029,9.148286748935433,12.396726538497944,0.6736915261185175
0.096,22.710653498092043,68.06024891450124,39.283413653861096,44.62864051274647,53.3150329861824,11.42254682259567,13.832347764899382,1.0096738756293888
0.1,22.89019639483663,69.57230604703409,38.31596714939482,45.66951642683935,52.86606008669442,12.319452148628251,13.577039093852527,1.1113073704278804
0.10400000000000001,22.37751203346629,69.15127972741362,36.40451982907029,44.51630966370956,51.72251409204209,11.82222506936143,11.702488340605242,1.066597462675709
0.108,20.737497111458126,66.99751212336656,34.04379808151843,41.27995830705648,49.96365867064411,10.600471527047134,8.81300824912757,1.0131611837182248
0.112,17.880370035271028,63.875282272146805,31.790150998012738,36.71974133851679,47.82056790411431,9.592849617172746,5.7446756078327965,0.973869783326144
0.116,14.130691091511512,60.632589324145584,29.909015964499435,31.849340421345303,45.47982781835731,9.478280837299323,3.239066467308625,0.8002145443962192
0.12,10.176631724796113,57.812518155194795,28.29200792293952,27.505586011598922,43.014208352105314,10.325652604755163,1.7380126028039484,0.26736373003755887
0.124,6.910648794807631,55.57812404025138,26.70125322837007,24.11257165908109,40.506937215677794,11.594439475192559,1.3433748015533524,-0.740585265121247
0.128,5.166025973472703,53.88020971046049,25.11207611722367,21.701729684161634,38.216778860275234,12.470000919237627,1.8931455448873038,-2.0861047081602564
0.132,5.436599140624498,52.69875882356036,23.895281697927455,20.126113128967084,36.63125847569796,12.338667005190118,3.0879662356808737,-3.3708393859328325
0.136,7.681471931409913,52.16039974182524,23.68502355729988,19.299984604657922,36.32466322655017,11.136302290871214,4.596976605115401,-4.099043238512962
0.14,11.279424658500453,52.40995624098416,24.96683006406115,19.283492234328328,37.63999033809897,9.379839296436707,6.122034382177986,-3.9414383946331455
0.14400000000000002,15.197980850994877,53.371524203491695,27.6774539917587,20.190851158652734,40.41661063200801,7.875174269656412,7.455418242962523,-2.9398675284956255
0.148,18.344567831111373,54.596193065487014,31.082510397236383,22.00185813424728,43.953039672311405,7.279398865678502,8.525273882491032,-1.5269186301997522
0.152,19.989919149644777,55.39428702053203,34.076150451407216,24.43970498047442,47.30399724579258,7.761359056260282,9.413005293639785,-0.3328368559198722
0.156,20.07903131885498,55.21129295738249,35.744913498052014,27.01652027759407,49.76268075308239,8.945800347024893,10.305465985592175,0.12765498494719907
0.16,19.25548301614801,53.96362418907969,35.8180539192281,29.214156474830933,51.19393780102303,10.16394107989396,11.37306799588572,-0.2724064463372926
0.164,18.567298350503055,52.100087355316724,34.73197887411024,30.693579956545374,52.00391824100379,10.839935966246038,12.620878451733269,-1.2139886068452554
0.168,18.978787796656558,50.32658804769324,33.27972039435051,31.41118958114117,52.76175765436938,10.79629058896672,13.81039874071616,-2.108781819427662
0.17200000000000001,20.95167575495728,49.22191354899741,32.13474439249684,31.606089134223083,53.774134665442105,10.311137917051823,14.543440467166697,-2.403060272137999
0.176,24.293410437988026,49.00438664137492,31.569863588123198,31.677029850994256,54.91415472061903,9.901093704254187,14.488780327544674,-1.8408121045203387
0.18,28.287829461111727,49.51608643174313,31.47309826803552,31.978840789270002,55.7506759726975,9.962161302234328,13.610003911244263,-0.5726638060675455
0.184,31.990321839200956,50.37444119831929,31.579222654083722,32.622818329678864,55.84957768151165,10.467988742015393,12.231372046509442,0.9161261909203944
0.188,34.522621501912546,51.134770257637626,31.68002846743873,33.359561994881176,55.00960542189062,10.917736551747367,10.875771265936372,2.0280261002568025
0.192,35.28499533653119,51.41151566856247,31.69000553214385,33.633856821481615,53.3212148602061,10.597469249711757,9.984534876104718,2.325043325542687
0.196,34.074510462352606,50.964829333565824,31.573144573322157,32.825004972600794,51.06291029668792,9.023465221705301,9.694897464675961,1.7278519104331735
0.2,31.11632222552157,49.7294269600931,31.21501816245363,30.565974154652483,48.517616958197905,6.314815425400184,9.825889696210268,0.5709694545161526
0.20400000000000001,27.01193192469677,47.80378102038953,30.37915268217599,26.982477721555572,45.83711409067848,3.2507302536933125,10.073926759536914,-0.5316436210409137
0.20800000000000002,22.614160124555553,45.411942727433356,28.80144601806702,22.724543636013856,43.02609463626206,0.9493304619793506,10.26763150901661,-0.9503662439256502
0.212,18.84079870551724,42.8755667850847,26.400191676110232,18.773607721789404,40.06876273619823,0.3207832759356819,10.496247135005977,-0.3106660606909628
0.216,16.443781439172685,40.586793260374634,23.45699789438312,16.099143785676556,37.095991297528855,1.5862852753625916,11.009933707175996,1.345054608023446
0.22,15.78436494029362,38.90617382494103,20.58503574777985,15.293948096138884,34.42140202058176,4.139070574698657,11.948174961116113,3.5739133683408113
0.224,16.70155693615795,38.018782969978986,18.489774087620418,16.355271047368372,32.42067258522299,6.837545456045923,13.098301749667304,5.714176980634591
0.228,18.549592126407642,37.835823809209316,17.649419548142077,18.70365352672637,31.33711481935758,8.57788072227163,13.886468660856455,7.156513127678991
0.232,20.44169114675185,38.0456228776015,18.123782668957688,21.440777730064635,31.17622417850022,8.844254350367127,13.66629537261328,7.585560649843526
0.23600000000000002,21.595811137331275,38.27738961669678,19.59121322557776,23.706413183401637,31.7446375321596,7.923020423153879,12.147389973775457,7.070851441159753
0.24,21.613495384400146,38.27116121647301,21.55277339683984,24.9566979756539,32.78247154802937,6.665872680499334,9.676615629671495,5.973300966965809
0.244,20.591296352350273,38.006769339195834,23.59128990340203,25.086832346089416,34.13566255930558,5.95459047135849,7.172534077397231,4.742106092376147
0.248,19.010822635762644,37.68573229700648,25.50807304296115,24.36849577082222,35.82681040268422,6.187634752490517,5.709060747247314,3.7237109533748693
0.252,17.488652523984804,37.57427164295214,27.266757401377845,23.277547091050764,37.9635857762905,7.099047106634849,5.968911153840388,3.0904693434594037
0.256,16.54030808903223,37.83809247165449,28.843672077452023,22.333924599748705,40.5757400569121,8.007412096633978,7.906250618082595,2.914032181355669
0.26,16.469447190806626,38.50056701552719,30.14995131249641,22.018876790968545,43.520294797573285,8.334821544599105,10.818277326007028,3.303742573383637
0.264,17.38691315401936,39.53224509590313,31.083356277155588,22.74051979183554,46.509460367765826,8.04501937587661,13.742154227989772,4.4568293527701535
0.268,19.224536797165666,40.89384924235729,31.587467519991883,24.719913426693765,49.154772985677646,7.6766610421985355,15.880017269132033,6.495166321167261
0.272,21.657762074964893,42.42210877286064,31.606999819171207,27.771054742808587,50.9494003599544,7.925720944518439,16.759541255387568,9.152953967015378
0.276,23.986814317195865,43.62901998826646,30.935785733737937,31.098118505508236,51.22060537819829,9.028296555557574,16.06780838772823,11.528848646657224
0.28,25.17170806936679,43.64519231380365,29.107521741857454,33.33150017624662,49.187583374936665,10.374967547444488,13.381619645900848,12.168821074541675
0.28400000000000003,24.138450236338045,41.47546310504723,25.50348838037084,32.938270398576435,44.23410546093622,10.667571751990085,8.119913710657972,9.596982424935032
0.28800000000000003,20.276815638867152,36.48357052671494,19.69127036046504,28.89298363033457,36.301548860084054,8.59433326108362,-0.11435887117661991,3.0974583016770865
0.292,13.9086033448288,28.879835607212925,11.877658596839659,21.318431187141343,26.2123712093451,3.6670764247567114,-10.934542491412667,-6.642963741060655
0.296,6.431063739460907,19.926679557841542,3.20550660670823,11.740092366029748,15.71119576266604,-3.268025317100932,-22.717008192385947,-17.434821101434324
0.3,-0.03513289524378216,11.687709104023856,-4.340486921478378,2.7360673560797153,7.111299284312328,-10.183489260080808,-32.71162128642013,-26.2024454920856
0.304,-3.414608666112099,6.358912901573931,-8.493550118855707,-2.946548640158346,2.611073817615798,-14.671967326777953,-37.860785482392856,-30.116130382904142
0.308,-2.5588560640405236,5.405374803705774,-7.598036535390207,-3.471605566638658,3.486528510678208,-15.01958886941472,-36.055369903086,-27.7665649669381
0.312,2.1974048912828295,8.902171952529889,-1.4281469444772878,1.305024918008801,9.523532591738242,-10.998954178955898,-27.20370770452818,-19.8054848963489
0.316,9.127738041905996,15.45428355898471,8.52955111200191,9.760709474119942,19.009151056900926,-3.966211202608357,-13.503209294120238,-8.71388401677413
0.32,15.857060951928812,22.794577367334075,19.564305524060288,19.202817419989778,29.35951860733031,3.7801305547548054,1.3223367919017006,2.2099945447344753
0.324,20.405510660070597,28.779175800197883,28.81742393914259,27.00807804489797,38.12117661812023,10.03593588626305,13.496239172843742,10.160990800783368
0.328,21.985315292696093,32.228649575536295,34.39657137657052,31.630067331866012,43.8296127522507,13.582361552133499,20.640552599330093,13.801160185187937
0.332,21.12587503850782,33.168329716497894,35.96664955856967,32.99061634293257,46.30685781578013,14.490859158175272,22.484696954169635,13.469891077030296
0.336,19.115357100002306,32.4183881359927,34.565673163487304,32.13290200407184,46.32569817759132,13.764955008808982,20.523054493610886,10.622792346522345
0.34,17.157341517943422,30.893340965669008,31.840645536670387,30.42778581825757,44.9398313010922,12.605885615926123,16.92536137275509,6.9106790248837715
0.34400000000000003,15.745254525933708,29.084321930811992,29.18097566036247,28.82004388577185,42.91554395095134,11.747893244839963,13.368076890161586,3.4225635438067368
0.34800000000000003,14.579440489230912,26.988331329697562,27.193834403426436,27.504507083341828,40.542570391597906,11.211923207403448,10.410408853126935,0.45644154141151105
0.352,12.999253833792519,24.429938796688397,25.722904654181516,26.120569216340485,37.82960728311981,10.537836518213648,7.663296646584748,-2.189016097436326
0.356,10.605496628340314,21.48712244122492,24.28148321447823,24.25248307185059,34.85129517540459,9.270101766129443,4.511817352850867,-4.71063620066706
0.36,7.679189140937649,18.70616428843378,22.57650290168864,21.89074594909346,31.97337055948737,7.3797459395735885,0.8486523562599437,-6.939925151316724
0.364,5.1307016832485175,16.93209822320895,20.784138085862377,19.553941133386488,29.780638675592623,5.360744898446307,-2.6789245780560873,-8.366776373932026
0.368,4.002224181140587,16.81423018728137,19.400962990769436,17.999123327220612,28.714286802872387,3.9562393116870735,-5.0471937924668975,-8.490834983561411
0.372,4.832285391684904,18.29822085222502,18.811352394679176,17.72576114312128,28.67270055202291,3.717053466080701,-5.569915423854919,-7.2227366120336285
0.376,7.273241893122331,20.483492909130415,18.91647714140883,18.60480864779361,28.89577218837872,4.665794696660901,-4.44400967712412,-5.044573593091195
0.38,10.216142085621392,22.017802124121193,19.118369424406197,19.887215398476247,28.283122352465853,6.260014986372871,-2.7363641032446515,-2.7998753573787436
0.384,12.343574886478951,21.8428204656631,18.695573730174456,20.599194291589818,26.019608376779974,7.668977488403733,-1.8076553125420247,-1.2459463003334577
0.388,12.769468745118179,19.810282295203823,17.293697453923297,20.06231405178079,22.106311917917626,8.191119909074612,-2.529280935343742,-0.6628759297077167
0.392,11.409279518702704,16.772095558594252,15.191576510037546,18.228695261447367,17.44076743707742,7.572915522731519,-4.783994449377181,-0.7748686578605799
0.396,8.927666903065134,14.099297730809933,13.175952499623167,15.672214612338696,13.405051012474246,6.083118875494444,-7.531644905024921,-0.9980400604760309
0.4,6.360232197188499,12.936047063235794,12.115083100042614,13.281099578463573,11.212870743182819,4.344469128137366,-9.382819172208674,-0.8256383733451624
0.404,4.650073296633142,13.645006213715968,12.51042458538521,11.849078953845218,11.393718108617136,3.0292017363570425,-9.32832811555048,-0.11822326096699332
0.40800000000000003,4.30953940956557,15.705669066878272,14.262649798887285,11.766702222073029,13.650947548966151,2.5710363255505158,-7.2163844216531645,0.8637671976152088
0.41200000000000003,5.315657185525188,18.056378942275266,16.740909990562137,12.930305291144233,17.09090955147693,3.010153471242168,-3.7507705937288423,1.6618190550485918
0.41600000000000004,7.20658719042984,19.643568715581253,19.086457934517785,14.857055084184609,20.648497010076895,4.01108100282399,-0.0826732165800621,1.8849520462850036
0.42,9.28490349723864,19.872619274358158,20.568532482505585,16.904140437188257,23.4638091534457,5.022023137251317,2.7411328233122916,1.3616205750076187
0.424,10.852175201607409,18.76351116565124,20.825489550686306,18.488392347348963,25.063688656139878,5.497621312664044,4.170210021312316,0.12431610411209237
0.428,11.400710958273288,16.773632558055112,19.891172969066417,19.21812012533164,25.316222464425753,5.107695818312057,4.218614172365314,-1.704848863807279
0.432,10.753292094344145,14.459841401850884,18.057540075139322,18.9371881851944,24.276688086833662,3.8572912265054224,3.2745991440271234,-4.004051670528648
0.436,9.149897023364797,12.230372891418824,15.715035735469034,17.731204673578937,22.10935433179013,2.088554195014396,1.839355292414947,-6.624088375326022
0.44,7.231402255977986,10.320619498688764,13.270401466128675,15.90877650826968,19.1499048478697,0.36518770973868264,0.3488086721976902,-9.287634142744825
0.444,5.8761099656192695,8.94436868622963,11.153152201075875,13.958149683609658,16.02373722600182,-0.7209500972703022,-0.8553549786861486,-11.532895238632797
0.448,5.872478632022999,8.38854802927158,9.789674522994844,12.426215602478436,13.600364177488391,-0.7577160358823445,-1.480326535011855,-12.8193486493445
0.452,7.515732563976542,8.88221691970962,9.454366925102772,11.705596389313275,12.6708923270062,0.32949089761357087,-1.2988754392779807,-12.799133120509133
0.456,10.354722392022481,10.32535458083562,10.071977498838466,11.828093066677152,13.494734330985615,2.2398354170049313,-0.25426173158323184,-11.582596866812523
0.46,13.257622295070355,12.103477637164385,11.119605556346066,12.382206421765751,15.502058739065724,4.406605112824931,1.4311430799455707,-9.799944053797134
0.464,14.860098591296328,13.227044358306165,11.779309563541867,12.656018106349503,17.42317279909171,6.210042830712599,3.2513124185938125,-8.359348029304547
0.468,14.198811020646856,12.776866865877572,11.31470335820594,11.957454226854892,17.842916636060323,7.1968914001991955,4.57366150612102,-7.9992799553756395
0.47200000000000003,11.195956327548062,10.415614678052439,9.475433821810553,9.955195763992654,15.917685557556702,7.207214003556341,4.899890216685804,-8.886732192641391
0.47600000000000003,6.7456081519290265,6.669166473422328,6.6992666993425765,6.878429327777136,11.87646925935303,6.364017013115443,4.094065235164557,-10.519852765593857
0.48,2.3267244240143676,2.7747250848418283,3.9685188914374905,3.467308496991211,7.016079493596022,4.952799114665878,2.4555519353507123,-12.005941215959947
0.484,-0.6571009216629924,0.15172325541832155,2.3760120707718952,0.7027269266379901,3.178392014812525,3.2779427549971016,0.5941309068295855,-12.550615406253428
0.488,-1.4807793740033302,-0.2604184105930245,2.5936627999496134,-0.5724882265731212,1.9217090016247216,1.567912936530215,-0.8381498236660216,-11.89199151561484
0.492,-0.3689983124315179,1.5218980168181186,4.491229707828705,0.011668273329062506,3.7666647468649366,-0.055009229198251575,-1.4352841388169244,-10.440654637694287
0.496,1.699110286364503,4.531128739306346,7.146962091452139,2.2268560240202033,7.930574825568069,-1.5359222597256394,-1.1936097723095058,-9.029748643115763
0.5,3.538145938529534,7.360603764239438,9.268215483212778,5.373520066334183,12.694671434298987,-2.820070614940505,-0.4714696402416938,-8.44075161068787
0.504,4.347096203863101,8.913285106230873,9.820862936413805,8.586309065376373,16.214775882640847,-3.8131845824361896,0.20312957311081536,-8.988880387958764
0.508,4.045319897479849,8.954412659405271,8.527871328904192,11.16886871638389,17.347711291697763,-4.3868657459767935,0.36667453654039583,-10.393030122221168
0.512,3.1876171337642716,8.144464093679067,5.967372424322873,12.802842418319612,16.065911389313857,-4.425791717162521,-0.21606113686285955,-11.98307931773036
0.516,2.562655229916693,7.564452966733287,3.2417464970656082,13.573366854116358,13.302966676933371,-3.8769517927198103,-1.5105253880066174,-13.098375749226308
0.52,2.7327504761558257,8.034967366947262,1.411127298812513,13.83997255920529,10.377901285220945,-2.7784357681462737,-3.2685550089514424,-13.423720947063401
0.524,3.7569921965946467,9.638372679329526,1.0145293509354811,14.035691689278803,8.344298887987268,-1.25881877110469,-5.136161181292746,-13.071784914221547
0.528,5.203495418778415,11.677173749768482,1.8862259274692494,14.461356562645866,7.568592372385153,0.477159058970293,-6.780603382623731,-12.416686277701409
0.532,6.3829738618688445,13.047122607041146,3.307848783016309,15.139245147683221,7.68847689953442,2.1646548461041295,-7.999443500553434,-11.825225830583173
0.536,6.669962912020338,12.818807019240971,4.407866897885216,15.795503201049158,7.934042463910762,3.515767314771881,-8.77173811578905,-11.463269002323996
0.54,5.765453808578002,10.728485425622841,4.600980549320634,15.986538720121871,7.614936418839276,4.297593933869447,-9.222216844229887,-11.263688136359614
0.544,3.809036258276776,7.337066616397682,3.8508151120021257,15.32447995090559,6.5208918856427704,4.420031295342873,-9.51247754508749,-11.045725255537263
0.548,1.3287258475112789,3.7766579055744995,2.636079931204737,13.705029203579814,5.037711800938568,3.9951349026275267,-9.701911317203404,-10.6681471223339
0.552,-0.9359152227427772,1.2161889557681054,1.6539014889548704,11.415685992141938,3.92872741801587,3.315268246668893,-9.653657138276778,-10.113207375297042
0.556,-2.2581786603124065,0.32871949171846815,1.4260896966288747,9.06042128760427,3.915304174666522,2.731258333780426,-9.057892174063022,-9.486914438145917
0.56,-2.1661584320151004,1.00273888371547,2.004441187455336,7.298897520814722,5.273795787507067,2.470751720513996,-7.600273086393809,-8.965209482907852
0.5640000000000001,-0.6177812229067139,2.445078974622122,2.9452664833834614,6.531166319073586,7.672047228236771,2.5027155245822787,-5.2008304264059575,-8.732792457050401
0.5680000000000001,1.9371411656490576,3.5747558513159436,3.539860020243095,6.673076759850394,10.28861027613467,2.53541601904167,-2.2009291062283243,-8.960210422880161
0.5720000000000001,4.647763714218268,3.495524386163509,3.174961963203586,7.157484262493782,12.144552313209134,2.1741939738422538,0.6370424353921047,-9.782861826947634
0.5760000000000001,6.517515079623266,1.8476788388006358,1.6572517338695434,7.1952662296724,12.504102997388244,1.177775001800374,2.3705485559576074,-11.226142343565645
0.58,6.768907714353514,-1.0813844882202988,-0.6544205578723243,6.18301408536393,11.170671315316845,-0.33637991342071183,2.2707726086114883,-13.095556035202815
0.584,5.191234691976631,-4.478107816238869,-2.9564577197727777,4.061236923994643,8.576507929682634,-1.869140179331954,0.19038149948709826,-14.92034407706324
0.588,2.2920455582985206,-7.306511979876673,-4.328792000022402,1.4130740281961072,5.604468183044634,-2.7420731502184843,-3.2976763815515735,-16.036851696824385
0.592,-0.8746936481170096,-8.703789848286146,-4.163470587834686,-0.7904172250780199,3.1967501734781436,-2.4460260887497185,-7.096114191176056,-15.852510453355663
0.596,-3.1405805927104646,-8.294160050003008,-2.472072575165357,-1.6668029600044996,1.9495815150489495,-0.940800996647372,-10.023256953783653,-14.191572246897007
0.6,-3.7273260437397555,-6.295290228333924,0.09702652813660773,-0.8713808097476088,1.895114105698819,1.2791969283754827,-11.269448243187961,-11.503152505458111
0.604,-2.5734316205367387,-3.3715366970134317,2.561105121837942,1.2280419586743592,2.5788316475188946,3.4203038350872177,-10.646334586998307,-8.75907319255943
0.608,-0.32083175852691026,-0.3257107976835054,4.07865715696854,3.7444860002157645,3.3647905532339015,4.802071044276165,-8.524505896430103,-7.012167896223434
0.612,2.0137665577041233,2.1983113125217004,4.343847902654075,5.706043439137722,3.773527375944653,5.212069967383508,-5.537329549341447,-6.831644060295228
0.616,3.504709196206446,3.8742273462392225,3.6882454512683243,6.484923271265782,3.6627343774943038,4.994224471959063,-2.259967867758877,-7.935299051904774
0.62,3.681529295812213,4.66397159009881,2.8294120106313345,5.986453226918421,3.162722418584016,4.80638529553816,0.9458706274984043,-9.268660338913822
0.624,2.636880575331341,4.676158747449334,2.4240146334232504,4.540444560340718,2.4513010253933976,5.188461010654889,3.8821217898680795,-9.536028324055495
0.628,0.8590766267567371,4.003545459920284,2.6590197346252626,2.5944564172369553,1.5195094086784255,6.1958204526442495,6.342093490374832,-7.931073501487122
0.632,-1.0803741622206102,2.6405660214420448,3.1203606961102417,0.42275806379340053,0.10106452498165552,7.319840932001563,7.9918986186940675,-4.660319714917415
0.636,-2.775763814602259,0.550635110625584,3.039673524384088,-1.9487767655126813,-2.1460265464662616,7.763358767287434,8.450616304765326,-0.9241602277655869
0.64,-4.043840117518133,-2.1568536613630696,1.7927508052974912,-4.572265323327389,-5.296160630713308,6.92398406606252,7.5462702149594145,1.6744380473432179
0.644,-4.802693858760577,-5.05804138653747,-0.6236406646274322,-7.305604859506458,-8.859665311336357,4.799821449775499,5.580686670683219,1.9914852154843423
0.648,-4.923361011117916,-7.4241340932572335,-3.4420860116113445,-9.665939739808369,-11.778694639687528,2.0685828737948104,3.3850750431273573,0.004768133972301136
0.652,-4.21415593013866,-8.478924865110917,-5.434791303278431,-10.959617686673035,-12.810767120993436,-0.2281496289868441,2.0519366709172013,-3.116313681006784
0.656,-2.568154109410986,-7.783174207974055,-5.530637538038766,-10.630581091725135,-11.129657733250376,-1.2271557959208814,2.44730331756622,-5.577564922537176
0.66,-0.16158504304494423,-5.516911475464255,-3.3966818741572204,-8.611304885677551,-6.818029180020067,-0.7029179279675586,4.757729212787387,-5.8638828498101425
0.664,2.4794052318227475,-2.4567620655735727,0.3643685282657305,-5.428625252324263,-0.9420086075174168,0.8205995434032185,8.347746193231648,-3.495534273924717
0.668,4.632941048304576,0.3549237343010816,4.505104920453031,-1.9834745374381408,4.853232863864969,2.3657606996800506,12.031159761638932,0.753890368384126
0.672,5.695849496185595,2.0804057003949232,7.745985277483472,0.8717227736955557,9.025795269875593,3.026901654226091,14.617590711995515,5.258316591036765
0.676,5.484708137964145,2.450252716079251,9.37168688138765,2.7083592044952036,10.756610482968041,2.424917073389137,15.443604378304107,8.318831686543406
0.68,4.341513854154454,1.8249498038220064,9.484853081380223,3.6260626066308035,10.201385963901103,0.8492544424041384,14.61414253272391,8.911015488549307
0.684,2.9644353901064457,0.9352388538460603,8.811445165855634,4.041244170929482,8.287279577844197,-0.9751628880980325,12.835913947908352,7.041236529671041
0.6880000000000001,2.0384576858817915,0.4457050987566552,8.19220049470847,4.312438984807012,6.183104920860786,-2.3353959590260445,10.967249860554155,3.604735577691719
0.6920000000000001,1.8773967868386716,0.5825709032320696,8.074554591295277,4.456466595361397,4.741658505572783,-2.9185934922680232,9.565297514411665,-0.10691240820626513
0.6960000000000001,2.28959179948745,1.041246349703278,8.304820089583384,4.146429144620954,4.196863296528031,-2.925664192336466,8.677142323103086,-2.9600504216496057
0.7000000000000001,2.735654310092605,1.2161970127741009,8.314989842796642,2.9872355799713497,4.227332045681242,-2.8702621254877183,7.974846183525506,-4.331957240556667
0.704,2.6802238236205382,0.6203337086601097,7.577902832059253,0.8831854235718604,4.298818568294717,-3.207759465654977,7.119414353773182,-4.164331350937822
0.708,1.8961999748551142,-0.7885604764107521,5.99631040416577,-1.7841431024349208,4.015056268740338,-4.039713150039322,6.0745496133113015,-2.8022478996698115
0.712,0.521370139497908,-2.5932170798324687,3.95597931257723,-4.321799916333854,3.2594701817353684,-5.077116853385254,5.155155161804673,-0.7783824723445454
0.716,-1.139167043649043,-4.201701138854812,2.0401861479113608,-6.141014457841795,2.107042608599053,-5.862791238125915,4.786274063521646,1.354026748621429
0.72,-2.898254373095077,-5.228586934436446,0.6214273352675459,-7.144130396619191,0.64681080199456,-6.0852301223278396,5.161980540737821,3.12193365437761
0.724,-4.815314617050996,-5.689624944183497,-0.3485366178085769,-7.78591139341326,-1.079959542462202,-5.768999854777501,6.06197659223424,4.211546612060381
0.728,-7.0670467109903345,-5.901122800215191,-1.2071614826540902,-8.749443465885888,-2.9816249772312347,-5.223296772558214,6.9676396902657265,4.545040635031861
0.732,-9.652428255192937,-6.180317542510446,-2.2077147577609466,-10.43543187829063,-4.769693076798596,-4.79838930866298,7.402754378066782,4.3135273759563075
0.736,-12.159140639108987,-6.562664670630394,-3.1770381014479616,-12.599649751261701,-5.9336309498102695,-4.632008258539095,7.272630400361134,3.897539412087392
0.74,-13.800582701161794,-6.739058929647053,-3.4852065107459884,-14.399845134063895,-5.9372787041390875,-4.562331620390012,6.954834384141782,3.670422557645291
0.744,-13.747955985076759,-6.255684924066196,-2.3925124198704992,-14.849508487824247,-4.549716143596178,-4.270591600547949,7.056579693754902,3.7583707467837333
0.748,-11.602758919905833,-4.859256960272095,0.4088890199720048,-13.428279074533503,-2.113564579074165,-3.5581515955199094,7.978138607125372,3.9030302690179877
0.752,-7.728751083837661,-2.76008949839447,4.403385416468682,-10.469574481407042,0.4552265405282234,-2.566915873879047,9.554710814208644,3.5457536152407854
0.756,-3.1954509761171916,-0.6064472239438423,8.319530867448446,-7.047640365868233,2.0199063527551027,-1.7753559355478075,11.048882188114145,2.137074149249961
0.76,0.6577139929717291,0.8294832637592187,10.675696648796164,-4.416155361265073,1.760538274818488,-1.7552753118351045,11.521179415904577,-0.47367543066730144
0.764,2.832307295533538,1.088883564129877,10.54865929869116,-3.300954693645758,-0.38161621092795395,-2.8207401049037166,10.383153815469273,-3.802045887979176
0.768,3.1077590507121773,0.29054165607017035,8.107326035286064,-3.4877830362347066,-3.6446248422133323,-4.785322905751375,7.798065627643204,-6.822510422435056
0.772,2.0635824596953594,-0.9599097391436413,4.566197679981521,-3.965948452829462,-6.84481723620811,-6.9831539244130045,4.662867000491594,-8.388655225498798
0.776,0.6912634828027993,-1.9594379383957317,1.5610297473746582,-3.554912793465215,-9.004587274807948,-8.560831089000825,2.154000798641297,-7.7816989812268815
0.78,-0.15652965690612985,-2.344232360215143,0.2912132448627739,-1.645145865937165,-9.833477536256638,-8.880952318150104,1.1023979816242075,-5.072276565816755
0.784,-0.14559685529700328,-2.26819944831668,0.9386108241356801,1.4063178516947215,-9.761084447336266,-7.809475357123606,1.5771008763139287,-1.0916772973301558
0.788,0.5172815365008945,-2.222096957818981,2.6746890205282496,4.450785243474108,-9.53380265246857,-5.736207442748832,2.923315756434307,2.9739572559348524
0.792,1.3716205716067376,-2.635258018517659,4.220912964029623,6.183570629319442,-9.657802921140469,-3.333730671419252,4.215267460091643,6.144888815982701
0.796,2.0614413496498676,-3.541809289383848,4.614804951375909,5.856120169977758,-10.06542760555819,-1.2147172476837436,4.824928849889819,8.034364860128028
0.8,2.497245714884036,-4.562290943162515,3.712978109912859,3.6330063253784672,-10.240752404203356,0.31118585803548626,4.749407899581966,8.861969118848583
0.804,2.738471600762127,-5.214197719182128,2.157082705259633,0.40788131745899925,-9.705091799679977,1.260689809571702,4.497197921559722,9.119087716461863
0.808,2.718510073218738,-5.350726892485508,0.8581694053725304,-2.7789922343616444,-8.524482366366342,1.80948811006626,4.624451151965718,9.12106244596569
0.812,2.067933475936787,-5.40770704857311,0.3535877662600786,-5.3366730071642765,-7.464635639956499,2.0714562431865082,5.251439774802971,8.754759937226675
0.8160000000000001,0.22872025996060685,-6.237667169800126,0.4657899820018052,-7.35597967511719,-7.625656219762814,1.985168044329118,5.91282470619968,7.590222649259769
0.8200000000000001,-3.1470585090888763,-8.576585389448262,0.47090598388509086,-9.342512484045717,-9.743742530976654,1.388590879975765,5.863354289673877,5.285496176975895
0.8240000000000001,-7.7393452296610015,-12.433384124292697,-0.32391766154090895,-11.633379321272965,-13.573201957955451,0.2172893743080131,4.657725617671173,2.0086785725193717
0.8280000000000001,-12.386862421416549,-16.820498231082432,-1.991576445853747,-13.91084475942238,-17.77820707897267,-1.3174453769402916,2.6145384663092472,-1.419185011504815
0.8320000000000001,-15.4151082227142,-20.07127092096592,-3.7975874034367703,-15.181939222910875,-20.48614853788974,-2.71976435302686,0.8013740089262424,-3.806585853059005
0.836,-15.381087648096301,-20.638132903723353,-4.562763406645152,-14.289760669046723,-20.244080804048753,-3.4072427781656223,0.48563076716256126,-4.178137446077746
0.84,-11.85941910279512,-17.951498986406474,-3.376838611525164,-10.66704379220853,-16.84911640368011,-3.0071923519951738,2.3467869233823633,-2.3168382523139233
0.844,-5.815888690192465,-12.825355662577973,-0.21573389507835616,-4.859638857158195,-11.548888639614876,-1.5750805440790732,5.933347438795724,1.0656142355567484
0.848,0.6824198698823878,-7.1608670190309995,3.9130031940473997,1.5226841322298723,-6.488502716361424,0.3956130239520772,9.728875271129027,4.639087582123786
0.852,5.340578335055149,-3.0675423683300913,7.409784422000346,6.468943474640032,-3.684313173324198,2.192962801273353,11.859476282575672,7.100271544183187
0.856,6.6732028098648914,-1.8573728006951526,8.873749707183917,8.511195576623061,-4.06782845440142,3.2216569109819035,11.080573071348415,7.803301069275403
0.86,4.686318388747689,-3.446281794355696,7.806376518445253,7.441866239076063,-7.104758047098404,3.277315033649743,7.486681550717103,7.030183796888981
0.864,0.8461413393592734,-6.461391799135898,4.857786732620912,4.4123290393524215,-11.146170804272497,2.6134453479260102,2.539379909717036,5.755708085211161
0.868,-2.656594836357507,-8.994947861030518,1.4761395599365823,1.3406299305262408,-14.298703682422499,1.7657400628681934,-1.6356124209793865,5.057682856232276
0.872,-3.9738708636726106,-9.590097519275915,-0.8354578361912903,-0.057915886785743,-15.332571888482818,1.254626615393466,-3.310182645686158,5.521471925804299
0.876,-2.457018627294077,-7.927580215925481,-1.2368439377246325,0.9020061442884977,-14.15760525452923,1.3350528402629456,-1.9869765276907216,6.971461790036614
0.88,1.1130102975506482,-4.883366699920202,0.1143837280713953,3.6079035994064963,-11.692615259397945,1.9167433529593145,1.4404397812492977,8.662762239463998
0.884,5.018551152630952,-1.9533836659713035,2.2665810966338436,6.560386445795427,-9.259427543580827,2.6800817473019123,5.25233482929632,9.793314695295765
0.888,7.515319143207474,-0.41802573944461763,4.045024164095188,8.189182386335673,-7.892799718743512,3.29273599791113,7.837121551279132,10.002750198197873
0.892,7.678544904492918,-0.7116156115757675,4.653583154281151,7.621272526552108,-7.937994494054549,3.586513832738243,8.472644403985944,9.546600155373417
0.896,5.758798086204216,-2.3162304842339125,3.988745378247949,5.006590609578069,-9.084792893766116,3.590497526394935,7.522606673677518,9.048959727290667
0.9,2.9085513244777625,-4.180370516684448,2.5464579016738864,1.2838958132427232,-10.713556882888406,3.4328088276802795,6.00016448578281,9.008623134500409
0.904,0.48081256660882765,-5.357784750883735,1.0460328182750016,-2.4089195456109627,-12.27719741025902,3.1960235713737157,4.832090390548477,9.381595466785452
0.908,-0.6723011813043556,-5.48385670163686,0.022051133956686897,-5.293834652719298,-13.487312725324083,2.8478243906952976,4.303129118623034,9.538742681497402
0.912,-0.5145014018769283,-4.832835495442083,-0.37659832973869767,-7.164605707701183,-14.233938283752275,2.3125281974466745,4.018759083346308,8.65954824576813
0.916,0.36715214273927055,-3.980435604539827,-0.3089404098852633,-8.190767395221819,-14.379434300462563,1.6261820451088136,3.3690531568612903,6.334060980352454
0.92,1.2913392447012648,-3.3309156571730103,-0.007076362081386733,-8.522279459834794,-13.651347582027395,1.0473486989153784,2.128176947986958,2.989085469431328
0.924,1.9693241901256826,-2.82471363706471,0.43079918690003005,-8.022369255742294,-11.760190327088178,0.9992457198089388,0.7492469353541327,-0.17629402245868642
0.928,2.640677022960383,-2.024124037879151,1.0519759836736622,-6.34300096512483,-8.69623472297275,1.8255976188475986,0.11223458762488692,-1.7720156410584726
0.932,3.753691512265686,-0.536174026549646,1.8485138208361587,-3.328098193491062,-5.025208626313891,3.469932313535816,0.838693653704282,-1.0523215497787524
0.936,5.411870165752413,1.505771456666403,2.5053346678049753,0.536941944450325,-1.9436351698932874,5.268137957024533,2.614407878311919,1.4714402410540988
0.9400000000000001,6.991768603045623,3.2364093856555574,2.312781449407675,3.9864359051230087,-0.9620956191166243,6.043919354589727,4.016370693476849,4.04485027295302
0.9440000000000001,7.2571186600259,3.3412114385411984,0.3965672089493264,5.354535738196358,-3.282724418017029,4.5498572699032405,3.0757632060412283,4.401185067053751
0.9480000000000001,4.983894129188478,0.7267206794277361,-3.799844787911578,3.3493858630925835,-9.14905629110022,0.0875975045518329,-1.6596492810483725,0.8959720411221728
0.9520000000000001,-0.202805388567858,-4.74881162806348,-10.01153623298841,-2.157072602108078,-17.498526435551668,-6.984321553462701,-10.110993879800638,-6.500258166483768
0.9560000000000001,-7.294834481322438,-11.913690219404163,-16.950461340646427,-9.794788329313658,-26.154119268098967,-15.15054582840147,-20.30456676206205,-15.891531308320983
0.96,-14.065979084085697,-18.549263508718354,-22.602942123623677,-17.079159406684745,-32.54177954506525,-22.160290455832914,-28.959457137584376,-24.060035448842314
0.964,-17.95475060838489,-22.217211158677756,-24.963336163911094,-21.388497547055096,-34.64147403486258,-25.839429061445305,-32.811852399828794,-27.742303658844737
0.968,-17.264773894162737,-21.28676617578033,-22.893421065364084,-21.089501620109502,-31.767678223392373,-24.950935067541742,-30.040806518286175,-24.99303120388221
0.972,-12.06609391080854,-15.679184690651416,-16.694345662138236,-16.260475142851327,-24.83492823693399,-19.705539341990598,-21.099970335277447,-16.011149327140263
0.976,-4.286382852580147,-6.960135693184867,-8.08964331599824,-8.643676653457359,-15.98009941860532,-11.680021806996619,-8.531381378527438,-3.043693236497756
0.98,3.109395540586555,2.285473181410862,0.4287126021192176,-0.8440490361756634,-7.6990662153720315,-3.165792827841841,4.15649618201604,10.574322233128328
0.984,7.47850692797061,9.52856087561991,6.619801951263215,4.834429359548807,-1.863349462356167,3.752822252263875,13.974315821929363,21.770297983819066
0.988,7.686203415045638,13.292992484898173,9.38175719494765,7.321134850539697,0.9313761788908401,7.957207078472137,19.56797306661472,28.834478165058577
0.992,4.525226586791355,13.619113612073457,9.09642850745347,7.0500338057247305,1.4119454831051872,9.557991491670718,21.46131656269446,31.795579724972537
0.996,0.15177728398940538,11.80426051500416,7.280737954131718,5.484131800041672,1.0782828179556834,9.574596082710402,21.390691391782127,31.976232315330932
1.0,-3.116322827829288,9.603634244503805,5.744418074037429,4.2105366968363285,1.3487449530581639,9.242403280848544,21.176241020516425,31.050874405831244
1.004,-3.9646587412737304,8.345640851088685,5.707154636160588,4.128619717706031,2.8376329341543975,9.331109733925036,21.76111767653223,30.135309502909976
1.008,-2.617472731372856,8.393151696083764,7.300813678051313,5.129886843361988,5.095403451349294,9.824071489745121,22.886028638411915,29.362452679040775
1.012,-0.4965668000455885,9.181911775950304,9.661256022422032,6.377717125828932,6.901296894175608,10.094387776538667,23.482620741010457,28.08045485390434
1.016,0.7158445065874535,9.728961233774296,11.49240143128716,6.9412640637985845,6.920977174038359,9.418862779579833,22.460147771844596,25.46592302540634
1.02,0.025976114183710486,9.264983889213289,11.74931262857766,6.370504331605275,4.378511812898587,7.517363503441628,19.393152335099956,21.162973297544085
1.024,-2.427395032263002,7.656154183602482,10.092656152754016,4.896037271176054,-0.5619472481681953,4.801137121202631,14.744857367417788,15.5835398085681
1.028,-5.604328487438575,5.429437044290632,6.937173203340832,3.195948788745155,-6.848593444514471,2.2055609049540097,9.577278875526925,9.74223230279219
1.032,-8.251808009178117,3.4473323082342735,3.150380177443147,1.9316364662548153,-12.960026529315748,0.7165146560073872,4.9945605673981035,4.778601648983347
1.036,-9.577518140828243,2.4731386031806677,-0.36697512797106135,1.3755307582595666,-17.467123621548346,0.8667571131060159,1.6858730605314651,1.468294437922177
1.04,-9.524103093436516,2.861409015739761,-2.9890012437263582,1.3473972695973915,-19.498003518914448,2.4898754454014504,-0.19456148613492452,-0.014542237932500868
1.044,-8.566489422884466,4.495927985923483,-4.453458545452496,1.4485773227747496,-18.954754378472995,4.83917689613814,-0.8391694924578781,-0.02026300913669843
1.048,-7.272362025250734,6.914032001219992,-4.800291293324438,1.378579040485194,-16.474582931349843,6.981257221149214,-0.5126455485822992,0.84769923386912
1.052,-5.971860593121766,9.483680749377914,-4.2870014958700695,1.0955398726916885,-13.206818837346786,8.224549001033264,0.5757739612330739,2.005574519067526
1.056,-4.739909087169895,11.535253481288434,-3.3457173539142726,0.7254209731294807,-10.489880098963088,8.348050209509163,2.17676388376963,3.0045337975321385
1.06,-3.6317613361605723,12.437792994886955,-2.563101188082399,0.3133692113885118,-9.498632522055775,7.553388693917068,3.8166369784472174,3.4886187809276255
1.064,-2.909488200312925,11.711246221560222,-2.577828535124098,-0.35388180317933493,-10.892235010390685,6.226250556848223,4.750554153387444,3.1176444973560926
1.068,-3.0059248339683204,9.226746851999419,-3.8334010201323574,-1.6723317378868146,-14.534027944576092,4.68807327960794,4.212426110220798,1.599404852579056
1.072,-4.215265511136817,5.408378854263602,-6.281328211446018,-3.9217968794011893,-19.410015297411846,3.0953440526509395,1.8721928710246356,-1.1461412550812988
1.076,-6.3316218619286575,1.278455981644719,-9.218057962450962,-6.943878011578641,-23.846284552824038,1.5220154515634174,-1.7850775220500688,-4.801810153007937
1.08,-8.533980804836684,-1.7859009975808364,-11.428319489046416,-10.05499411273361,-26.03842182160205,0.11218071711300492,-5.458505641142697,-8.601067380636147
1.084,-9.681261505691918,-2.5640474451344586,-11.654119064972964,-12.308999406277342,-24.728510524489018,-0.847854737290656,-7.518118436672815,-11.526068780244183
1.088,-8.903403581151622,-0.5624289937223397,-9.201448324475793,-12.996120972840341,-19.753473084367375,-1.0222299963987753,-6.792343472548052,-12.703963564682148
1.092,-6.15393765454426,3.645047242164822,-4.385304002925759,-12.09435887377043,-12.206442439676481,-0.24619987167594193,-3.2572993717392533,-11.818160855683173
1.096,-2.3789939751099007,8.524442761482815,1.4547367513155998,-10.383092142450185,-4.0957387663506095,1.2652728967031681,1.7697192820573129,-9.3258793461536
1.1,0.8400849727036634,12.145819752095043,6.41736520280306,-9.110065589327789,2.3732896694030123,2.8880105733304866,6.102251579649549,-6.336563701231363
1.104,2.0146294007179737,12.981053292879729,8.797543163434634,-9.354075012790178,5.597995749579017,3.806794197260251,7.636837343539046,-4.190766762816615
1.108,0.46756100844684845,10.552263415287143,7.778584413163208,-11.426018964441756,5.104089704129458,3.3910903830674233,5.3185272979616585,-3.9288820847720802
1.112,-3.342544722027185,5.609747527982196,3.7247028928677275,-14.647516038730174,1.5765446993926797,1.5346600059519488,-0.361911543723743,-5.885604798939536
1.116,-8.034331914888684,-0.22663249962717202,-2.035330279567641,-17.63292396475311,-3.5637719283076863,-1.2365852959281618,-7.586262594118994,-9.577775370441124
1.12,-11.92488849270474,-5.189183081736757,-7.817703231732805,-18.94366992425263,-8.810550714972955,-3.966738180583598,-14.04541876421218,-13.914871355828526
1.124,-13.731662759477405,-8.078698820573543,-12.271274914918745,-17.7760958247874,-13.11453394579916,-5.697276474419475,-17.969646865124673,-17.615682301782183
1.1280000000000001,-13.02729721704987,-8.654318419039381,-14.822034284029115,-14.335947954235102,-16.087609365139457,-5.907636302940392,-18.845705240687522,-19.64535998273386
1.1320000000000001,-10.297431930988655,-7.571123205487666,-15.729833722393359,-9.73251546350108,-17.86382461619649,-4.749478930041931,-17.503156526795856,-19.51983928309736
1.1360000000000001,-6.657025618604511,-5.964921804547659,-15.799963645127336,-5.477289444767742,-18.78029037419765,-2.9566122464622735,-15.572997379694296,-17.407721825277413
1.1400000000000001,-3.3900773390887644,-4.925122012516274,-15.943647908892089,-2.841455108588047,-19.108768260240797,-1.484437939771841,-14.620355598675335,-14.033593405981176
1.1440000000000001,-1.5002817903367283,-5.073087299376282,-16.783396698342845,-2.373637716123453,-18.95602385763589,-1.0704329699921686,-15.389638794859758,-10.426250701580239
1.1480000000000001,-1.4006340652288247,-6.38552982390237,-18.43655854428274,-3.770028404509595,-18.32009274655824,-1.9253859004791372,-17.505194328731505,-7.59061617113135
1.1520000000000001,-2.801493238500086,-8.277084881103113,-20.517058452708863,-6.101578672844603,-17.198627655642433,-3.69657515365106,-19.733023260896395,-6.191591332434585
1.156,-4.83364439914818,-9.871533566794746,-22.309792688872314,-8.263298870041876,-15.637061744689987,-5.706527545134926,-20.642622067094358,-6.33966358705127
1.16,-6.403582713488701,-10.375565975839484,-23.06294141720284,-9.450287149606693,-13.71047229092438,-7.332467123609174,-19.332470808832884,-7.564900108205588
1.164,-6.669087703609936,-9.407056654747468,-22.286612780540743,-9.449184941797833,-11.470612523981863,-8.320372297862043,-15.85985369991736,-9.0048771782302
1.168,-5.457644531040296,-7.165561734818039,-19.960588880699646,-8.647718268292412,-8.936238667824021,-8.87695527682313,-11.199451525463745,-9.76578392685941
1.172,-3.4097219049541887,-4.372645215372345,-16.574755447944312,-7.778865164814751,-6.156436211414788,-9.49643864380665,-6.771819884266697,-9.304762837607512
1.176,-1.6980263369987438,-1.9739570516950475,-12.964100225408547,-7.521362977290469,-3.3024858065455427,-10.623976063132064,-3.7867091696108233,-7.671462781366779
1.18,-1.4012868358418022,-0.7166312880146184,-9.993446709199477,-8.141055515164677,-0.7094581023383049,-12.341932811126611,-2.728723479832272,-5.483631653056422
1.184,-2.839313144849895,-0.7871139011396915,-8.213090473684263,-9.339762792771486,1.1955599524559768,-14.260234528644947,-3.237347658729548,-3.6523014332336556
1.188,-5.249940514645878,-1.6981574657011629,-7.643858012849269,-10.385867561245222,2.063203727898841,-15.677433460966217,-4.408358007489154,-2.9914726963485667
1.192,-7.074519720996071,-2.526977712808338,-7.821675379024935,-10.481447271529714,1.7876919961657,-15.945050825316835,-5.345877076800665,-3.9034886773571857
1.196,-6.785568370196764,-2.4204588443702404,-8.093196138768889,-9.200460448847533,0.5559471889756538,-14.841866057635775,-5.677337609254476,-6.284325818050171
1.2,-3.8287095439376038,-1.1157789766120596,-8.017474137619493,-6.772200189766132,-1.2639723843314918,-12.748302851963125,-5.7455375456682045,-9.662766314330193
1.204,0.9001119976424634,0.8560179595013029,-7.6322853854695465,-4.023630110040825,-3.309015325213427,-10.507294062327986,-6.365322227473268,-13.448602410386545
1.208,5.3852538968836745,2.4267046329913455,-7.422457184796087,-1.991356829953749,-5.3636653763874005,-9.018927815689256,-8.28227049081804,-17.123795431349293
1.212,7.521320047089279,2.6044464877085733,-7.982564847509456,-1.384983920082556,-7.355532088002723,-8.772567642638093,-11.61952158938851,-20.283568417450415
1.216,6.281640954096983,1.10340622511344,-9.56639535454189,-2.192701264907492,-9.226478570384662,-9.57142808670831,-15.634423275217554,-22.556653282389348
1.22,2.3325108118536813,-1.4153530704035213,-11.823170301030245,-3.676355401898306,-10.812298548551,-10.616780457736406,-18.95555929373489,-23.543336460750847
1.224,-2.28686718544385,-3.6500775129928074,-13.885302131144346,-4.771930734475464,-11.827698267877398,-10.919831041560734,-20.203661797259493,-22.887085642030446
1.228,-5.25587161639706,-4.351464753732944,-14.77099364178125,-4.675879364162511,-11.987594339935026,-9.830497862037717,-18.665164384125873,-20.47521183208592
1.232,-5.211515241374525,-3.0068641441632202,-13.88902189222395,-3.282347270076037,-11.197381978208039,-7.392061297045672,-14.655692220392368,-16.646197749759857
1.236,-2.405296577157073,-0.10920058112457454,-11.349792851039407,-1.2111348317156798,-9.6597208441973,-4.317017748388343,-9.370751039317742,-12.215870251411248
1.24,1.5883358164831867,3.1386697785907116,-7.919290705252557,0.5873333546873978,-7.810113061259427,-1.5981801392562929,-4.308292325583791,-8.240202292781161
1.244,4.8894753496634795,5.503957526153059,-4.63651057022515,1.409782614192701,-6.081445151695782,0.01724114498089424,-0.5768178054656543,-5.587541768209917
1.248,6.402191897619541,6.369713404867799,-2.320745029052911,1.203955538953557,-4.637638580161253,0.3873785526727942,1.5441108042293816,-4.526342175966532
1.252,6.296417727940247,5.957637583521703,-1.2522264868346547,0.545228197901912,-3.2703675258793035,-0.036378651562614994,2.556217001226206,-4.586874335875439
1.256,5.629497348494898,5.020376675108464,-1.1763581479104015,0.21346164752956032,-1.5500882437319792,-0.5698817030218066,3.275010211776891,-4.7995300857079775
1.26,5.425125333548301,4.234576516635895,-1.5914546043134177,0.6467944104422725,0.8313865495122158,-0.7640633795029709,4.245136031650718,-4.190691921777014
1.264,5.876438091917995,3.738099891805807,-2.0919720760297995,1.6448220636722781,3.75281156135571,-0.6783989656421152,5.393251279962913,-2.275269729581006
1.268,6.241887333694873,3.130163539665798,-2.544167446645424,2.533606758206833,6.613441134189759,-0.7683375281805062,6.125362334704186,0.7294912206092068
1.272,5.507193919012529,1.9224332814065894,-3.0100352907577284,2.697567223273592,8.617178328353344,-1.456252504963218,5.78947746224228,4.087022195515024
1.276,3.3393104619885055,0.11870550675179481,-3.510779127265681,2.1299214134158087,9.25892527772957,-2.679986174586013,4.202288127680424,7.004518230451964
1.28,0.6170224636273165,-1.5312414860143098,-3.852003326382067,1.6018859495932753,8.701923404479194,-3.737173721030387,1.8933632332710388,9.08454916318615
1.284,-0.9008195620184187,-1.8318080354713682,-3.6598658898506065,2.289803039890433,7.789387911050258,-3.5844125947603898,-0.10807732367848022,10.492558760084599
1.288,0.3811184024363823,0.15618041636343394,-2.623025527988987,5.056204958906362,7.6345379004817495,-1.4451896830967208,-0.8189928707862322,11.766726473608482
1.292,4.775090976829705,4.436477596717511,-0.7799841990103205,9.811400996889414,8.985258628678338,2.6283946604019857,0.12916434289106915,13.404257669119179
1.296,10.868676165351847,9.877925717378897,1.3659344006427947,15.381102078313056,11.717057026602202,7.599374534944403,2.233363115807833,15.484309888411948
1.3,16.10958937231694,14.657593889772054,3.0063171384842624,20.00617547317738,14.76423007631897,11.834332092177519,4.33297129477739,17.56257259669921
1.304,18.13792087511767,17.147686095302987,3.4201986146660532,22.22746323368073,16.592720790218486,13.8590857413187,5.196786991591077,18.91084554302675
1.308,16.099174038838264,16.74835371861518,2.3743709710147316,21.654695247384645,15.987385248061791,13.075228545848198,4.157052042677039,18.942761806571475
1.312,11.147474750899285,14.179675920512663,0.28632997242752056,19.16865086672912,12.730904627461669,10.032544097008191,1.4456571115640946,17.56723720608271
1.316,5.818928933782821,11.060045524051638,-1.9629152911227579,16.419657581715796,7.785931073269996,6.105759193782935,-1.9390327080156504,15.25763347760807
1.32,2.6297218705644063,9.002779353429384,-3.4840364778764323,14.897059069147687,2.8529904286368906,2.7715193428739884,-4.745146839335596,12.814937051489753
1.324,2.7240697481836538,8.765383551655699,-3.8424097564555253,15.104985152578184,-0.4622668616555403,0.8930650867711754,-6.072310321707214,10.967009437674358
1.328,5.352223733222008,9.93034051112129,-3.263302462696296,16.32568044553281,-1.419586212161077,0.41005779127352104,-5.748759203934137,10.045012295319365
1.332,8.441482149256421,11.273309497875598,-2.4608835857088702,17.107847899820563,-0.4225600514492043,0.5814065559936932,-4.303856149950582,9.923749312468644
1.336,9.875047079453472,11.563235035312891,-2.196577460035025,16.184805201586496,1.3373823883445461,0.5820464084352461,-2.5897013711139922,10.211887455720612
1.34,8.697543790495804,10.300218848324116,-2.8258130973104834,13.278621368118474,2.647222370382238,0.06344328627680929,-1.2879484800085348,10.546936637954394
1.344,5.557920204172181,7.988874250423869,-4.0690661947789035,9.333345658488339,3.0240284951021827,-0.6544498985401703,-0.5748909112124414,10.815685310994025
1.348,2.1845054437346274,5.815139852761524,-5.141453100697084,6.034928171331141,3.002120969216895,-0.8564851106953868,-0.11250018951010976,11.162539262781145
1.352,0.2701490733874859,4.945466941262284,-5.165518616022705,4.88897658323958,3.7781133939570437,0.026839744331656368,0.6659318378647012,11.794934438599894
1.356,0.4821680695922056,5.8694219707233435,-3.6356121208720467,6.392028909290052,6.425641553930863,1.978278583627655,2.1505811555259173,12.72788197780709
1.36,2.1596913677506038,8.131783445670518,-0.698401273030449,9.744494955485017,11.120634075565006,4.334587330525585,4.267020118757061,13.639488743028181
1.364,3.832514905957771,10.593945163254611,2.910542949822325,13.267535071273944,16.853743672293227,6.147885131302067,6.468394118268951,13.951345011993808
1.368,4.195246390111968,12.0479487035736,6.230323963844713,15.277842174860158,21.820601169359247,6.743749704913244,8.001545027945404,13.09852749642196
1.372,2.9109453462170514,11.820957008885365,8.524117268991905,14.922428328048527,24.286298479868684,6.123055702322399,8.294582908027225,10.837213257900036
1.3760000000000001,0.7824409352187152,10.05642942348188,9.579867970893604,12.53651586146605,23.45369626364247,4.965352575479622,7.262514779199602,7.411958512308539
1.3800000000000001,-0.7881326469306451,7.531978964938287,9.693423642419575,9.3393374985419,19.828617522905585,4.230639816278022,5.34432391494654,3.4790386996710287
1.3840000000000001,-0.6828542330206657,5.16607981750445,9.378884279697687,6.690172464037565,14.899373974760044,4.5974566038399605,3.256646257072861,-0.1848228110736767
1.3880000000000001,1.2514253948910055,3.508436270289681,8.982893669907558,5.341516625049501,10.316466642232523,6.074117294647711,1.6055381624633456,-3.0326508705365764
1.3920000000000001,4.1067384326712055,2.491612838333084,8.440622697829467,5.09973310328686,7.046123014740708,7.99511270653372,0.569117094975486,-4.976785204016901
1.3960000000000001,6.434108643705718,1.5643797729922706,7.336682370757425,5.058611683889753,4.987663251184314,9.394774602277309,-0.16901802641129926,-6.3757286621074005
1.4000000000000001,7.045533420390177,0.09558665464550081,5.225030596622989,4.223821263496827,3.2360011689372232,9.528047922033243,-1.1795927907609833,-7.774939338273169
1.4040000000000001,5.648319463522835,-2.1648873487881586,2.0429528803282504,2.160832421983054,0.8246200196634597,8.249701221302598,-2.8628442379577796,-9.54937474444357
1.408,2.9653421880576505,-4.836525859460227,-1.649182026410585,-0.7151030205615516,-2.519268154958099,6.059577302984825,-5.093730704490487,-11.642522746524062
1.412,0.30186043986400923,-7.02121426288003,-4.78876921179505,-3.367319391372276,-6.084179852317167,3.81254014588987,-7.158095913938409,-13.551212469986346
1.416,-1.1688707085585395,-7.730999153852166,-6.269144285495649,-4.7307595222091745,-8.528791644041513,2.2732575057980773,-8.058426112865767,-14.579635304554632
1.42,-1.0136299919326088,-6.429998896512782,-5.527764987982542,-4.330224083453157,-8.680923921561357,1.763258555083094,-7.058905987297037,-14.230747740561508
1.424,0.2661703102877393,-3.3991245781192796,-2.9296126035251824,-2.5669823057216226,-6.286462697029755,2.068542530894984,-4.157580919968961,-12.522150241630396
1.428,1.537336676972163,0.2924620407142089,0.30600515087994795,-0.5107446878685442,-2.2376096712355933,2.6229223930772534,-0.192100679023969,-10.034641484630535
1.432,1.649788423967765,3.2272001641477717,2.647529516696067,0.6744777346239568,1.8825866933645425,2.8432203154475078,3.526951194961547,-7.64671626021053
1.436,0.06061659403460329,4.3043958731842435,3.0230404999043383,0.36683085190385967,4.689636359944085,2.435995518160391,5.902070891267796,-6.078257394278566
1.44,-2.856522643299109,3.284512323642436,1.4058175828851929,-1.1762427114785865,5.778636104039537,1.5284471969784388,6.672084380298536,-5.488901964753683
1.444,-5.969073587639113,0.9287688164559271,-1.1156550697275769,-2.9627420792567145,5.930792678060356,0.5759372289668887,6.59398152440748,-5.373722191414277
1.448,-7.910544374221999,-1.3561358031589896,-2.852150315855729,-3.795565917654218,6.612882974923906,0.12201381769725472,7.030016868690067,-4.826348134119538
1.452,-7.743023979963965,-2.223240001277681,-2.378142086311776,-2.909139391801728,9.040086511402485,0.5358796062046651,9.12630345963077,-3.0533616679309823
1.456,-5.438139803006842,-1.0881330564004341,0.696617943041286,-0.3800108580758693,13.349755690734009,1.843885395006565,13.04113877441835,0.118035530024172
1.46,-1.9452355390362537,1.5288694527218123,5.45629724315704,2.8912588189712243,18.36827031934767,3.7163827448412587,17.682993950177192,4.031004727715972
1.464,1.2177846910096637,4.236328358288286,10.091925819703153,5.622153160008897,22.145575082365646,5.605681325420503,21.17071359484532,7.421610801939451
1.468,2.6713193857685256,5.474148877190344,12.781568026856986,6.770848578444559,22.969547947396723,6.9699453140392515,21.80595386136583,8.982792038767956
1.472,1.8439741428244947,4.322943380710433,12.570010291235814,6.010403228590263,20.290969355218017,7.472988462127457,19.02425138195786,7.979285359383288
1.476,-0.717467533431396,0.9908878870589919,9.78732487429511,3.8287175032816454,15.045828416688678,7.080126832079377,13.77161919653132,4.603129138544617
1.48,-3.578518911313753,-3.293213035369933,5.78571174611821,1.225533522714144,9.186270751418192,6.0165923256421,8.06527298475686,-0.10700663473980798
1.484,-5.093363596634083,-6.903013077817308,2.1810950521250154,-0.7979131009568725,4.709698353675478,4.625831275075775,3.9744137423058756,-4.729612173603101
1.488,-4.200182217953368,-8.613931560819985,0.030262438323140906,-1.6824805683811346,2.724229438100199,3.205744079808493,2.584558180576868,-8.0612169911865
1.492,-0.942830712140237,-8.1454847988934,-0.5994132477512535,-1.4704406377928785,3.0540638562292806,1.9096434265691917,3.5355955611527747,-9.544716971553447
1.496,3.5410393291907774,-6.177879041926173,-0.46007890736398505,-0.6367645298870652,4.552844439278246,0.7551925594642332,5.3809091379519245,-9.342012536686326
1.5,7.54952509723212,-3.888494145519564,-0.5183210125696416,0.255051113536517,5.861274735044427,-0.284229004494867,6.533115785970691,-8.080658629509516
1.504,9.605280942699705,-2.294118549234419,-1.3059981198412736,0.8570954235347088,6.151170028576319,-1.172540193751974,6.202176572222219,-6.456530597319318
1.508,9.093975379651537,-1.792582354051577,-2.643529130560788,1.1185634001857059,5.431178726347911,-1.775383272177143,4.751985846375434,-4.93168739476857
1.512,6.438171962424761,-2.134362118848164,-3.8743412526872305,1.1317306461640801,4.289234932569417,-1.9427262211561216,3.284951351392982,-3.678223688790279
1.516,2.7636397926100473,-2.7699569413162295,-4.4110920980328245,0.8969652699539654,3.3240929759491795,-1.6485579270584978,2.7618529492590307,-2.7122261456340877
1.52,-0.7254024034684612,-3.3102310613335613,-4.21695042478598,0.19684219990722074,2.6651609138042747,-1.0802366353766857,3.2509967723994633,-2.068338181415783
1.524,-3.289299104923574,-3.761208232648892,-3.865263223070362,-1.2907386826475882,1.9180959919440956,-0.5944670451043086,3.8257252791145016,-1.849749790178767
1.528,-4.829088611643579,-4.391253368170433,-4.130030241940656,-3.694215969709664,0.5587346897870296,-0.537501947923321,3.201534402128888,-2.1161514538429094
1.532,-5.660399273042374,-5.3503865194743785,-5.3708344036718225,-6.660967133039025,-1.5084011368554258,-1.0157827631264502,0.7108983128994804,-2.7054656129198738
1.536,-6.102952741486361,-6.35612065725778,-7.145145669483988,-9.320868475239575,-3.646005539323041,-1.7757603148094634,-3.0449471339467555,-3.164468855305372
1.54,-6.204119372229989,-6.742706586686619,-8.363540496188708,-10.615210637368486,-4.710336792472173,-2.303596365403952,-6.350613260169142,-2.9132585214915125
1.544,-5.762873039063293,-5.85797483977622,-7.905678910422624,-9.831768319195074,-3.6816133084602694,-2.1141586142052367,-7.289947734379444,-1.5822984008430727
1.548,-4.604114667584817,-3.5662793828445483,-5.333464169619022,-7.0520226518113205,-0.3239224419955178,-1.0668377078802416,-4.88181154328306,0.6741459687740265
1.552,-2.8666913606572577,-0.4953240604175302,-1.2292124576741237,-3.2124785705258185,4.563022224086975,0.4911695759118795,0.27187534252280887,3.128206672080675
1.556,-1.07257726256179,2.186723690010374,3.0808812282097318,0.303398376796308,9.489765348762514,1.8690374849653457,6.245066822285426,4.7641940401976015
1.56,0.11349449074089968,3.3743569361742947,6.265307719685122,2.351223972591496,13.028834352880173,2.407813723977405,10.826671706892315,4.782115671320479
1.564,0.2976171577486051,2.678669392969676,7.742017985655297,2.6264792985926038,14.540544299937697,1.8683266923408797,12.710689820840376,3.045275347907806
1.568,-0.3545314002901008,0.7069124020434407,7.955004059528083,1.8139506402271053,14.424419654427927,0.5941928078996489,12.100700881998737,0.18599299971995453
1.572,-1.1623981716454947,-1.2276106003379954,7.995178508254499,1.1828986746457288,13.755068509200624,-0.6762894956541046,10.383042107061932,-2.705118601389019
1.576,-1.3072406304746904,-1.8243832567034735,8.801034786074442,1.848807030592416,13.53844911853926,-1.2481964495261613,9.101883248208226,-4.643583644281694
1.58,-0.3278708752431947,-0.5380983136825092,10.446269187116213,4.119936696203547,14.05476424110007,-0.8889672336929529,8.915080315072398,-5.2328719896435185
1.584,1.5904065595195442,2.1219048300433627,12.014803716136512,7.322873055198203,14.725724992244867,0.03776361593733002,9.222965710532371,-4.79172928476567
1.588,3.71627478973289,4.912960203789471,12.16682192145071,10.202601850384006,14.581990413359176,0.8250032468497683,8.708186674427846,-4.046311585218191
1.592,5.212305643816363,6.606082848485844,10.051972974448372,11.64897784330541,13.012249169117958,0.9099042345163053,6.400387781040029,-3.6038802978678377
1.596,5.623777130169818,6.68065718262627,5.960349954657845,11.30201275058209,10.266975084377114,0.27627847602962796,2.5158373752712215,-3.573660163496398
1.6,5.075917908648521,5.507730591938282,1.238151317540277,9.647829847303377,7.332289369131956,-0.5154223431827498,-1.558197266529785,-3.5997172298314344
1.604,4.065468613502882,3.9356646518358462,-2.5128768032843047,7.568820625270673,5.23270601330778,-0.7204595384729058,-4.181910047483484,-3.2956975040894694
1.608,3.004519157835308,2.5674435896610976,-4.473000367660147,5.660114321986305,4.207372497548557,0.007551820465131698,-4.702546410121657,-2.7759134677894544
1.612,1.8523356108562226,1.2454106703477081,-5.181145247036369,3.7917568486728963,3.354081169354785,1.2323808670406748,-4.160099911044293,-2.8736821258282705
1.616,0.11634900211436094,-0.8800671551263466,-6.228755647795412,1.2336261646409343,1.0607932174062342,1.8405273442550474,-4.888705212612729,-4.814072060388194
1.62,-2.7462879524797428,-4.707304809117316,-9.199598438636011,-2.7177217251338615,-3.955026792760222,0.6457305158151607,-9.108075951076732,-9.437661334890988
1.624,-6.77696043193802,-10.343689399274933,-14.464458331730555,-8.010834778571635,-11.586459142163505,-2.8312535720150365,-17.29517018744419,-16.412065483843705
1.6280000000000001,-11.185238842961034,-16.627106435490383,-20.592870610229,-13.504034190488916,-19.927216055577176,-7.872369236396209,-27.359903296666964,-23.93384563347583
1.6320000000000001,-14.521446926239209,-21.39646305472806,-24.824770901269794,-17.32196799673226,-25.872158225893358,-12.703220440847808,-35.24252393069779,-29.224074480024115
1.6360000000000001,-15.314002671549307,-22.43847197726971,-24.41077767062464,-17.762865832854025,-26.49809070763382,-15.25959809233775,-36.740601692440315,-29.670303998474036
1.6400000000000001,-12.830419934887413,-18.634194115710322,-18.110031849463027,-14.252990143991425,-20.53051916520003,-14.194614186212148,-29.648847702609096,-24.06104901139105
1.6440000000000001,-7.5273344924601195,-10.645707632818318,-6.97836746399177,-7.773654595474435,-9.084848666977079,-9.580524820676649,-15.03956210037464,-13.273033876173653
1.6480000000000001,-0.9069074642721109,-0.729649447730224,6.007693523261568,-0.4718653146123035,4.732545640776894,-2.9117161937928593,3.036604194776487,-0.01917536061659253
1.6520000000000001,5.161356238013898,8.242990668324655,17.2908749679082,5.363872415832155,17.1626045553865,3.6126948884296337,19.306348771926093,12.254439290321834
1.6560000000000001,9.264630072476622,14.031010081221517,24.298920716844933,8.380885400627259,25.35638895593953,8.130900383500434,29.570486514136245,20.77108141447593
1.6600000000000001,10.966710937142576,15.87932132784274,26.397107101105135,8.68948076888054,28.362104147539682,9.923637984571187,32.35187427460044,24.436953995416825
1.6640000000000001,10.775434592150932,14.573375266731956,24.778463483789018,7.5732440447865415,27.096174303614802,9.575668994900017,29.1228327455775,24.00320010050591
1.668,9.637498369709165,11.73881541979074,21.476500955034112,6.5811879277482666,23.443390135536067,8.457082035481736,23.12505898339523,21.367786462327686
1.672,8.314903484765765,8.86326270155119,18.165995042906257,6.569692311537327,19.10784430946918,7.860199216893845,17.536321359913885,18.46613736446762
1.676,7.021845613859881,6.615678797999662,15.465634242951992,7.267163645035984,14.898328732691162,8.299749729754481,14.026905647682145,16.380444985254847
1.68,5.505905542029526,4.795516839302282,13.06067302678817,7.588784489675019,10.775784721918768,9.367140449480791,12.38847953762071,15.106356680514788
1.684,3.4575158708685105,2.8288143450754655,10.405788627642586,6.462886696297909,6.466790622279324,10.161895137874573,11.24724305087914,13.987372193370977
1.688,0.9159762243607514,0.40747620982022825,7.434569390291291,3.6235237980237454,2.118803912204828,9.980585570747849,9.264245205569939,12.449187758410035
1.692,-1.620344068635088,-2.165922262207644,4.76256211776381,-0.1264287927860579,-1.502967108883447,8.820796164876867,6.037892019866664,10.545430326909813
1.696,-3.4418607891769213,-4.128480532912856,3.260730652474116,-3.3270205047586314,-3.4181951235697223,7.395321711667282,2.220156249077309,8.981300394262105
1.7,-4.055144893370233,-4.779611089133998,3.3308602553858657,-4.680739909980578,-3.1416628435985254,6.671802033775894,-1.0872471436609241,8.637791268155977
1.704,-3.498697254166795,-4.0050272540217176,4.443277826940722,-3.77008950752118,-1.1660621221446554,7.244112665008678,-3.1444903564903663,9.954669296991648
1.708,-2.3313176683129075,-2.4304219113539505,5.324802530227013,-1.2483060746694097,1.1797009135074843,8.931189836496888,-4.012957724377283,12.587314256872913
1.712,-1.2923965383269258,-1.0867136794373682,4.736486615373478,1.591262582722128,2.481802661053416,10.853469564340354,-4.350928154995033,15.561774897383433
1.716,-0.8653428224642038,-0.7974076465808331,2.349458816997772,3.572874924822989,2.152925939997006,11.931376354715008,-4.766226650807312,17.82669933886096
1.72,-1.0248898615301991,-1.6722542509189822,-0.870802656875707,4.255838425462138,0.9152837885250271,11.496790097459792,-5.224904889183701,18.85469537002255
1.724,-1.3267868933992775,-3.0308346675837106,-3.081173711339771,4.056462004514299,0.49591604381121357,9.653888750365393,-4.962814262998869,18.908319217258548
1.728,-1.258847357077741,-3.7998784002472217,-2.587987242070982,3.841949063390903,2.6433084628678785,7.189509943722056,-2.993270394129789,18.798704473990046
1.732,-0.601868675615572,-3.142010497916096,1.1105571562834644,4.28996302401252,8.019194438116886,5.108932536157087,1.121037325705501,19.301303817120715
1.736,0.4439033024077128,-0.936729946490205,6.904475439605583,5.434231257280486,15.629865797505389,4.084637023830718,6.747559242454248,20.602339507330427
1.74,1.4352669353598202,2.141595882140315,12.538838574420717,6.649057670935144,23.135264333047505,4.130587030108789,12.281391341162603,22.105942394185302
1.744,2.027800734436992,4.961536380352092,15.715633408443448,7.051891652736358,27.884488973305608,4.668790903481374,15.854825416983585,22.721871511322515
1.748,2.231564652328352,6.4871793861569085,15.226248994259066,6.048846541224334,28.13464265383014,4.915487498156032,16.269355211028106,21.468430614528167
1.752,2.403696092770163,6.2457607848151,11.495801144325632,3.6905970193723916,23.80858266783786,4.344749853563448,13.610094305020255,18.040945078782975
1.756,3.003117408840041,4.4914303907055775,6.26747120993853,0.6594660519010862,16.42901237542677,2.9728521653100635,9.182273528966748,13.015310642013041
1.76,4.271667443846195,2.012115015867505,1.6398780511624311,-2.071991840279185,8.314715923718303,1.3140341701784033,4.813456746542567,7.577332238103294
1.764,6.054337730075003,-0.28638148720244994,-0.990423493427872,-3.6920751379976795,1.5000999604343894,0.06185343785081088,1.9130322418096912,2.934981976217777
1.768,7.890496605690699,-1.7779062063144582,-1.508549651414146,-3.8555138156144286,-3.0460979863786237,-0.29254031282688686,0.8033206813763429,-0.23812260520224005
1.772,9.305908825956895,-2.313443442392578,-0.9265531065956671,-2.7282654241683404,-5.563426209028712,0.2953969718770324,0.6725842664354045,-2.0415341161495775
1.776,10.09706417869586,-2.172294474589774,-0.6662271391142851,-0.8144494288693741,-7.047956573031106,1.4271203925270255,0.1322372008707533,-3.160759353600893
1.78,10.42135216755864,-1.8437741823088718,-1.734194397838419,1.2938583443344642,-8.54822537386358,2.4882911821607756,-1.9619902230843507,-4.371639897170488
1.784,10.603230359840214,-1.8012547949084334,-4.260759988324193,3.074648749240568,-10.640739296664803,2.940587548536482,-5.884211197062017,-6.060487386167513
1.788,10.810920017502898,-2.345213317956762,-7.583154015818444,4.123100882250748,-13.298496372321395,2.542135650949199,-10.908920608697288,-8.003675329069864
1.792,10.853947494496865,-3.5341024549503612,-10.725239073717482,4.157286463352564,-16.094347332978508,1.4190493200606236,-15.688472602153825,-9.494942944546874
1.796,10.250783730241746,-5.192311473663661,-12.934172510365439,3.0511569656767143,-18.509794122453727,-0.019491130880329166,-18.89267166017169,-9.73288050574375
1.8,8.550047286109685,-6.974607232798203,-13.97003462426359,0.9052437767980002,-20.12979816701568,-1.261039372010651,-19.77562387207851,-8.252759834607613
1.804,5.690519534283222,-8.477825533080281,-14.042685087515286,-1.9205092119178682,-20.661355275150207,-1.8915784190329736,-18.422325421570534,-5.1909150493301635
1.808,2.1496488898586392,-9.377818516709258,-13.512036821223187,-4.8874626833582955,-19.865370391443445,-1.761570601787228,-15.603058517711911,-1.2565269329969144
1.812,-1.2423121200212994,-9.550869265528322,-12.579442199826929,-7.481510971125586,-17.547462825156344,-1.0598558454871942,-12.377669097172406,2.547116259328024
1.816,-3.7335165797721883,-9.133763031741045,-11.175431403279784,-9.446896428844195,-13.6793450333974,-0.2764678203928783,-9.676152105762881,5.3008294158417915
1.82,-5.077532804445454,-8.492968712053457,-9.099981823751571,-10.916183488755967,-8.596598736692245,-0.05662355717727774,-8.01688247119046,6.477817303725872
1.824,-5.676566874169199,-8.091407830892326,-6.2829397770854225,-12.320373994075775,-3.096335618172483,-0.9622657373305041,-7.431399479725439,6.080018816890913
1.828,-6.333764592271823,-8.301404088998904,-2.977806648429634,-14.098014573248658,1.7077512678822506,-3.2189569321473126,-7.584856124226592,4.572810994304176
1.832,-7.734508293088139,-9.2385778477109,0.2362662208569457,-16.350071653443663,4.7639680756829135,-6.5517758172847875,-7.988496677420554,2.678991253819916
1.836,-9.959317063462537,-10.701268623561152,2.644917436686777,-18.655765003216125,5.516538583597361,-10.210126839271624,-8.212344142022696,1.1103942518844914
1.84,-12.337957833474622,-12.26786334113833,3.6622746360378633,-20.197707513140454,4.136542571218371,-13.213299142633632,-8.05700131131519,0.30996001362786707
1.844,-13.748799339650537,-13.508150840286415,3.025234952398251,-20.156162900781144,1.3968671093265836,-14.742566858526416,-7.6491374680117055,0.2873856382340936
1.848,-13.219934563247186,-14.19348450004491,0.8378968791928125,-18.166819478787787,-1.7478500130947232,-14.502966993297008,-7.426722610326047,0.6035584844409536
1.852,-10.500362241241161,-14.390901894160372,-2.519525377862295,-14.581875683985652,-4.637894004542144,-12.864985644236736,-7.996909479285335,0.5199441803412759
1.856,-6.277568314225322,-14.383112005675432,-6.530561358358128,-10.368244625824413,-7.157437137617074,-10.699792523055827,-9.888174211714427,-0.7002694293587468
1.86,-1.9064224885573846,-14.458976388925494,-10.651801648121381,-6.680553594955574,-9.62115669853624,-8.97722721380934,-13.271332915006491,-3.4393153204222275
1.864,1.220600947018575,-14.703523102293143,-14.35970346652195,-4.326807169659858,-12.386564973759075,-8.323707166957739,-17.77376693880582,-7.458262374000032
1.868,2.30946215511975,-14.92591376774761,-17.174707555370453,-3.4334829485312905,-15.463352867629187,-8.771103282108466,-22.50777215954171,-11.869507169831905
1.872,1.489152486377339,-14.76835805797144,-18.709379038388278,-3.48258239838529,-18.375203576196782,-9.821700463496834,-26.338874856837975,-15.400293251358603
1.8760000000000001,-0.34055631709894163,-13.94177154535802,-18.758765075167325,-3.6947741730213632,-20.374887416613298,-10.776426289327892,-28.305213368368968,-16.86864031513461
1.8800000000000001,-2.0393638928695768,-12.462675982221878,-17.412450385434262,-3.5287597565773385,-20.89230254168227,-11.129672899493983,-27.999885925822923,-15.683170454142981
1.8840000000000001,-2.8296468497974723,-10.741558866279572,-15.114251378103248,-2.9977247389087758,-19.92917360268699,-10.807058788845477,-25.73395463065657,-12.125963878370465
1.8880000000000001,-2.65519152660459,-9.44933029655041,-12.593151351140456,-2.626297254768046,-18.13558825966259,-10.125885647647797,-22.385054193386285,-7.280364763451619
1.8920000000000001,-2.113929182780668,-9.200328389840683,-10.63708191401993,-3.074349408862686,-16.477347759936926,-9.523828761157798,-18.987676271275554,-2.6046423152661884
1.8960000000000001,-2.0217260649560034,-10.196687034399867,-9.771902988205431,-4.64632557444582,-15.661471350693567,-9.246402786949638,-16.255517813888705,0.66576671422235
1.9000000000000001,-2.885891307391014,-12.038539594311393,-9.992671309852899,-6.994886454835562,-15.660605497126546,-9.196494077382315,-14.274958720561163,2.0067357086409663
1.9040000000000001,-4.589257973618292,-13.82564549179865,-10.689931723855329,-9.2114635135771,-15.629415173867454,-9.033938307564283,-12.534259847986077,1.7691777882059534
1.9080000000000001,-6.440193952361212,-14.516554496470357,-10.834755275827884,-10.259020290703656,-14.289315645540743,-8.44070972072722,-10.268174539921878,0.9444452200401505
1.9120000000000001,-7.556038777261098,-13.394389246477939,-9.391585344707241,-9.515683788620526,-10.60777382186983,-7.373334356755006,-6.9385020374627455,0.6467000061207351
1.9160000000000001,-7.354254758775002,-10.409567569741307,-5.783204310723308,-7.122781509587318,-4.405388880846782,-6.130957840756968,-2.599700697574777,1.5767419700443073
1.92,-5.871328737111235,-6.233855089031785,-0.210989107553349,-3.9400757432455653,3.4170065204926487,-5.199070405040635,2.0382520371781174,3.7025280936481915
1.924,-3.746439337891421,-2.002311792582384,6.32269893321959,-1.128069139181875,11.147800605935828,-4.974276829426483,5.881944978631793,6.299272522075405
1.928,-1.8789184376729189,1.1547732794548047,12.345857693752357,0.42919941328974254,16.923777171510253,-5.546709427973754,7.939476026612256,8.319501577775716
1.932,-0.9619694339466225,2.569335482307297,16.47025548882034,0.5464412501390843,19.458919054905955,-6.68100380902882,7.7722316064885515,8.899667626736495
1.936,-1.1235992116874893,2.2882523609204632,17.93741723831293,-0.19625474023023592,18.521543135732884,-7.985691667946251,5.687230787156648,7.7783956815394735
1.94,-1.8747511644805837,1.0069646566422312,16.90954342617231,-0.7676100768483245,14.964624320489479,-9.140724682837405,2.5938836293430247,5.440485960461718
1.944,-2.389000543963334,-0.27736458092137006,14.360721495883482,-0.21192239396164325,10.32028935586648,-10.022887107518757,-0.3923463631022681,2.927094523445149
1.948,-1.9315973315907389,-0.7106346965151316,11.618656494243602,1.8910015198619217,6.17178008541538,-10.65059514115618,-2.4062580692780537,1.391338321114827
1.952,-0.22846022251587428,0.06923885307449007,9.76241420138363,5.245176992542573,3.570583387047342,-11.004766037613162,-3.1438657647142025,1.5974179571683083
1.956,2.401167452181051,1.8216385386766705,9.166015508390984,8.99137737247622,2.721434829955948,-10.894537786799583,-2.8976109568093023,3.572592177726417
1.96,5.1911713414050205,3.851327745115537,9.391860916824161,12.082517153567021,3.0200088830366942,-9.999161333539767,-2.3337006992785225,6.577223863838235
1.964,7.257295399842803,5.312194587867014,9.463325668352413,13.680000279668917,3.375450817708393,-8.089004989409606,-2.150458096152663,9.405380382391533
1.968,7.943539535141818,5.529550965144496,8.373361403991874,13.401110571331394,2.667113657437473,-5.297869507067479,-2.787406747841022,10.89792662048172
1.972,7.028988820303697,4.213447002060197,5.572321191612276,11.346700388082397,0.16689855916629703,-2.25068287733006,-4.295899689940544,10.450410232114582
1.976,4.7457157313935525,1.516647407768743,1.2080256459357304,7.971787790637007,-4.197592816522647,0.09259560623232099,-6.388482314654677,8.27660445992533
1.98,1.6387916331776493,-2.042428961038234,-3.956756774880931,3.898221258850862,-9.804895252890429,0.8429755701308119,-8.590760314641146,5.305733399106152
1.984,-1.6303392152813343,-5.737956381557965,-8.869074034172513,-0.24207516261853962,-15.52193774171757,-0.3606199095100323,-10.395797389536233,2.75192541595242
1.988,-4.4621055505056475,-8.8179689412203,-12.56248173705147,-3.901899913577781,-20.033908384916572,-3.1050056375537167,-11.35909660322632,1.5468023872798584
1.992,-6.430667007312867,-10.670126061427684,-14.409423872967007,-6.672144573384633,-22.21452096303507,-6.326214592498753,-11.13557312358391,1.9181087662955738
1.996,-7.332958278201543,-10.954550208712153,-14.171658377721485,-8.327170704498528,-21.423018121952015,-8.76552294737258,-9.50930995210021,3.3254465651225833
2.0,-7.212294801496853,-9.701043383433744,-11.922348139989595,-8.87666762063225,-17.65991951505018,-9.543308834155054,-6.46014788230646,4.763503102300474
2.004,-6.350466753314706,-7.335044526749938,-7.961664116209409,-8.581329101557996,-11.550532997141023,-8.554182039734144,-2.245890098652527,5.283575705928567
2.008,-5.199119542690792,-4.584895033002952,-2.797385170435811,-7.873776228528657,-4.165424336840142,-6.484018960595314,2.569695294247807,4.461063108081735
2.012,-4.24058604039985,-2.2669108353607883,2.826606811697549,-7.188352507138009,3.256499660014557,-4.445330870414725,7.198872466532073,2.550715982613686
2.016,-3.7990428878943234,-0.9902750829774885,7.95388281666216,-6.763132438579659,9.598954058228006,-3.4222613631492655,10.853239624284544,0.2749319898548519
2.02,-3.8760499483428372,-0.9054656543717716,11.585555672674463,-6.517725538726577,14.09135922095928,-3.8093941830222984,13.022034307870424,-1.6055010083303647
2.024,-4.105112960590997,-1.6360036498799346,12.97734228983067,-6.088656166041704,16.4029400862661,-5.266118593682609,13.658866051554739,-2.6940525367326766
2.028,-3.8878839908420497,-2.446897355034285,11.950363318266525,-5.020615250214343,16.614411725586823,-6.939622647671747,13.17301570956397,-3.110951257383914
2.032,-2.685852404852409,-2.599116593419316,9.03065138759851,-3.027689590546399,15.10214502020196,-7.913918116471942,12.198909169200633,-3.3231090825001193
2.036,-0.31409628865946093,-1.708646987907236,5.3017041636748985,-0.17113843595694433,12.39958886208999,-7.6445199532791515,11.242604207870379,-3.776645853070294
2.04,2.919712143686467,0.06623648917528957,1.9824697568764509,3.142928152863567,9.064691352420699,-6.1820833563115345,10.39717317110607,-4.580642008220375
2.044,6.298250394405742,2.100705624878274,-0.09006751141897285,6.337661339831041,5.572654755842528,-4.101859326822653,9.294218241258179,-5.4386059490350345
2.048,8.984548934644264,3.6253635560836353,-0.8018406911368872,8.918260294423934,2.265652886843013,-2.195873121046107,7.344481665633799,-5.848370543890906
2.052,10.381796571132755,4.120894271601232,-0.7528510826847796,10.65349896906531,-0.6561461776164887,-1.1019942794780695,4.141896653786997,-5.427678965227577
2.056,10.377612936560649,3.5726140530405175,-0.8944909470799649,11.59639485177572,-3.110312224447725,-1.0404000507857993,-0.18244558721844983,-4.15102435638526
2.06,9.355276204033116,2.452112233031512,-1.995004623369014,11.953827620840137,-5.08057202633225,-1.7602594316741969,-4.873538167879399,-2.3410864109170024
2.064,7.964210210264751,1.4245992647409356,-4.228667224074797,11.893205593911127,-6.57174031855199,-2.700196239501511,-8.80532367229475,-0.443737684468422
2.068,6.775619017388552,0.9565948877998203,-7.094779479633799,11.417138794486288,-7.58432047101358,-3.2734493486944465,-10.95456869262938,1.2479809647831708
2.072,6.032439591054974,1.0703644887258124,-9.674170760113139,10.402007972044984,-8.09510199889803,-3.132484880321693,-10.858505443210886,2.7349137044917313
2.076,5.613274614485821,1.3820416445164962,-11.066669876242281,8.761619505404052,-8.046836355331282,-2.3038286063845934,-8.80590464741606,4.213175657562188
2.08,5.19662461977455,1.3877940525985588,-10.770209582413392,6.6061876778655,-7.35553349682038,-1.154952650938177,-5.661974279101956,5.810789061333464
2.084,4.511170692286529,0.8134001365568273,-8.823042381043628,4.278624347352004,-5.935913892979153,-0.22303196245908485,-2.4215497151645016,7.360044728796656
2.088,3.5122331323644262,-0.18956078627636908,-5.677111994412639,2.2282599449545257,-3.7393334018758217,0.016038082481860894,0.2650790953540654,8.385760122175313
2.092,2.378602940684703,-1.125719119327109,-1.92551990580582,0.7855084870805045,-0.7985926485680306,-0.6602539944799346,2.334686069490126,8.354510575754984
2.096,1.365744922891996,-1.4622987437036432,1.9366744304999046,-0.005880016693161849,2.7417774525919416,-2.1349385003791843,4.204255542174459,7.036983799299463
2.1,0.626159174182424,-0.972028043957234,5.591020904645413,-0.3809887550440334,6.618251385540448,-3.992021070053875,6.383947450018871,4.7513970152510705
2.104,0.11993415314770339,0.09202776336320717,8.803692449956293,-0.672595055618403,10.458921194754307,-5.6688414590876075,9.017713484015706,2.297700067109658
2.108,-0.32205597934439045,1.1118143153057432,11.286393924926038,-1.0522115335401794,13.826749169792341,-6.646393232440229,11.626918168844078,0.6000208058131999
2.112,-0.8268912770277606,1.4437145872754606,12.652784736395452,-1.3610318909868022,16.29036348206637,-6.605467613717504,13.220011454065506,0.24638726093181296
2.116,-1.3230478080861598,0.7932598976986315,12.544746788784206,-1.1484402880589015,17.51220411665482,-5.5044871392969075,12.726299787395288,1.1743507384452982
2.12,-1.525984789814364,-0.6012413778979009,10.862358438335383,0.08400116421212012,17.33102780764037,-3.573680068298348,9.54512903782898,2.692191899249803
2.124,-1.0976419640173591,-2.0926064333635086,7.939123388205562,2.5570796540248804,15.807396405300924,-1.2388615157515432,3.924010173179212,3.826919361540611
2.128,0.12880590524469104,-2.9650539097377786,4.536290036678297,6.0113934127523265,13.225303064408596,1.0019807614170215,-3.023465325540126,3.802518852028012
2.132,2.001726278863031,-2.8003468249631687,1.618504727507426,9.755289975994751,10.045376341192394,2.7161538150605375,-9.670527954340432,2.392888047193502
2.136,4.090807881648866,-1.655460764724082,0.008373138215034714,12.950601155201316,6.813945798307654,3.6577906491482173,-14.46118195273446,-0.028431920819687484
2.14,5.911106721353475,0.02849327569836524,0.07172036275645688,14.983421123101476,4.0338558504864945,3.842640512366132,-16.46682186393511,-2.732274379153469
2.144,7.202413484736741,1.6957104391912259,1.5867491688410902,15.714057507766945,2.020615056597908,3.549895798899575,-15.660109558847546,-5.001246161534041
2.148,8.065045122928797,2.9384823268118736,3.849805921356068,15.45502309387756,0.7858498837473498,3.220811069997425,-12.820423842118227,-6.41446465113377
2.152,8.852362727347632,3.6061901553460958,5.961633614514914,14.694511595966418,0.009341062060998606,3.2785842538105445,-9.140512169483863,-6.911186993853699
2.156,9.874732601208574,3.7346398443788518,7.167549021610776,13.741709661799288,-0.851002710073399,3.925765081570587,-5.723905657425272,-6.653445996314588
2.16,11.078500093693487,3.3826378028094637,7.103086410313612,12.506879034005198,-2.3259309085305317,5.007320286868422,-3.19245566217493,-5.823243317841666
2.164,11.917394699812203,2.5213147989030213,5.864814308980545,10.548081221936377,-4.6539938373128384,6.0277214532884535,-1.559526142562014,-4.509290661425161
2.168,11.560622227509635,1.0994419895778935,3.93781824888897,7.394223717874949,-7.551488701344824,6.349190690841796,-0.36697560644778826,-2.728374950013912
2.172,9.355226148894225,-0.7661324560844756,2.0285841807972247,2.9591148823214137,-10.177335210497715,5.496661176253117,1.0045974916862455,-0.5397663388587866
2.176,5.292338397825145,-2.637582607304184,0.8590735153596905,-2.211571754829351,-11.3665074318473,3.4283962200976683,3.0117725839400142,1.8451273748490435
2.18,0.19102289649677928,-3.8142774863780735,0.9575616905236224,-7.040518671547106,-10.090471350458188,0.6186440578791133,5.729887500363266,4.044705349288518
2.184,-4.547868592797335,-3.633043147626016,2.489633527636114,-10.34427375930996,-5.967613188206153,-2.11132968286556,8.812024364066406,5.5998059165134535
2.188,-7.544057786484252,-1.874583331234431,5.166675915308577,-11.390769021796974,0.4170968702034479,-3.951979589103389,11.611693341052312,6.120253044666341
2.192,-8.091540535370372,0.9790147323419471,8.278530452079343,-10.288941323995967,7.570083866914508,-4.470661797041162,13.410109546480328,5.399471739917041
2.196,-6.5157651645462344,3.8477830835377995,10.88386298918857,-7.978056308155853,13.564353303444538,-3.788839758064955,13.675236419095953,3.4687221474159955
2.2,-4.022642422712281,5.524752360738246,12.120635464505277,-5.792858094513575,16.750292232108542,-2.470866624652269,12.260152476866377,0.5891494438365157
2.204,-2.0895693384701435,5.295405877950145,11.53650743844798,-4.801747998521872,16.39339416534846,-1.1846291043005845,9.48464423122233,-2.7883908780113407
2.208,-1.7072135374406772,3.3688202452849194,9.300609608022368,-5.254984529852843,12.946877246730459,-0.3310947736948071,6.066989314751308,-6.08061541420161
2.212,-2.878688897490785,0.8406754438666093,6.172741481239537,-6.436003997730961,7.820674930291276,0.1505549613760575,2.9024786247764887,-8.651102087720364
2.216,-4.652414857421661,-0.8349365102487321,3.21319657904605,-7.020499811709955,2.749791534666162,0.6887471088984038,0.7593804748514068,-9.943918415269032
2.22,-5.672253699131039,-0.6104736931872168,1.3433829197419636,-5.791929606237797,-0.9408491964292391,1.746211619927264,-0.005163890524258141,-9.662012034093141
2.224,-4.927479976060765,1.567837281047551,0.9546845707469824,-2.337681823925716,-2.8207413896073357,3.4694423261843226,0.4144315017544309,-7.9076923830414785
2.228,-2.3295316176743253,4.677362764559598,1.7500512258537482,2.6218636615394297,-3.3768463765410326,5.5371435733786605,1.35559817007521,-5.205169689362273
2.232,1.1953524867815277,7.1184217205574,2.9014983634902443,7.462186281099266,-3.602829332626773,7.304229686457166,1.9847691819187134,-2.3442299837031784
2.236,4.153001886121506,7.541926178476189,3.448581799574468,10.355111446774998,-4.397119560342942,8.16401454775498,1.6926802353881403,-0.077334391886692
2.24,5.204794551705384,5.549607420175365,2.7316840924852226,10.102188325368328,-6.099855479533528,7.91084500900221,0.4008059094824066,1.2000096618054439
2.244,3.777408525041479,1.880398569038535,0.6451353788182386,6.688914523669423,-8.395361838249443,6.876001912895338,-1.4022719167817657,1.6017688563492292
2.248,0.2664902258486035,-2.002440550557906,-2.3893445381299667,1.2890048266882759,-10.58219888368518,5.74854288436708,-2.911658236763205,1.6432474847277683
2.2520000000000002,-4.226482175707973,-4.684062804589275,-5.67753915464964,-4.273698926733674,-12.009594883210712,5.188355737496562,-3.4104340511450744,1.928540231741069
2.2560000000000002,-8.42141163443459,-5.4799844360058625,-8.559600354420695,-8.314520370346415,-12.389394242178568,5.473218373464484,-2.6045241222020783,2.8150416496287405
2.2600000000000002,-11.351731538500324,-4.652315803065752,-10.599115640770986,-9.935189702833828,-11.800860367940654,6.397157546623269,-0.7092503717348566,4.249935606057262
2.2640000000000002,-12.599514162220837,-3.079483181049572,-11.592457400624788,-9.244171239654413,-10.4389940910987,7.454649891368771,1.7567124467639803,5.859639816467662
2.2680000000000002,-12.232537824355179,-1.6170264469223707,-11.45656779593326,-7.098933334340303,-8.323108712618795,8.17375347580091,4.320461056510762,7.205170862826532
2.2720000000000002,-10.582053698417102,-0.5691198081696558,-10.1372753101225,-4.570909642490745,-5.208881790116054,8.374391201230509,6.7859801783953495,8.018035433421232
2.2760000000000002,-8.077502918304006,0.39224448604915585,-7.656799146306459,-2.4642602143667043,-0.8212728148290065,8.171740413026816,9.169012078544956,8.237149744299646
2.2800000000000002,-5.2435047117661835,1.8158097947543301,-4.294886196075501,-1.1428051356103124,4.700701764764609,7.728212486815082,11.366231471264568,7.808472258147024
2.2840000000000003,-2.790705837464958,3.8485140883305586,-0.7685845628910717,-0.6908432896342,10.442657076732997,6.948686974051984,12.770838633104388,6.413775892666541
2.2880000000000003,-1.6207270880424578,5.8418006482044085,1.7793853560707844,-1.2122016447674142,14.744328019154635,5.358170157889402,12.159045544822181,3.3755647147531875
2.2920000000000003,-2.603479943695772,6.503884945413848,2.0954641670696916,-2.984384498257527,15.734396432113666,2.3118948530231007,8.06203240845164,-2.090423554597622
2.2960000000000003,-6.149826804366407,4.577490565992741,-0.648637260810248,-6.3034358192466975,12.187311494795916,-2.5382827449664758,-0.45367170206394025,-10.333852373837635
2.3000000000000003,-11.795843156892259,-0.32863428382407456,-6.345084846062884,-11.097958918321163,4.287504036946427,-8.799635734552224,-12.969635162135722,-20.72409032152801
2.3040000000000003,-18.089241896051444,-7.2498511586541055,-13.749482418423401,-16.580457067327767,-6.130813081197407,-15.215325077913574,-27.34501512257318,-31.45711730239745
2.308,-22.950962010834804,-14.05886403556665,-20.762477830314047,-21.23644428678613,-16.0756248007241,-20.002830046711214,-40.1102914251734,-39.94097573057742
2.312,-24.457252261431293,-18.32301713071694,-25.145787355057188,-23.29266392486513,-22.482417279674426,-21.540583938243458,-47.58226958048718,-43.678844218669056
2.316,-21.71441387262418,-18.41162056737021,-25.387214007067506,-21.509967106049157,-23.430206314136385,-19.08201454901808,-47.275922507520505,-41.2830369783146
2.32,-15.374856036578468,-14.27464469716082,-21.324137070749064,-15.894771076156932,-18.929134056699727,-13.121615859705297,-38.965162043845396,-33.13276992901562
2.324,-7.500911189968331,-7.490335065905694,-14.241658044682032,-7.918001568462423,-10.913340306239112,-5.215520988827915,-24.86560681525541,-21.327100854053942
2.328,-0.7734687739186813,-0.5422562112600562,-6.386429285388317,-0.0425203794911061,-2.422466828061762,2.6544561859810623,-8.824000274182346,-8.92775126032687
2.332,2.6239223467213444,4.308129992396214,-0.10250065973349765,5.2707605323458955,3.6547483184125102,8.857184236600114,5.135579133279698,1.1649616852689952
2.336,1.9121314518736892,5.972281035004443,3.032888686355057,6.606383326945693,5.705219858342992,12.648931153798333,14.25561590336924,7.194593530641144
2.34,-2.0146737744240966,4.853509123136973,2.7114489671243795,4.1693563709802035,3.902204154592105,14.240967941090409,17.841519274813734,8.976659131442757
2.344,-7.107988618687427,2.4128425443974586,-0.154395260273112,-0.4086571410658353,-0.0954746947251337,14.426647040137954,17.12286014343938,7.637359793719355
2.348,-11.189621001824777,0.2829946211480907,-3.9453244729373877,-4.918425346679606,-4.039053648918776,14.02484828063513,14.338931402266205,4.887350315532293
2.352,-12.977837800216815,-0.5753196108262523,-7.0473511922734176,-7.641776053778113,-6.130683331933,13.45396732102095,11.561260164029449,2.2196742959315308
2.356,-12.591223103057208,-0.22469124251359496,-8.435441824162826,-8.07053583621037,-5.71466316840738,12.64946981057863,9.85677627134254,0.4170459059101841
2.36,-11.290609922343425,0.5222602736312152,-7.901157506443182,-6.924764643996642,-3.3424992242537046,11.31456070050741,9.134390227973679,-0.47280986579587747
2.364,-10.647096293173863,0.7650030492767483,-5.905734006137138,-5.520861444966391,-0.27890634878116494,9.295808079914663,8.61956855094363,-0.8032545591545492
2.368,-11.596207903471239,0.1440551771321048,-3.214314325750448,-4.8838879166445235,2.231295339549975,6.82971426697517,7.593162410249642,-0.9024480060785387
2.372,-13.88549323615724,-0.9258564540939682,-0.5266339733210312,-5.125675220780965,3.5391751568011998,4.5099601484949865,5.936968992598902,-0.8181255139989276
2.376,-16.22517524532027,-1.5445068758324279,1.7149598976752944,-5.442758447188773,3.7365089719843,2.9912414867552313,4.179200681319119,-0.3594466464596344
2.38,-17.03960929682693,-0.930198099408726,3.3071954993289583,-4.700978297377837,3.3621820959795254,2.6253390982561084,3.0727558612334613,0.6490006557356445
2.384,-15.386689152284472,1.041532306539793,4.1429306093094205,-2.235339497450929,2.9017179514582985,3.2473484648671627,3.0138680863898086,2.103939815588527
2.388,-11.530711675441907,3.6943972961721867,4.090052969120077,1.6269416255020612,2.410833146731745,4.238911601473523,3.697866960381905,3.5459949656835246
2.392,-6.850489252315998,5.878847568073072,2.9892496489740443,5.634802221732304,1.4830543227827904,4.843390747293692,4.234043868969367,4.3278238651619
2.396,-3.1467387966256664,6.5714720327901786,0.7691325642969513,8.232076186566232,-0.44302941460825984,4.549203404700741,3.6630102804491393,3.934609199786639
2.4,-1.7186270048137513,5.417200988463608,-2.392618624238125,8.385308716738498,-3.626572268480203,3.3382626776583777,1.570501581745038,2.291314087829349
2.404,-2.7229138076348853,2.9070632335729467,-6.0020192963687355,6.140559186946117,-7.713490007734478,1.6700148189420698,-1.5767636222422539,-0.13000062260373468
2.408,-5.1534182695876005,0.11874444095498404,-9.33752831428204,2.612302166489684,-11.763942834610983,0.22459062260571727,-4.578933199741382,-2.4694944128479968
2.412,-7.426309808172887,-1.8153766431088165,-11.674037705840213,-0.5786077520624548,-14.620192990201906,-0.4528411625662141,-6.0853237828883575,-3.8414410776803267
2.416,-8.246616440730953,-2.226228033882724,-12.546462286508874,-2.111863436712448,-15.431353132144876,-0.22036576728254287,-5.299319485051255,-3.7216079040915457
2.42,-7.2669092715605785,-1.1488613403762558,-11.917107473834436,-1.5762046066569835,-14.047291317793803,0.6168214866945969,-2.417881285952248,-2.1733958791089183
2.424,-5.183868861276819,0.8058209077909044,-10.159199211822418,0.42560430096029656,-11.072354926378182,1.4982157026522342,1.4315864243009138,0.19845475020882475
2.428,-3.2678140432673235,2.821208601205325,-7.876816018121522,2.671462046856495,-7.560160322203142,1.9140837923618443,4.722226612720636,2.5442064655344065
2.432,-2.6087752240607918,4.2626657793350695,-5.652503810547916,3.9662773258930555,-4.520429619321344,1.660780233377606,6.255723931233742,4.159778666615004
2.436,-3.540671066156648,4.8703209740811,-3.8508301775917806,3.6695034016584476,-2.499622414829517,0.9020596352260615,5.699758552500012,4.775473020851532
2.44,-5.539324108130301,4.706599346520518,-2.5578534251179335,1.8648565444992715,-1.4392843370808137,0.02271537770122123,3.656447211106334,4.595201538963613
2.444,-7.616133136246023,3.951120911118578,-1.6624344894840508,-0.8506710389244443,-0.8641023505683609,-0.633877300719992,1.2516410127047415,4.062261703267212
2.448,-8.922166166851255,2.724510859687938,-0.9940955302105117,-3.7524663568185996,-0.24019884875824005,-0.9791156036552158,-0.4918227365747878,3.5209000756996263
2.452,-9.188611652133197,1.0582200089877993,-0.42779025273166127,-6.295236675143817,0.7133192692587933,-1.216954348766409,-1.153034036825039,2.9742009189028753
2.456,-8.750589296331317,-0.992455459716433,0.09166887952180502,-8.191896469108874,1.921878042655818,-1.6872164527991682,-1.0260560421438054,2.0754936013024965
2.46,-8.184673627847221,-3.2070804030418767,0.5886202761483696,-9.300089328907692,3.0916221789272083,-2.605318933772885,-0.8206805632530676,0.3785834582003811
2.464,-7.8292972059466805,-5.1650467158389795,1.0991731360161134,-9.477942675527318,3.956743908506855,-3.870416524923896,-1.1625568540364162,-2.290634405536662
2.468,-7.515384092816587,-6.381886524959066,1.6571828917800566,-8.570228944193545,4.453432603707359,-5.073834739889558,-2.2101684478558767,-5.58732461582939
2.472,-6.69396397096587,-6.55805084197148,2.2128366150104566,-6.5654594393748384,4.698712012902551,-5.72192864409597,-3.604296851639158,-8.699486932702209
2.476,-4.891639417978028,-5.794643721537421,2.5472668263499116,-3.817420176998624,4.800190745400541,-5.5556666175406795,-4.760913238854821,-10.71366578438932
2.48,-2.1725309175148286,-4.617345608101137,2.2751108313585817,-1.1233839044670306,4.649826676582327,-4.763411413637673,-5.308518002963959,-11.101908873015667
2.484,0.7260392722642033,-3.7610230208237594,0.9818743561097185,0.4781681244497853,3.874865539411532,-3.943554726491801,-5.374930250976407,-10.047106908538655
2.488,2.702651307534013,-3.8105038477253474,-1.5382178254301584,0.1428888272608746,2.0196793347288384,-3.813686627018494,-5.52948345156395,-8.408834986665575
2.492,2.8871423242289374,-4.889443259511565,-5.069414473207095,-2.3261494315129747,-1.122246399336345,-4.811108907344501,-6.4259138649095355,-7.312680270958289
2.496,1.1760578750746742,-6.569660321201033,-8.929309964335214,-6.277621137703282,-5.231701445204761,-6.810683725444784,-8.372387125743346,-7.580456873741738
2.5,-1.6302580472550305,-8.0596096723458,-12.160574984704288,-10.41868418561124,-9.441759833728632,-9.135534843753828,-11.08854177932555,-9.3057472690537
2.504,-4.201724517546968,-8.587059608121127,-13.901340290949957,-13.359433948257395,-12.626772417222016,-10.871544150404263,-13.80613303735285,-11.821233353461176
2.508,-5.370503716829263,-7.775773438467934,-13.760999261751246,-14.231135749578584,-13.879947487913784,-11.323594983093757,-15.655064896584687,-14.077353125059066
2.512,-4.7478038609694195,-5.822273915145567,-12.007232536119108,-13.05705255252262,-12.932520138923556,-10.363782805861032,-16.0965300201529,-15.201755695192848
2.516,-2.9149915300739577,-3.3852428841436732,-9.445607545942325,-10.67540510524974,-10.27902656512681,-8.4763633691982,-15.143704137546452,-14.922077002744912
2.52,-1.0834491271924118,-1.2556399680967594,-7.037079525478956,-8.263074182494877,-6.927403920898968,-6.47149540332391,-13.255950100613676,-13.612465020624743
2.524,-0.41994269216674507,0.011374612064278589,-5.446892389276719,-6.728485982881594,-3.9126333741769117,-5.0421481153861,-11.001664429538371,-11.977595469053472
2.528,-1.4160986723532387,0.3189452635857547,-4.760798602073273,-6.295311145856665,-1.838225016999857,-4.428470673188249,-8.721309079211355,-10.593568715017987
2.532,-3.6660653002716828,-0.0036893198302626606,-4.5255052303061305,-6.495008626904652,-0.6981293459947442,-4.380577348765281,-6.429776764803616,-9.611199753629766
2.536,-6.1465290293305825,-0.4362442262343881,-4.074140007402411,-6.537460822181168,-0.0494941097588677,-4.424986267056646,-4.003284893252616,-8.801827399143173
2.54,-7.809070020677033,-0.564360859566665,-2.9530634369015734,-5.821760299837701,0.5908881494236069,-4.251768828501406,-1.495979630047087,-7.8859857333660655
2.544,-8.130644013980199,-0.27195323064762045,-1.2046100854663222,-4.2805465326817425,1.3808104818879756,-3.9685816718503153,0.6666516493113881,-6.895483575025962
2.548,-7.320437206533155,0.25711359378734744,0.6523674830942312,-2.378157265511242,2.0405438616717007,-4.052870131619434,1.790300935101346,-6.294227160677206
2.552,-6.1006760500951005,0.6958735786168021,1.9137683329371717,-0.798407382440395,2.0460494959410656,-5.028347479395396,1.2782371808194004,-6.741052481092137
2.556,-5.230973582933027,0.7847218311630073,2.086599894899159,-0.031196790039337507,0.9974442988617915,-7.063047486152701,-0.9375562342417667,-8.626415886840975
2.56,-5.067400722879921,0.47594205939257594,1.1683944247503102,-0.10476638786545234,-1.070575030436992,-9.743200626613648,-4.192449025535962,-11.691961559080484
2.564,-5.412161679411016,-0.05535708969536235,-0.3458299857774003,-0.613869595248822,-3.6329751684595193,-12.181426832758106,-7.288958942784335,-15.01652745630469
2.568,-5.710938013090338,-0.5197844099419171,-1.7179868319512455,-1.0007925002889912,-5.90447117868219,-13.416197178528627,-9.02899825354841,-17.423492408363614
2.572,-5.4314409360151865,-0.6548857304257736,-2.3214021279124264,-0.8896590497983601,-7.212292742364269,-12.887763447291684,-8.793788821899113,-18.091119627286588
2.576,-4.3903036075442206,-0.3225521638069029,-1.907675453979905,-0.27429582122392304,-7.2900747236093615,-10.725977553052115,-6.8437537241315525,-17.004283580251517
2.58,-2.8450407440954395,0.478997952425237,-0.6554272150930949,0.5345352507114214,-6.328358857643908,-7.691064979170699,-4.1611745054381455,-14.954296461179483
2.584,-1.329370115112177,1.662048146944079,0.9904020897901287,1.1355881564912882,-4.777759624699406,-4.806376962460249,-1.918542871858774,-13.060028072357754
2.588,-0.3723861982758858,3.0957359270210647,2.5664171455460743,1.2670898961111519,-3.0563346805391043,-2.888549189792564,-0.8644310627925704,-12.086195369018167
2.592,-0.26887327863567156,4.622128950560022,3.787128395767783,0.9019226333246841,-1.3505280877643688,-2.2129990781710207,-0.961913287849721,-11.958031580279005
2.596,-1.0052507204774317,6.046341575299021,4.593664944227469,0.17683832076086903,0.3729073455432266,-2.474313569740519,-1.4822646739802456,-11.794406452289767
2.6,-2.3317081010827003,7.142483313436905,5.0790216195238065,-0.7520633429330188,2.184999754693277,-3.0245509745910155,-1.4815873699451396,-10.45294628866431
2.604,-3.8990271813778428,7.700570643876587,5.3668552337895115,-1.805680600424259,3.9843203761976076,-3.2409384370352186,-0.375353163420602,-7.283546684975391
2.608,-5.351984576088352,7.614209629081982,5.523481378138908,-2.957020325164023,5.4226389162844875,-2.8160701916779916,1.7165745714524903,-2.6404644835825932
2.612,-6.368924321355991,6.950404499376272,5.536806174993851,-4.133077846731957,6.0236548758663115,-1.8397461126489756,4.038666475862337,2.165573146385611
2.616,-6.69480943528021,5.94850834286118,5.352389366753938,-5.14909857169007,5.430294757278288,-0.6709383256841517,5.6250686482161685,5.479501062905216
2.62,-6.222008423540219,4.914192047577544,4.903612923500196,-5.7685436464576885,3.6179222955971815,0.2962667767896314,5.828615073309511,6.147566130456113
2.624,-5.109993454360125,4.052408611567699,4.112886824260836,-5.878298375722947,0.9351052227005368,0.832591557768207,4.651006228835161,4.128459184760709
2.628,-3.8322895078587997,3.351815309141301,2.9011956555514526,-5.64332406872964,-2.0399305741022853,0.9535382538210229,2.716793519817067,0.5333969683111066
2.632,-3.061348978130847,2.6031483776149216,1.2420362193377903,-5.499009091422978,-4.73357790272213,0.8658643070023753,0.9343717854205158,-2.9265552257455854
2.636,-3.3636139463803825,1.5725105534034198,-0.7336381043756732,-5.926749220096283,-6.758728980162104,0.8395985249408984,0.04231036581445169,-4.777901086949305
2.64,-4.828938216399149,0.2352416903838117,-2.648166306810449,-7.113919227348298,-7.952999947378828,1.083764246055921,0.2982009778903252,-4.451778868385114
2.644,-6.88303100033698,-1.0960425291664868,-3.896585820535889,-8.722815067131409,-8.298692623189048,1.6686786398840545,1.4427527012441779,-2.444482102181057
2.648,-8.445441677522926,-1.8500775857131235,-3.826356690554036,-9.953472694074772,-7.825788875887625,2.507153079709644,2.9150806692964824,0.06588727093580671
2.652,-8.423078361837502,-1.4906329838057557,-2.047036831725979,-9.922770605695323,-6.601168005668453,3.3849956678252804,4.159095309098311,1.889939269281248
2.656,-6.326425193484848,0.12078560535177929,1.2899525688730638,-8.170659913020643,-4.8041481263172,4.030675228403327,4.859276371838195,2.4201200612898925
2.66,-2.6600134946705616,2.522379425474389,5.423575082700895,-4.993517781804954,-2.803606536942462,4.207898677331506,5.013491598362821,1.8449495910596
2.664,1.18098693639491,4.761597932441343,9.211431836214729,-1.3941853375543125,-1.1299207088318788,3.804987879025938,4.841456195008851,0.9130876090523021
2.668,3.52368510382334,5.804711869678388,11.582957799923012,1.3637555569236732,-0.29274529971277286,2.896909303713921,4.622258504442035,0.4386183341911689
2.672,3.241552367249643,5.054603244858879,11.998179908664696,2.364897842127883,-0.5280369602470563,1.7408806636915117,4.556247846399938,0.8432847790865927
2.676,0.3521530456291475,2.705531403166217,10.678633924079946,1.4752998970393358,-1.627489952464436,0.6849971455531945,4.704955835138552,1.9812262447429951
2.68,-3.943212670164675,-0.2789099022283459,8.476006931701615,-0.6402205980065485,-2.9899037796071886,0.021826935203636655,5.004254385881872,3.290910119373181
2.684,-7.8230782341607545,-2.587316426700617,6.438528399967572,-2.9171217730615018,-3.9068159405640923,-0.1436884469195978,5.320998191018519,4.144298384213782
2.688,-9.708661199877092,-3.164180099459513,5.315619871012203,-4.449574403285026,-3.9276936098765183,0.07303897639728385,5.516118250530705,4.183578020543145
2.692,-8.976434934200235,-1.6924090746281537,5.265865115270429,-4.888734379372523,-3.0950893715759293,0.4337701194187895,5.502164975486628,3.468468841361827
2.696,-6.14465899047082,1.2965579458271366,5.915734550122942,-4.467117245670433,-1.890162548657233,0.7566919322149288,5.297234166350175,2.389830560776334
2.7,-2.468452466828616,4.723404881786079,6.689362718975106,-3.682357269811186,-0.9182118712285348,1.072922047330676,5.049963639588931,1.430936391548367
2.704,0.7943699769617287,7.494433926932439,7.18514447333075,-2.8851176288623845,-0.5242623021382111,1.6468552675980064,5.008846952086813,0.9297704423401782
2.708,3.0107484760222607,8.987329134351,7.374942907133928,-2.056199364730412,-0.5755769841118328,2.8177071004658814,5.430499907936741,0.9544345699192975
2.712,4.3485060546365855,9.22727596958374,7.510945126229098,-0.9155300065824687,-0.5662174327619174,4.730893341653918,6.4322612254647185,1.3156000369122691
2.716,5.46556949618399,8.710938213281553,7.842824272689564,0.7529562401123893,0.03327119166736159,7.124860639624714,7.866392756839336,1.7019539284883294
2.72,6.94978913177665,8.03398714167189,8.366411694794659,2.8150762440665367,1.4087838164326816,9.330586003424015,9.319130039480841,1.855160787548483
2.724,8.87439459991215,7.548303457023499,8.781958035067092,4.7594779953143025,3.242335123139916,10.524147525885702,10.25905636076839,1.6908961941825265
2.728,10.75308354406096,7.253253895487953,8.702514860486422,5.982659086033908,4.879624489353093,10.135848015927346,10.276961718399864,1.3301295165696434
2.732,11.885234923642143,6.942533420205935,7.960539515860065,6.194519323613408,5.718295741948156,8.19180925905168,9.301605793621063,1.0387595468560384
2.736,11.85217829952999,6.475916470189647,6.792570341351176,5.664875585865934,5.572600121783394,5.381418262287969,7.6630142607717335,1.0998598051682213
2.74,10.836993389399149,5.971651920933127,5.7527875270951085,5.126843082497523,4.794552562415265,2.7847573954514737,5.950386410917432,1.6812451695952397
2.744,9.56897266396763,5.786669026035101,5.3882934649878145,5.366928861190093,4.076877130878595,1.373836614330303,4.730284908247292,2.7383938599431215
2.748,8.923936158231431,6.299719469824789,5.875945493661088,6.743237966217093,4.066858750223901,1.5371162041646786,4.2695974196208315,4.005316632889249
2.7520000000000002,9.426044448388158,7.641949501631166,6.860969876191933,8.939966951499969,5.033407959956877,2.8906089680422458,4.429213411779508,5.10007785826595
2.7560000000000002,10.950780994797066,9.549685427755223,7.613871441701958,11.120886546685755,6.774593784982095,4.488337804202187,4.796139194912595,5.69251363532832
2.7600000000000002,12.791965323967545,11.446680116943902,7.43175863392129,12.400934369069676,8.797050662667498,5.328639294625088,4.969790640504271,5.668312899252573
2.7640000000000002,14.02846893964116,12.699751497319056,6.035201782892409,12.338605119215408,10.614156705316805,4.874897556943832,4.815086305700424,5.1924422661898255
2.7680000000000002,13.981577698876075,12.910468575833672,3.7288790556944407,11.158426587742392,11.966083061646305,3.3141008812942134,4.544536242948441,4.6366509909162446
2.7720000000000002,12.51700460678951,12.084601931163304,1.239961773047059,9.585228548574605,12.846821164503028,1.4280853105887377,4.5814784476169095,4.412063347173958
2.7760000000000002,10.0679830130404,10.612080062136425,-0.6508537507164531,8.41678801364084,13.379170420148501,0.16211811639121443,5.2897041951352275,4.798606861777312
2.7800000000000002,7.405274453580137,9.082183978672266,-1.466060522863251,8.096477445277921,13.656332425784807,0.13085790423783283,6.7368231044760805,5.853902840041544
2.7840000000000003,5.297886839793702,8.037110572635108,-1.1754779527476433,8.542621251105718,13.688787473175653,1.3362660768078407,8.63501350845771,7.454863468932987
2.7880000000000003,4.242163636105971,7.7878920762054,-0.07875943810050368,9.312415421731883,13.485602801148081,3.2365412373472364,10.485916951384047,9.420215309347414
2.7920000000000003,4.354691092376555,8.343422347906467,1.4444761805362547,9.959780777320086,13.16329729827864,5.100575367196505,11.830936752482323,11.622692567777765
2.7960000000000003,5.423283008371868,9.451900966541686,3.129343964117492,10.337007808952206,12.956819239359271,6.418619688189589,12.441150024282972,13.992521882339993
2.8000000000000003,7.046649750758926,10.716615734665695,4.846544143073268,10.647061785832623,13.088414812271754,7.134247064417139,12.353903525271567,16.420819036273517
2.8040000000000003,8.804646799691172,11.739736276616405,6.479086490030077,11.246032430328034,13.578061001800908,7.587199295550578,11.767462685805805,18.64766310374172
2.8080000000000003,10.380663952131302,12.246345957324543,7.79581144471538,12.341463017061606,14.144248062434214,8.223245962678288,10.883033302086922,20.238467793714868
2.8120000000000003,11.614509784735514,12.163077470694478,8.456582747212497,13.798593708833007,14.30677895846868,9.258953797616918,9.806611922014724,20.715284581908794
2.816,12.517078959317537,11.646631797848714,8.187674866550463,15.194741384445408,13.671570905113457,10.520027780756593,8.574351330733464,19.797261003016168
2.82,13.221966668772417,11.028565311782733,7.011049471623382,16.062261258832034,12.219338583701079,11.534419828144815,7.257293793109587,17.61274693752557
2.824,13.883166744865402,10.678389156726453,5.351077859267776,16.15248317804824,10.393344981618734,11.816807030367029,6.03039700537092,14.724200250253624
2.828,14.549305647897274,10.828394819699367,3.9002380756746016,15.53654628017513,8.886484693002107,11.164183468623843,5.139915446995714,11.914836575040908
2.832,15.079636232796295,11.43737445533866,3.2870543044578797,14.490230945736407,8.231944932046042,9.788811063876354,4.784369183659784,9.83163732438542
2.836,15.156069506077621,12.173205461720727,3.7388924910558687,13.259901286927112,8.451072080582865,8.21697366903935,4.9955890108242285,8.676427279331588
2.84,14.391041024999286,12.528417481174523,4.9346413601151315,11.869465059613571,8.985213503438262,7.014615885856978,5.60608087174106,8.116059290068181
2.844,12.507966856379213,12.042194546144565,6.167430531700334,10.11581109344458,8.995743986439383,6.4990363522655406,6.352912284253218,7.480373532544987
2.848,9.520940270133245,10.540141753836599,6.752339683034761,7.768606780999803,7.889437458657566,6.595815906043828,7.052425832494019,6.149932822654367
2.852,5.821382622662039,8.26544476943296,6.431823885102101,4.83874718782919,5.752553811016449,6.906674998881958,7.735592568864366,3.9075987352687145
2.856,2.1103394318981517,5.830131517587054,5.541392979211327,1.7291463221019765,3.4207913400963683,6.935028901482566,8.634471954270328,1.0564175063296983
2.86,-0.8101959118751443,4.001063764009884,4.8340266574927,-0.8563284856474187,2.117029220133029,6.335077256104338,10.014744360433138,-1.7493341294046827
2.864,-2.310507983930857,3.4025793977665133,5.050837489881484,-2.220659002263868,2.8307235595232703,5.060108766140663,11.9560450808762,-3.861943617861462
2.868,-2.1460698878359348,4.278511405188554,6.491836557774649,-2.023629513764428,5.77936437711576,3.357541061537012,14.212171115906889,-4.983746345504134
2.872,-0.5527645301827204,6.388812365440524,8.811540251165814,-0.4907882894604043,10.231448067302797,1.6304670793246574,16.23457659975606,-5.310051797520962
2.876,1.837142631267803,9.090550662357867,11.159878694626464,1.6624451190196952,14.79467445265521,0.2571096720533239,17.368140558892335,-5.406097625177502
2.88,4.2087124096659,11.556414224100983,12.585541725410286,3.5549006965168215,18.011601609789984,-0.5398317367574563,17.119397753980284,-5.9041756369070475
2.884,5.813305016606201,13.028767057528956,12.477014051020216,4.537192944854246,18.946339852665055,-0.7249615054749059,15.355438536966638,-7.199592313482519
2.888,6.193355888367738,13.036904489837823,10.814032460520613,4.462672879817593,17.480496595104317,-0.3949895021200467,12.3302826261393,-9.305141321104507
2.892,5.318904052805548,11.523207342300777,8.132344934359098,3.6999762726994705,14.225471209593316,0.30603811558849436,8.55934024604813,-11.879578997980857
2.896,3.5913532936643637,8.844533352171391,5.244431563848803,2.889294956917114,10.145441676875269,1.2551082538097007,4.625929003934879,-14.387954352288777
2.9,1.6957425170955467,5.646867169286431,2.8667614010216496,2.57028185847407,6.106402580075017,2.370475982919047,1.0079891501302363,-16.297033444207173
2.904,0.3467405498457756,2.6510617503028024,1.347040752961218,2.8890983800493206,2.584531191387908,3.598702105836038,-1.9993781853835921,-17.20355810816266
2.908,0.020880777130728223,0.42611967164740117,0.6064924974353776,3.5425503717379634,-0.351719130173038,4.8967850948938185,-4.256803731711695,-16.8764351671662
2.912,0.7827986622438439,-0.7640707235506872,0.2956927003948211,3.988151567759167,-2.834851498899934,6.234696975295625,-5.686133684378911,-15.241614566400719
2.916,2.299999401273244,-0.9816592715670502,0.05837716266870707,3.8028670604827224,-4.925326902274645,7.612565682472036,-6.1819703207708505,-12.36413640673969
2.92,4.046352641839193,-0.5058324311998028,-0.255176530719031,2.9755499424434118,-6.453694610423293,9.058034020340534,-5.5968358471638675,-8.47328700750797
2.924,5.58546542783645,0.33821766355766236,-0.5291374742936634,1.9549526301719684,-7.066407022179695,10.580313019937682,-3.8219186590957417,-4.000228075568871
2.928,6.790427745615076,1.3257579222674378,-0.4880406273713547,1.4181666694908728,-6.432108081340812,12.095481136669882,-0.9174475006547498,0.43597061408351045
2.932,7.850704814523793,2.352086053828787,0.08683534952956506,1.85661821905915,-4.503001124161812,13.355928337742064,2.767376382926365,4.109193383386148
2.936,9.045466770152323,3.324157674002394,1.1642312653574272,3.211240106500145,-1.6659128234462868,13.95230646321779,6.559533859239654,6.349965005146128
2.94,10.425956883494411,4.027175558132901,2.4140854114456554,4.7955512477653235,1.328269342360691,13.435895437860484,9.587815057970289,6.763596832155668
2.944,11.638252134837892,4.113706957499459,3.367221520648015,5.608488611801162,3.664687612162954,11.555678362570063,11.083895819051094,5.434702409464659
2.948,12.036986112364401,3.2753984803137994,3.70472889650551,4.906420288601308,4.863707521694934,8.502096237778776,10.751727963389026,3.0179352247263997
2.952,11.074535373939032,1.5200286256321656,3.5084292531833614,2.7285914994232114,5.056023730128223,5.003735177375601,9.013755526597778,0.6247882000024241
2.956,8.754119413885364,-0.6247504492010147,3.3017117436869605,0.045018155977738505,4.949462744903661,2.160906507040179,6.950562788087913,-0.5170372270792862
2.96,5.824837140358656,-2.19504718986076,3.7862493194659725,-1.644386599153032,5.4345889242839025,1.0159641566410391,5.851584466878122,0.4298366137854872
2.964,3.516333338587555,-2.2210580890598814,5.373980845119846,-1.1197100571880507,6.9894756677534104,2.024760629612257,6.514154101503909,3.4356513891965044
2.968,2.8863202919495015,-0.3337148681322075,7.755998761350096,1.7430557594175307,9.193809700299205,4.6915775732577645,8.620371841437798,7.3895146961950795
2.972,4.129091502016629,2.80500612263383,9.797178265738701,5.632880832724012,10.670801148028428,7.60643044856306,10.579739636835418,10.341648016688897
2.976,6.277650374925414,5.5725500619196096,9.915065038478449,8.218742298420285,9.596699602600271,8.955921387418933,10.049128234236305,10.207223769807714
2.98,7.571901719669633,6.048262023984874,6.840318764224728,7.211466879670782,4.61514526095154,7.326842617347149,5.012087911395309,5.702300839622194
2.984,6.389585032726921,3.0138190514700476,0.4024283992223947,1.587867516804847,-4.2713339324549775,2.436670456368687,-5.044719110810414,-2.8949841246669656
2.988,2.2566965514683415,-3.2239533942090643,-8.087680303944694,-7.664967864693697,-15.321321979973664,-4.581309733580057,-18.468672687364204,-13.57120149142424
2.992,-3.6473580110829924,-10.687979802449231,-16.141198139876643,-17.733209641451005,-25.478291159327174,-11.537070173527448,-31.736230580824795,-23.167609747378854
2.996,-8.869634887342833,-16.456995011538826,-21.035077633198338,-25.091548248068243,-31.501657110058662,-16.061541743880774,-40.69845752853688,-28.555753136731635
3.0,-10.833447253852187,-17.963695713671765,-20.975278481356497,-27.047901761956076,-31.305885850289073,-16.6006191845295,-42.25644653138559,-27.882527245139983
3.004,-8.181482997062098,-14.226500525643377,-15.895737461857836,-22.95536524040599,-24.855527120812646,-13.05146947335206,-35.67049945258551,-21.29852353295383
3.008,-1.5874802052521542,-6.36540710769583,-7.492732464329928,-14.484782992274042,-14.161181743221254,-6.740534236947731,-22.86625138422396,-10.809034909406169
3.012,6.451529294739325,2.8895445857664965,1.5338421384551735,-4.816247946535275,-2.368787050317331,0.23254245137308915,-7.5841749986494245,0.6684308819524833
3.016,12.779159247078484,10.46658835481043,8.65956469436656,2.84191676945545,7.5971972529504175,5.930645745452422,6.217488414303115,10.549922581807776
3.02,15.10240272567908,14.339229517229526,12.529621483626673,6.648526084555181,14.154321364857067,9.317828980115229,15.886076770470824,17.507522764561983
