Timestamp,O1,Oz,O2,PO3,PO4,TP7,TP8,Fz
0.0,-1.5347723092418164e-12,4.661160346586257e-12,3.979039320256561e-13,1.5347723092418164e-12,2.1032064978498966e-12,1.5916157281026244e-12,-6.821210263296962e-13,0.0
0.004,-10.873237906090935,-22.77859289262591,-19.65886813233459,-19.035166184737136,-20.413458726963597,6.533969004229107,2.848456437294658,9.770889043278771
0.008,-20.186659199723522,-40.51755802301909,-34.56651184001254,-34.7151166586529,-35.810777120357955,11.399344553397555,3.8400146818557914,16.012361588238036
0.012,-26.784234289097014,-50.096640199688125,-41.76734111521648,-44.850557961091795,-42.948510897270864,13.62949155307615,2.4297649382735926,16.962578718368604
0.016,-30.162611272207016,-51.367095203084546,-41.109794496517736,-49.071848170778935,-41.40343228828891,13.316458061500839,-0.15194295689764203,13.388644804959199
0.02,-30.48304911330024,-46.86425635745178,-35.02817735198647,-48.69586211509761,-33.46889188114852,11.464076100969692,-1.607129468322455,7.931630739340562
0.024,-28.39464780866041,-40.424146185063876,-27.293176141791548,-45.93305582760064,-23.038771799880465,9.438157259209333,-0.026893587634845062,3.4627007149057363
0.028,-24.78842901772697,-35.4343382916943,-21.357372222702338,-42.8487615495207,-14.013342202851504,8.320325960356058,4.809231707399704,1.4504936993384945
0.032,-20.597814026364915,-33.58358823250245,-19.088430659474113,-40.58952804362633,-8.946998092899776,8.498843038832547,11.111782348266729,1.303414507538264
0.036000000000000004,-16.68843036040215,-34.6390027335882,-20.427296947581112,-39.22204612874032,-8.475484787935784,9.644946717885887,15.952585557055727,0.995437429365893
0.04,-13.77193004956655,-37.128955628521794,-23.934152719055987,-38.1292301373835,-11.582125248865736,11.019992067425164,16.831163892143763,-1.5051706734863046
0.044,-12.300479854690707,-39.421503924455976,-27.810891344907816,-36.66164250278598,-16.429052950261422,11.881660121468258,13.014950211730365,-6.940361391720671
0.048,-12.32749339378239,-40.543050034813746,-30.789092190219662,-34.63516304477446,-21.250266755929914,11.776576483826148,5.90138298776543,-14.373100915639952
0.052000000000000005,-13.434599242270622,-40.40313518378099,-32.51211409264846,-32.44376544397011,-24.952109172867296,10.625813927529066,-1.7727859031427329,-21.843661781991273
0.056,-14.841360309024594,-39.50043331042298,-33.385210820284954,-30.802905371878467,-27.2914597969733,8.65466168735054,-7.375252491936237,-27.549173650522903
0.06,-15.718048964147044,-38.41512679053352,-34.09309222126478,-30.321983990823128,-28.677114646985245,6.268669483747658,-9.629826958350577,-30.78296009821736
0.064,-15.583493268838595,-37.4624661675864,-35.12655251753608,-31.17150310267516,-29.800441807119142,3.9464763356382946,-9.002602556081513,-32.091493513246746
0.068,-14.54995474840581,-36.641904607521894,-36.52911126098431,-32.998445946153424,-31.256789955161025,2.165231785347032,-7.106164831643866,-32.65855022990422
0.07200000000000001,-13.277751366999837,-35.852109700069065,-37.96506433794602,-35.134712153866644,-33.33135903700784,1.3044851414994127,-5.596756016510767,-33.42550332258304
0.076,-12.635843256184842,-35.161253783200266,-39.00565988254189,-36.95935823358769,-35.98169644494547,1.5277055451292654,-5.26599983381368,-34.54505496363771
0.08,-13.212452741964086,-34.874002226045434,-39.394853915962415,-38.179022168513086,-38.917057390554675,2.678929600299057,-5.823577095641724,-35.49485469295723
0.084,-14.945023356432046,-35.34862375757828,-39.14218888771285,-38.88111603804339,-41.70163296987485,4.272596145341424,-6.363835362628436,-35.67556144746226
0.088,-17.093291855114927,-36.681520018074394,-38.41868165863522,-39.3521693459536,-43.81799642287058,5.638358277312534,-6.098205785623691,-34.993480076614446
0.092,-18.599112784455997,-38.512937073341135,-37.38944393318053,-39.81369645282638,-44.73545993005277,6.205820406677162,-4.845335523009055,-33.9783782736277
0.096,-18.64471740176384,-40.11796364453585,-36.119901875957254,-40.24204446287149,-44.01555412103417,5.800438831714928,-2.9949126397527266,-33.35142918289125
0.1,-17.086220505223366,-40.71241465674356,-34.58625681426162,-40.35393545883829,-41.42541525678962,4.764506824240584,-1.0713160688972039,-33.40706844574379
0.10400000000000001,-14.522614868224622,-39.814417890514676,-32.77265901264704,-39.763650305917906,-37.05463800353564,3.793972022756691,0.6958504799545153,-33.720742182795334
0.108,-11.979641728895047,-37.457317036781404,-30.762456063109767,-38.21339824529451,-31.381943500410216,3.547022310527666,2.4295198007810654,-33.474880554814945
0.112,-10.399620085898448,-34.19251073895279,-28.794080242764352,-35.76241807713541,-25.28259612076829,4.236376351271417,4.23606206661367,-32.21150864677702
0.116,-10.23247387082273,-30.932971279689298,-27.284733013146337,-32.865304976983936,-19.966534422603274,5.437722864642808,5.694035420749742,-30.49646199814549
0.12,-11.333923835228745,-28.688216964019205,-26.768136507014134,-30.285724154825203,-16.778014019365287,6.2311083230168265,5.645010726990108,-29.990719470201725
0.124,-13.16977690486442,-28.277718417335734,-27.743377602118102,-28.86061421213614,-16.849834332598874,5.6186358717374105,2.5713227669117487,-32.7475389830837
0.128,-15.158222244284048,-30.075004512418445,-30.47017781309046,-29.194498893784555,-20.67874797242814,3.0024915084863437,-4.565459898507015,-40.07458547850621
0.132,-16.928552541557593,-33.85515692366948,-34.79315619428357,-31.410674751589568,-27.807742137946263,-1.495487029678145,-15.487712862955732,-51.57988169263842
0.136,-18.367869707712913,-38.79922399417464,-40.077950467406225,-35.062439848748795,-36.79479744980611,-7.017267312502781,-28.283825681361236,-64.96263899783196
0.14,-19.478516373323828,-43.656065119695995,-45.28599970007636,-39.22757932756582,-45.52374528472944,-12.260693473749882,-39.8871943417314,-76.74799112036914
0.14400000000000002,-20.213782217227106,-47.07355978936715,-49.21385509187968,-42.7704618102527,-51.81663300883554,-15.94294540691709,-47.19648517679377,-83.643326354014
0.148,-20.40056481343828,-47.97762583063866,-50.79692972511157,-44.64866116706702,-54.09089831042411,-17.223103146080575,-48.27611861029334,-83.8234230149568
0.152,-19.82848476702455,-45.92819774679862,-49.43467507361555,-44.196456910990776,-51.84296146296896,-15.909738635888175,-43.05898019020037,-77.52812906956365
0.156,-18.421416124649056,-41.31927519554512,-45.24234431863857,-41.31279572320676,-45.7822316269004,-12.407976472322844,-33.232539937549234,-66.74298817830885
0.16,-16.338803033759007,-35.26987793209338,-39.08159506225695,-36.47260805500645,-37.5219803957296,-7.492941921189413,-21.416572413583026,-54.21489647632336
0.164,-13.946778967977707,-29.23815246061031,-32.34318223842979,-30.589351418676983,-28.9793742456381,-2.0519400326691084,-10.097676571402019,-42.356232773508054
0.168,-11.667371222336897,-24.49781942984822,-26.52691883441412,-24.77112802237548,-21.733622012015815,3.114752610835467,-0.8601580858116904,-32.57275854432385
0.17200000000000001,-9.826064012584709,-21.734892404559332,-22.792865528981565,-20.05991200666398,-16.62400819724826,7.395895828017501,5.774057872616481,-25.2266067204813
0.176,-8.616716989232373,-20.955800303726107,-21.65846348058642,-17.231495233572844,-13.731878206761621,10.398268394091929,9.969802090128383,-20.063476774349056
0.18,-8.150278809325982,-21.66862891880777,-22.88822364308419,-16.64908043334998,-12.626995467656684,11.944414607712588,12.028197192787275,-16.741403457821207
0.184,-8.532672075664323,-23.219644174101973,-25.608253302586036,-18.193232081499048,-12.70108538828896,12.05542511870442,12.047704509851087,-15.136302872305805
0.188,-9.876077038470214,-25.07371390625707,-28.58603852056592,-21.27035695818165,-13.391442554635319,10.929978519854672,10.00246626416265,-15.293264054064934
0.192,-12.200232723787849,-26.92951836747079,-30.61645500259192,-24.93446791254337,-14.249881457947424,8.910452844910878,6.105626702712584,-17.14402383351546
0.196,-15.292502022002509,-28.686305314642595,-30.924004351223857,-28.13527175712386,-14.942004067624055,6.43765056762436,1.11673205770785,-20.252548624128394
0.2,-18.65125912607408,-30.310067871378862,-29.41493946739314,-30.016627112149195,-15.237215313478657,3.9890339905751944,-3.6986875929381995,-23.815476007301072
0.20400000000000001,-21.60196887074335,-31.71922965008787,-26.68401194271172,-30.165670437890867,-15.051121919848299,1.9939545192019068,-7.015455663282978,-26.941393027625054
0.20800000000000002,-23.500627369121105,-32.71690696588644,-23.728001965245085,-28.667520116993956,-14.482158763102802,0.7549638952702935,-8.058713835451726,-29.02746671830937
0.212,-23.972656713554784,-33.02517660065308,-21.507493011558324,-25.98377944124229,-13.813375247356419,0.39532933738530573,-7.011591232302976,-29.985898127699556
0.216,-23.024782054563104,-32.389785450918,-20.547840734094564,-22.711902253346352,-13.431492270788851,0.8453557221444044,-4.9459355611021465,-30.16947671295668
0.22,-20.973769105395604,-30.665478725738865,-20.734436744509765,-19.337335394466777,-13.636433346505498,1.8604503373773014,-3.2753690435141607,-30.058992418728963
0.224,-18.28041959703205,-27.87147602782943,-21.412031891329548,-16.132082808455948,-14.45523348972472,3.0596229163867292,-3.0227369259661145,-29.942548012969496
0.228,-15.397648078974157,-24.219184662725866,-21.750871783719504,-13.235422953875968,-15.579581040130904,3.9918639572219945,-4.309293647252616,-29.792463614563303
0.232,-12.744016794195772,-20.147235338117298,-21.22425099573968,-10.863863846139225,-16.516446145972623,4.240615326891884,-6.364262621486773,-29.42292059755721
0.23600000000000002,-10.758519621905975,-16.309903046100317,-19.927540743948043,-9.460400660459754,-16.86950984674712,3.5543857277059487,-8.028315177866489,-28.798719420066163
0.24,-9.915400207945822,-13.45716168838419,-18.552656642483043,-9.622914599697538,-16.583381358910174,1.9613967819775553,-8.446814777099007,-28.248184780199608
0.244,-10.59196519534646,-12.202359658238379,-18.022515682820313,-11.806805685800555,-16.00666834718004,-0.18509292310568526,-7.538473443172734,-28.37227467417756
0.248,-12.801240770862819,-12.727770996457366,-18.956787898725565,-15.948072582073678,-15.708283486090295,-2.2903449671086946,-5.99534681085288,-29.687094170281625
0.252,-15.96466319286867,-14.578763611588556,-21.26357868623802,-21.24940544529136,-16.135583100025883,-3.738252854770053,-4.8474387255522515,-32.224598403242
0.256,-18.971674925368006,-16.741143893288267,-24.10889942013091,-26.33749437507936,-17.325387567429402,-4.172023671965462,-4.855503157437397,-35.34137697719257
0.26,-20.627173319791154,-18.078259071566777,-26.349434419196882,-29.817341148565674,-18.893005878347253,-3.6993132158902426,-6.124961345345582,-37.93538522600079
0.264,-20.284325809904885,-17.942430972326974,-27.197021040714844,-30.94777417450439,-20.30357795821442,-2.879965623606722,-8.133873821949464,-38.979746564157495
0.268,-18.283503419406316,-16.600554277911897,-26.70177977333003,-30.035571631978428,-21.233336326065114,-2.4759332463395367,-10.098422377670659,-38.08623600163742
0.272,-15.874132439649202,-15.167605337579175,-25.734439212008283,-28.274953357795653,-21.759677088665512,-3.0613373479079655,-11.41451834594477,-35.758896020535985
0.276,-14.565972309630865,-15.014307176259308,-25.454418552020456,-27.0788071786651,-22.24855277671918,-4.687618300036775,-11.89614140299227,-33.1477748704001
0.28,-15.24440297057754,-16.953441319266176,-26.578367824640054,-27.27870105922102,-23.02396243353303,-6.7926933515136625,-11.720601999467135,-31.42813341012561
0.28400000000000003,-17.555356207830982,-20.65801177456865,-28.87349504418046,-28.64389359183133,-24.034470769609698,-8.429896759493431,-11.158030947681027,-31.132027515636082
0.28800000000000003,-19.98508685808929,-24.671625392877445,-31.177227707877933,-30.00285802929534,-24.744002186742705,-8.74294818645103,-10.316520041505555,-31.850591248834917
0.292,-20.67068727438891,-27.075775424861718,-31.96595648473499,-29.927199734894202,-24.355719238827874,-7.4513924828224845,-9.104979381182602,-32.52139541254178
0.296,-18.49153929154852,-26.48078518962336,-30.1718841701977,-27.58178173502438,-22.267113798756554,-5.0489827650278585,-7.413112379488666,-32.11093634820577
0.3,-13.801237094023804,-22.798982346220896,-25.80297887143047,-23.251252400019894,-18.50219515440665,-2.5898898895009097,-5.341190114764686,-30.274532128371902
0.304,-8.35524698742222,-17.378074790385085,-20.04461339549505,-18.254758672425623,-13.865710577849995,-1.149994222155101,-3.296181666381017,-27.60473627456122
0.308,-4.423448684399432,-12.356611065342918,-14.740363568542648,-14.279398714407762,-9.66821419803,-1.259432046550728,-1.8360745668896925,-25.30481156570022
0.312,-3.5826105389995746,-9.568048014822239,-11.512098573019557,-12.522091382089457,-7.138626681808091,-2.6512686687055975,-1.3553732024420242,-24.500481904567323
0.316,-5.903237985722171,-9.63757882759046,-11.022681088124273,-13.15157274486819,-6.870024743589511,-4.476283572202419,-1.8431183279824381,-25.62658178805532
0.32,-10.010086098131637,-11.792284729665198,-12.777980880833752,-15.387704086057056,-8.619262720311895,-5.848862695939488,-2.8988591773158987,-28.242165093558697
0.324,-13.939839762531733,-14.4651331332866,-15.534935998432843,-18.088967685591115,-11.547761092852397,-6.376428005646403,-4.0041379842609786,-31.343409749701323
0.328,-16.233757345330673,-16.278804277352833,-18.017073483082754,-20.42764240332781,-14.713848318082,-6.352954120111917,-4.868071793074478,-33.95814669043739
0.332,-16.61840167102673,-16.799028494422146,-19.509366254837232,-22.227432554961297,-17.49965965377055,-6.497331200356712,-5.616698004484988,-35.644196716391434
0.336,-15.871816235672213,-16.615766120377884,-20.034985447280064,-23.79061511116265,-19.741492881385852,-7.3884094762606765,-6.677875487987649,-36.5770623636181
0.34,-15.042817598857482,-16.766108243737676,-20.092829027243624,-25.41041281165508,-21.550642148555653,-8.963678120185932,-8.417952222830536,-37.21188831411723
0.34400000000000003,-14.6331516587353,-17.93849300540319,-20.21841544649078,-26.99042685074801,-23.029514544535573,-10.428507316318019,-10.793810569247398,-37.80271426862146
0.34800000000000003,-14.280571801840438,-19.966525727519524,-20.63855984059046,-28.046184619202222,-24.089075590388234,-10.679167424930256,-13.262372370790217,-38.13712242379802
0.352,-13.15408486791523,-21.935022498041008,-21.201310226414876,-28.092813322441543,-24.50374297605424,-9.012630797592237,-15.038015611844003,-37.695353362627884
0.356,-10.782117330532401,-22.836370259834666,-21.596203595778434,-27.153491385005736,-24.172924203780326,-5.688751193101325,-15.575507592399845,-36.13597169859918
0.36,-7.669616061941042,-22.3167098382296,-21.65326689597339,-25.964495974792726,-23.356963627845744,-1.9526337112538386,-14.958486762183384,-33.72382282318631
0.364,-5.224674829828018,-21.003374826350864,-21.501084448192273,-25.668763800970737,-22.677517645557714,0.5594650389657545,-13.931158108951195,-31.357386956851315
0.368,-4.9642695238133,-20.142255105169966,-21.450664992487418,-27.12403635602277,-22.80700304349068,0.704595375723784,-13.5004104213765,-30.11909440084287
0.372,-7.47768800114568,-20.740776551792806,-21.68814969772859,-30.245270703688448,-24.005097961602814,-1.503876697684973,-14.326463340742066,-30.602984264471615
0.376,-11.830670218416572,-22.773114955581377,-22.02120994701818,-33.83906973089279,-25.81460287943139,-4.85611340866285,-16.25405917661942,-32.44002984979602
0.38,-15.873029112801305,-25.00612430034903,-21.90201319934249,-36.1205990614169,-27.181808850049038,-7.577579163548307,-18.293538602377566,-34.363883719705655
0.384,-17.349182898100935,-25.63120293318343,-20.765860036925687,-35.675452108632726,-27.010299102360023,-8.283842442904415,-19.12475540816149,-34.84567527424406
0.388,-15.154953724734696,-23.32625553995615,-18.44254119593768,-32.294550667504836,-24.81502985670079,-6.71243075597431,-17.839017621204448,-32.95324888397863
0.392,-9.983291510631716,-18.10926612204821,-15.361028969592212,-27.167817000404966,-21.072767644708165,-3.819493910333904,-14.507120593102172,-28.945780764187248
0.396,-3.974284212717521,-11.474772357842994,-12.407961199617716,-22.308522694068643,-17.04907275194762,-1.1899254617956103,-10.250608871899885,-24.236497448698856
0.4,0.4337021514911612,-5.703160757076148,-10.493891564773662,-19.52660177811208,-14.170267081112911,-0.10982365754034618,-6.742808113321644,-20.710803016225782
0.404,1.775790878594762,-2.7383551071011425,-10.096421516916166,-19.545028988794456,-13.30444132858031,-0.8398929417771797,-5.3987117755011695,-19.77408985813554
0.40800000000000003,0.22516392270381402,-3.2418173834705613,-11.02753370657706,-21.738242359618198,-14.340517044867624,-2.5219671851486964,-6.677997502430117,-21.651515579307215
0.41200000000000003,-2.6919676537197574,-6.327000279311733,-12.550519968984645,-24.595635167737328,-16.290372821448955,-3.7628599093236517,-9.862002655492006,-25.31876497180042
0.41600000000000004,-5.096415544668616,-10.099684393585221,-13.787481873677507,-26.60157789045661,-17.855667644160576,-3.509825719287619,-13.40971936139863,-29.068849685211262
0.42,-5.840365875191765,-12.669128328026773,-14.181008896260664,-27.004465503323445,-18.129721935508996,-1.6874775920769025,-15.698296422932344,-31.363624879777035
0.424,-5.043104090485031,-13.061233698980232,-13.752741064231259,-26.066648291229058,-17.03548704686864,0.7828979094629176,-15.769957474736657,-31.50327110604394
0.428,-3.7970308637552534,-11.539727410574187,-13.011549532056051,-24.70764131166743,-15.260708047340586,2.5705823067037272,-13.707832080758408,-29.79612770762833
0.432,-3.304181290180395,-9.209197968208628,-12.563398102938436,-23.812952439194078,-13.743067658220411,2.7482215066997924,-10.484903031634076,-27.21331774094915
0.436,-4.03621794031551,-7.221959353773855,-12.686799748309568,-23.67489688030264,-13.054530649406274,1.335690251374217,-7.406338093782324,-24.78420156728771
0.44,-5.46415744595879,-6.118662101493555,-13.156243469932406,-23.914998892717904,-13.079417891945923,-0.7514152196199575,-5.472251893055272,-23.103961483828698
0.444,-6.493945100913379,-5.685003716235542,-13.430948557630472,-23.883048132865042,-13.174848824236733,-2.2834569500878388,-4.994052235206482,-22.18149378633916
0.448,-6.265098756761745,-5.3268525217361,-13.064142130895334,-23.1978181057616,-12.672192773079132,-2.462063772497004,-5.612467707737778,-21.64959200446401
0.452,-4.761865349237723,-4.638625789196794,-12.046766293467044,-22.037149643644398,-11.369033377532332,-1.362423723325719,-6.643277204014339,-21.133436016567885
0.456,-2.851903658822266,-3.7686274235611563,-10.85608282376711,-20.98822621006616,-9.687782848294773,0.1929558362107855,-7.515131330471377,-20.502126352189407
0.46,-1.743802191358327,-3.351238835082313,-10.163793514623194,-20.582459491024565,-8.409208020685128,1.218531092989906,-8.036508947050152,-19.867321134474878
0.464,-2.2311571573577567,-4.0719922817088445,-10.384228893982026,-20.858203693377618,-8.161028078508025,1.231144874727761,-8.369664504112961,-19.375712471162842
0.468,-4.193920529136676,-6.147309449932209,-11.333768942724646,-21.25254535094291,-8.96965446016111,0.5594430430192006,-8.77847659876943,-18.99406173481475
0.47200000000000003,-6.652328181977737,-9.051151008882016,-12.219640552857982,-20.90122423952971,-10.147513126828926,0.10391928678609474,-9.340346024755945,-18.463520833143775
0.47600000000000003,-8.33161029626217,-11.693558272256269,-12.029869057730139,-19.169515543514763,-10.616975290597452,0.712129946267396,-9.82159483680266,-17.47185652609687
0.48,-8.363855741641828,-12.949023693233585,-10.125571106122152,-16.071126154677586,-9.483372968473077,2.5824785090298974,-9.791831564639551,-15.919610466736685
0.484,-6.731890221323738,-12.250646362007274,-6.723692059737459,-12.328013963468266,-6.558739531433503,5.078539515476223,-8.911210354746572,-14.08338977632502
0.488,-4.22606441679045,-9.894879330411186,-2.9497608768970167,-9.019248480024544,-2.5211608502789886,7.07597586555903,-7.191762985542255,-12.536710904088523
0.492,-1.9750443158297912,-6.873471407478519,-0.36137252679486664,-7.02431410302006,1.3955890807403648,7.615611629393243,-5.051139938048436,-11.859577205811547
0.496,-0.848377349102293,-4.344675671805135,-0.1593826355544934,-6.590105707136445,4.005058228784492,6.45986780394378,-3.1105967293124195,-12.286372477730765
0.5,-1.0713023207179049,-3.051593598197087,-2.506500083914034,-7.26070228538515,4.7341919046566545,4.22199556518899,-1.8438378762584762,-13.489670805292462
0.504,-2.240908657508271,-3.026433245709768,-6.365874286812186,-8.204018139665777,3.83787221502962,1.985112803811262,-1.3097115590505837,-14.662481557328647
0.508,-3.6454796571417774,-3.7009859602076176,-9.965920193741226,-8.70177605043773,2.1833716677367647,0.657491014639163,-1.134844612499137,-14.89742162960738
0.512,-4.654086942796994,-4.3031064077113115,-11.65177336661452,-8.50194267286065,0.769323137990682,0.4728430164341262,-0.7553154243346398,-13.675254211485253
0.516,-4.963334861936119,-4.298751172716379,-10.697427986312505,-7.855813442270346,0.2398974315859732,0.919401791844848,0.22056985865492607,-11.18692349223602
0.52,-4.62743620059382,-3.6486497552724586,-7.6607714558035696,-7.276579801961361,0.6292291128551142,1.1170901599857643,1.7326074127670381,-8.306130034445914
0.524,-3.9236445272879337,-2.767844224474402,-4.092143498302903,-7.210401638455096,1.4332535975437395,0.40324176964350045,3.2490184057048737,-6.194953415048531
0.528,-3.168584764960997,-2.227422805255742,-1.725578678380657,-7.806915862122196,1.9391747988182715,-1.2436172905615877,4.047775479376469,-5.739638139213639
0.532,-2.6213093520980237,-2.400098600293518,-1.5873096940671303,-8.909421869070684,1.61068746517185,-3.200232812509057,3.6291495754746848,-7.113681038374807
0.536,-2.4820538345611567,-3.259004083414652,-3.498472499779268,-10.226548017016512,0.32219228332814964,-4.588335089611064,2.0242087426222497,-9.686402015663361
0.54,-2.925072760728881,-4.429373467400183,-6.233178291443096,-11.534231008131883,-1.6542394779899041,-4.792657341865606,-0.1828361984678395,-12.330284592273301
0.544,-4.10251212765445,-5.446116822786166,-8.23704655944664,-12.769789621490645,-3.8602060019826467,-3.788798032873956,-2.12536353880796,-13.948183361233077
0.548,-6.061692252093394,-6.030234403654731,-8.486589079724126,-13.962241495760054,-5.8997939713883625,-2.104599558605969,-3.0793768163284767,-13.962551528262793
0.552,-8.626154072413328,-6.204567127174073,-7.003377041318345,-15.060231546810655,-7.567161369114842,-0.4731958106522143,-2.8067174004700064,-12.523491193205018
0.556,-11.345017850032491,-6.20524086508226,-4.759878884606223,-15.808223216024999,-8.81771595076998,0.5830927849794989,-1.6376522978359844,-10.348756851069083
0.56,-13.56652802575013,-6.271428790411392,-3.0774939738195144,-15.785281074405475,-9.6609963210758,0.9805475965811183,-0.26904816633486917,-8.304856737175896
0.5640000000000001,-14.64034119153473,-6.466286831890557,-2.887685777806155,-14.618884419949381,-10.090895356244573,1.0116719766133428,0.5881564278076894,-6.967180908792443
0.5680000000000001,-14.182840937456831,-6.646466260418038,-4.268968622860484,-12.263790218438771,-10.11214129513985,1.061540808716245,0.519808343974546,-6.417312247845757
0.5720000000000001,-12.293674595614448,-6.593527140338097,-6.504561703728314,-9.176132108133288,-9.833948515721659,1.2997290042808345,-0.4830199897392049,-6.370993846114516
0.5760000000000001,-9.596605717175748,-6.208276477016739,-8.564222474021904,-6.2497215970918205,-9.524165584240677,1.5663258626386778,-2.125570029365008,-6.492828767987248
0.58,-7.059010792214849,-5.634612320488827,-9.69532347106599,-4.508670945990161,-9.541693331883039,1.5140773536397774,-4.011816703711247,-6.661768388272321
0.584,-5.633053610365323,-5.224488117169244,-9.776680520241257,-4.684834262268851,-10.153089795657479,0.8961324584668091,-5.806097200335898,-7.009137973403995
0.588,-5.826362419455336,-5.329855479550588,-9.238172232015245,-6.853425868667728,-11.319471422803531,-0.2021509994169719,-7.274181666023196,-7.719963966630758
0.592,-7.395208873140973,-6.033926451974594,-8.635092865848037,-10.29836404104367,-12.586830864293802,-1.3428620013264663,-8.219180339394143,-8.745767824774475
0.596,-9.343397458644176,-6.996821122168058,-8.183895165437661,-13.708163598405008,-13.19203202510812,-1.9434071707614748,-8.403244620703845,-9.65287047137258
0.6,-10.275728887910873,-7.536786149818795,-7.579330817342452,-15.652155150586168,-12.385002925283743,-1.587461885197854,-7.558370698726094,-9.763263116172311
0.604,-8.996734165320504,-6.944493484035775,-6.224606764109581,-15.148430519495378,-9.826764311446368,-0.25228135592533363,-5.518972318773876,-8.520940707450336
0.608,-5.131876168015651,-4.878173319348889,-3.7221575949514545,-12.09418421339251,-5.8493547371431305,1.6634056920484,-2.4018729216268184,-5.873226430559498
0.612,0.552683669399471,-1.6126644427062047,-0.286350533708287,-7.348243646598803,-1.4056777404247214,3.511053463021426,1.2942520411013447,-2.427512556534566
0.616,6.342892159472058,2.0026494571607145,3.1947930474775603,-2.4008861797829013,2.293194080660669,4.672906332694538,4.757789062896791,0.7564478452172807
0.62,10.24395019323174,4.8696076794096825,5.512708572847146,1.2311568598815938,4.281701284845553,4.808105618107902,7.10529605965985,2.6511175762441326
0.624,10.861572011091766,6.102353379233932,5.717522170641587,2.621417262541968,4.231918305683507,3.9600854443722255,7.698320942176679,2.779684860299767
0.628,8.080766600389893,5.399177585282928,3.6011561832391408,1.787516004581562,2.5473016777161774,2.4998834897410234,6.387684633843492,1.4543549073953272
0.632,3.1796860845914807,3.1606369406069916,-0.1683549743521553,-0.3776107807045719,0.13977686233999975,0.9533559580570454,3.574463524065777,-0.40128897654562934
0.636,-1.6823608708951951,0.3228268666451868,-4.324575990489961,-2.543118114404251,-1.9659900075215546,-0.1972908421118973,0.06929217500282903,-1.7272311411200008
0.64,-4.391873666410561,-2.0232155807955223,-7.553853924542864,-3.546539714663936,-3.011259430262726,-0.663125062440713,-3.1833865471976424,-1.8379018950904538
0.644,-3.79805656480562,-3.0628137705508607,-9.03881857516626,-2.8848401258197782,-2.707538824326548,-0.3984837829341359,-5.393893619298979,-0.6803841488413127
0.648,-0.17864467099138892,-2.5517628362946425,-8.727513646090642,-0.8599828562134917,-1.2163844872605978,0.43368703177475254,-6.131849499068949,1.2708619216425632
0.652,4.960697814586297,-0.8539794942664685,-7.21575488395672,1.6642073186097832,1.034847004033736,1.5456492523003362,-5.384536812366605,3.372117854593853
0.656,9.605161973202257,1.2461987538495123,-5.360400155549883,3.725036426555789,3.5545999927260254,2.6270113605669394,-3.4838499331100365,5.174388765231015
0.66,12.10080891507539,2.860603679654332,-3.8534263222284153,4.690025066545559,5.904948979213941,3.4266899778908737,-0.9609144542852164,6.580065248937672
0.664,11.763141579568696,3.2998569189358022,-2.987591264130401,4.435813847702093,7.716973961299175,3.7977429447491886,1.5968820865305133,7.742040434858836
0.668,8.997024262469608,2.2835786654379717,-2.6768934803720867,3.241997922194514,8.687321452616061,3.7107669698912105,3.667129384567488,8.823866683829692
0.672,4.9745272942163865,0.02521757729084584,-2.6513693998189183,1.5379048850336403,8.639052673953927,3.238425165500985,4.883533271025954,9.817243309682453
0.676,1.083249094183543,-2.845738117176893,-2.693843296615455,-0.3301092856535206,7.619955312072591,2.5209699035649464,5.0820234456341495,10.540079348696736
0.68,-1.6009193901659273,-5.51541134410968,-2.785039289282963,-2.1929802728321874,5.953020125194087,1.7334935504138684,4.297934605653154,10.802704740025547
0.684,-2.6369495189729832,-7.317085258784346,-3.116588078994596,-4.017998658044576,4.13816063991851,1.0548256793806559,2.7189443546546954,10.60255366662966
0.6880000000000001,-2.286890592211762,-8.033368519824876,-3.9801037935784507,-5.812636714274163,2.613298712962603,0.6249788952852668,0.6153678327106036,10.18500697019249
0.6920000000000001,-1.339064497868094,-8.002872789229116,-5.589116741200826,-7.556695302717117,1.5025819596655197,0.4910604028468697,-1.733472384164088,9.896276159607737
0.6960000000000001,-0.7756639226568041,-7.95052213456529,-7.930301056820269,-9.205492097925458,0.5118650063729433,0.5557242334953116,-4.089280473499798,9.928191883158547
0.7000000000000001,-1.3947020387938664,-8.587811264145614,-10.70190184192137,-10.721639340061415,-0.9079604298104869,0.568832998766652,-6.250953692958433,10.172868635196437
0.704,-3.453741100605839,-10.161785567126174,-13.372647113196592,-12.07094501773372,-3.194689032239637,0.2062011804746362,-8.022133912912409,10.295962869737082
0.708,-6.459914567585599,-12.190119996913893,-15.332354069260475,-13.153029982680437,-6.295161301845837,-0.7679937894409932,-9.18558405548822,9.99145067832103
0.712,-9.240368580929953,-13.56547976482915,-16.06892306131175,-13.71582361768833,-9.503679311255553,-2.328084083581871,-9.516625944806492,9.242339626832745
0.716,-10.37068774381737,-13.057552682707467,-15.338858855653996,-13.378693666268532,-11.691188270884481,-4.100682444690278,-8.856434680067196,8.380593941207167
0.72,-8.829012346063166,-9.986553899956164,-13.27232637024673,-11.802954257971578,-11.842230611855484,-5.446786567283198,-7.215800786670229,7.878017152006919
0.724,-4.616149581436787,-4.734566677682153,-10.380620629372913,-8.97844824600054,-9.646800320897,-5.727225275369051,-4.858543989744476,7.971369845361892
0.728,1.0350909582128907,1.2432911045979154,-7.426468737238849,-5.427447233164685,-5.785548925824969,-4.627412641486217,-2.286214161515659,8.39825589892007
0.732,6.062443135414867,5.989509645718101,-5.170630079435341,-2.1378396025173743,-1.696742642766992,-2.38160541093589,-0.09238010526007656,8.460876192383125
0.736,8.454597901041609,7.919259017368006,-4.106811914450702,-0.20735131635922244,1.07403512127064,0.2545370840241503,1.2527894582631234,7.4168237908126
0.74,7.223794329173131,6.57726320950934,-4.278052686952606,-0.32991406619078134,1.6237124870388584,2.315993717427318,1.6076614196457513,5.000062566401539
0.744,2.95740669010587,2.861351630537797,-5.271761907101563,-2.4035305671375227,0.1227827271882802,3.083249841607085,1.2449539398566003,1.7399965990059627
0.748,-2.4073670285673643,-1.429248939970762,-6.407578563758477,-5.5118010795494,-2.309005554031728,2.4326533945182973,0.7518426156071882,-1.1713763331389373
0.752,-6.495932333902374,-4.461748989715886,-7.017620157153431,-8.311156162193242,-4.199327587401058,0.8776919437301558,0.7836912561610916,-2.4463662557653834
0.756,-7.631147679516118,-5.198334999470603,-6.701422430188018,-9.648026133843132,-4.470422184156803,-0.7353956308849092,1.7741748743144399,-1.404473476999442
0.76,-5.606214370174655,-3.766681140194464,-5.452758589317966,-9.083149799931562,-2.9425084148932683,-1.718554508210218,3.7322778249576913,1.5933124698678967
0.764,-1.685882358693675,-1.2226924923694469,-3.627554864364356,-7.047584318977101,-0.35092556008982,-1.930570005665345,6.218823955846915,5.253758655940487
0.768,2.1348159939258835,1.1048969724963058,-1.7855665856378096,-4.557141497914699,2.0986076063076666,-1.8241365366546916,8.5158887075562,7.981462552686708
0.772,4.183987522409211,2.2944899495796562,-0.4806184771829294,-2.653264170975376,3.359835404254966,-2.132769895539468,9.916549567848392,8.68509812791774
0.776,3.8672013003471193,2.1505428630740084,-0.10193224489665909,-1.9059270761115386,2.997298705910623,-3.3902029672634626,9.985131501780302,7.300337815585863
0.78,1.748583463844966,1.0598250980891066,-0.7998710349151565,-2.2379672951293514,1.253303315988319,-5.57664950702474,8.685919853599103,4.745909285904759
0.784,-0.9882707827277386,-0.43157249018173616,-2.484531900117929,-3.1178043920187974,-1.2372317716962016,-8.113763132126678,6.3541476540065105,2.3604674906126775
0.788,-3.322353722524838,-1.9927073577087526,-4.854402586615834,-3.9610943022557876,-3.847227912027563,-10.212445383977297,3.5512202663805965,1.1643828290215197
0.792,-4.9275712230377735,-3.580030071851354,-7.429182746224853,-4.4752319764800745,-6.201132490855571,-11.349302897057555,0.8798234580889357,1.365551223025932
0.796,-6.135598751948805,-5.188278961933179,-9.583710203165538,-4.726756888914622,-8.133018545881953,-11.552289684154061,-1.1482814248987552,2.4032394365281107
0.8,-7.44537412439206,-6.528392289756198,-10.637737322454086,-4.934962758112931,-9.467222459029642,-11.311321907406978,-2.1860989354249796,3.4590238519363083
0.804,-8.959672091212099,-6.93927497948556,-10.032722252343206,-5.1685633987790425,-9.843406764287124,-11.16883351831325,-2.0781093250888034,4.083557320730733
0.808,-10.158857739453367,-5.662763282702656,-7.556254870474504,-5.179902275802476,-8.770963480589444,-11.269925451329982,-0.8718280252211343,4.5190853139851015
0.812,-10.166829035077399,-2.3278553417634953,-3.508981124211118,-4.493529718018522,-5.911286939948582,-11.197620176992245,1.1584391312462685,5.503138736619121
0.8160000000000001,-8.335481147626524,2.66625203847849,1.286540340265276,-2.704411483333047,-1.4231720684452398,-10.23045316645721,3.5124520040981224,7.681675495829609
0.8200000000000001,-4.769427439340291,8.146154211898306,5.686210134419298,0.20335904498801938,3.8787346056890897,-7.878260111498889,5.54853064547865,11.008302183636374
0.8240000000000001,-0.44285507848212546,12.598053300292406,8.579916951128155,3.7237260311114255,8.702684325839925,-4.352024712036155,6.660358301398674,14.558930729225494
0.8280000000000001,3.1648948373977532,14.809150468113899,9.25843585400105,6.964693764747835,11.740609032159455,-0.6430954259923283,6.487627321517607,16.896960147116715
0.8320000000000001,4.723516315274253,14.37880807418486,7.651601177895486,8.993804794989387,12.202017933875197,1.9007578065164807,5.06157743357204,16.802523355020867
0.836,3.6508682316649583,11.835001187311548,4.346869567511931,9.227698708464345,10.155940219249203,2.2950187281469425,2.8207809877876002,13.969956032431696
0.84,0.3390088149205326,8.304545175857243,0.3739950545444799,7.666380828183264,6.493738803261408,0.5048331265668367,0.4650681537694936,9.257781954923189
0.844,-4.059938469033739,4.955635565155376,-3.146629956300387,4.870412430588829,2.541948889130083,-2.464876249451777,-1.2979576237168544,4.3474016613276945
0.848,-8.14109494458097,2.534546451057736,-5.350340723159377,1.7150374690428976,-0.4769370734873064,-5.060140800608451,-1.9943225557852884,0.9895164468520079
0.852,-10.785338836738731,1.2278404594659946,-5.846061275471527,-0.9421743962225264,-1.8685512697663853,-5.989842208045161,-1.5026237214235607,0.24317817234179984
0.856,-11.487723235261626,0.8401539587193838,-4.759497968041558,-2.5380746364151037,-1.6075329858918224,-4.910703501297689,-0.02170400196769151,2.097411566170308
0.86,-10.371270884302476,1.1098387432550112,-2.6158657823444287,-2.9141695233851124,-0.18184236266989728,-2.582623682351482,2.0792657989132977,5.628393724810621
0.864,-7.988203368787936,1.9031062746449265,-0.14820269356059157,-2.267417646538547,1.710247095477257,-0.3970375119444043,4.4144473114262155,9.543055891940526
0.868,-5.052634695851452,3.173080285434196,1.9049734805757907,-0.996856594764381,3.443425908420238,0.4288920984829474,6.643246946474335,12.77194991597645
0.872,-2.204090379607237,4.780849656637855,2.9837303277208775,0.48723377860949313,4.625231281478904,-0.4762587340936193,8.443959433321197,14.800642694354849
0.876,0.12884708772662634,6.357581725308762,2.8326691865244413,1.910721482994461,5.106503692236544,-2.4827033788345716,9.473931827766592,15.630531641400523
0.88,1.7546865886036471,7.350920890621325,1.5509046199049124,3.1818337351870696,4.90358288277406,-4.400151290641475,9.395116706397118,15.487189612030818
0.884,2.6618772647499895,7.256114039055802,-0.45809622786291015,4.326044839947656,4.113405968391788,-5.222851217067728,7.994355880125795,14.542644145441898
0.888,2.926769817318217,5.891543656758699,-2.635355111611034,5.363763276259135,2.871513758158443,-4.714940444774186,5.329038293727308,12.844404023355139
0.892,2.639072907337578,3.5432215652426464,-4.456866331376176,6.211415658226997,1.355401428484953,-3.4836004611697717,1.804313053639703,10.449596392589683
0.896,1.8840492088681913,0.879877401061691,-5.601763714503221,6.677298001305417,-0.20758567716282528,-2.511777049837292,-1.8952828150248138,7.625546811830247
0.9,0.7905012231721571,-1.3046687290591308,-6.004507380275015,6.580711644604094,-1.540104241117092,-2.4469180283799687,-5.016317326388048,4.934438895839435
0.904,-0.3958711188216739,-2.388298886434086,-5.789147326966713,5.924571467651788,-2.3546524655421024,-3.1086260511623323,-6.993659664918425,3.0960652076945507
0.908,-1.295479768198959,-2.113648413175838,-5.141860837055617,5.004079871054103,-2.4380418883179686,-3.5415798489028703,-7.626845566351676,2.6768240617050196
0.912,-1.4852113642427298,-0.6043852085112462,-4.194006417456649,4.354849885224041,-1.7341515989907066,-2.610922911231455,-7.096689279341035,3.7765711299700797
0.916,-0.7332057015449323,1.7197176690482365,-3.0142843001528945,4.49230786050191,-0.41957700587181535,0.19948759989642895,-5.8451339904925135,5.8983381284824645
0.92,0.7417315254341474,4.252395293322991,-1.710780272459374,5.564756104411117,1.0673388640315125,4.286571589834239,-4.398892172609635,8.082773616694794
0.924,2.1758093645444205,6.290728682647455,-0.5480471398456643,7.1321756183560865,2.09471297728453,8.073833489951994,-3.2219650289980564,9.271560806186017
0.928,2.472108522560461,7.138991108564483,0.04599711067635326,8.254615997720748,2.0164216203558,9.768460472304241,-2.637536949756168,8.733304043314547
0.932,0.7176131835070692,6.301818051637952,-0.3358559881150427,7.934944176297108,0.4470412090767013,8.334468794285158,-2.781342817938821,6.372248107803443
0.936,-3.21118898855849,3.7541849619590835,-1.7712182073325948,5.725909626961993,-2.4657406681241696,4.1478945529993325,-3.5469140131665426,2.803950496179027
0.9400000000000001,-8.2935616406171,0.16063324960418868,-3.766212536019566,2.168904108540687,-5.925825319261662,-1.0721357618430147,-4.537010123992559,-0.8393502863764297
0.9440000000000001,-12.569209435875905,-3.1619632401771014,-5.295930929037468,-1.2500241225354785,-8.665143955784856,-5.05688049780133,-5.100317501697646,-3.297960844727868
0.9480000000000001,-13.932395323316314,-4.664866181155958,-5.217913775605439,-2.710243260248376,-9.426357458733207,-6.112345541831019,-4.545434029837907,-3.6614344385516233
0.9520000000000001,-11.187631215816168,-3.2763200924179046,-2.9121621341553237,-0.98625846998425,-7.5833009538743,-3.9900854757577235,-2.5279213488437335,-1.7893617373272264
0.9560000000000001,-4.841304717416961,0.9217782026914847,1.188262025206086,3.767624267799647,-3.606262274128767,-0.02522890507179909,0.5823096585249914,1.4951474982624404
0.96,2.8848899752142643,6.485440387473432,5.5611744077814365,9.885307190148524,0.9560279068682576,3.556327863774186,3.6311830715594624,4.609424256459988
0.964,8.93535407503532,11.09642732671034,8.18368372175496,14.871302852314102,4.070417288716044,4.81086976998904,5.079048780728726,5.817922169963367
0.968,10.804650363591463,12.606661114050553,7.529460525821037,16.603840778566564,4.175268231754444,3.108830712287954,3.785402616975489,4.0376986371684325
0.972,7.759429557865815,10.166115509124893,3.4803613165207707,14.46190807755147,1.0505173154340355,-0.5216081123628555,-0.19424902339142136,-0.5107980743948701
0.976,1.2470542895428025,4.8115262916351185,-2.3853363346966034,9.747833875564993,-3.890640933784198,-3.9357496918360084,-5.315085849829757,-6.178731830364086
0.98,-5.797320167120233,-0.9099352771022495,-7.403070521284576,5.09192334124873,-8.155717791321877,-5.033451377563324,-9.093429746087168,-10.50848463947409
0.984,-10.415517129176578,-4.19139944213191,-9.123143082374327,3.0852496891257033,-9.400202411457371,-2.9224533602400697,-9.37213583138282,-11.432176476362883
0.988,-11.108015637234644,-3.481347274703012,-6.652364421890525,4.848320219482957,-6.7312708144622775,1.5297315696179794,-5.688035790416961,-8.487522747284174
0.992,-8.544711813879985,0.5611430790469285,-1.2877653497869233,9.325599588362138,-1.3703178634341384,6.055528203148469,0.06507547466253527,-3.37893130276143
0.996,-5.120940682791797,5.248424303954835,3.9687493576952875,13.738253836090735,3.7479991898092067,8.087233760967592,4.2073095885602925,0.540634398083057
1.0,-3.6120015780431913,7.168841026607879,5.846986923785607,15.01040004654351,5.3375641217674,6.027224282374618,2.9678867701272793,-0.24047992328951295
1.004,-5.663230617170484,3.9798770522315863,2.495960709551696,11.428445170720352,1.443589061431112,0.04670241618759974,-5.477943551040198,-7.572331547270096
1.008,-10.904446228129927,-4.240862489969345,-5.457132305888194,3.661856940927919,-7.413083632516646,-7.971030225044615,-19.714909958571752,-20.415034263578946
1.012,-17.14486159576245,-14.827937573166423,-15.064238960068906,-5.419980816356656,-18.262370537164315,-15.29254009401211,-35.325796132023925,-34.94072143752146
1.016,-21.499194321427694,-23.670917117077124,-22.386788598305657,-12.064094067578026,-26.92499638291349,-19.552460766955846,-46.67295309072165,-46.03233969239727
1.02,-21.79104938838259,-27.083942646200285,-24.309712942536635,-13.39482104840431,-29.86129040929825,-19.704034950612822,-49.382858758747716,-49.50164658856647
1.024,-17.503648094788787,-23.469928803903713,-19.930829682511785,-8.721044764980661,-25.724917192442717,-16.2665778701803,-42.295491055856246,-43.9370854630115
1.028,-9.858228493195384,-13.965376001778395,-10.848159083092924,0.24898679540524427,-15.867933672844629,-10.84026411758623,-27.892513011094024,-31.24624557323068
1.032,-1.0866052214219053,-1.8009770632247637,-0.27021260208039166,10.330295887981947,-3.6005615813430722,-5.2239439942422905,-11.025059342401391,-15.662445452896009
1.036,6.604354057456703,9.207794872278782,8.509661010483342,18.370340718528496,7.356644179773184,-0.6349352038960205,3.3364669396451063,-1.7561480187505367
1.04,11.809472030629877,16.253387515732356,13.485373604609777,22.551328523518123,14.434551603497766,2.5978792915830127,12.166233621965148,7.524849085623828
1.044,14.137674946380457,18.45133132049523,14.501794748006432,22.869945748484042,17.03369904374631,4.802745057709217,15.262138902762672,11.791333302097883
1.048,13.944016839399865,16.766854471303304,12.870989636663126,20.699129709589215,16.323387034965435,6.448537574769944,14.656124435324728,12.781029004689117
1.052,11.901895044152752,13.178006023558737,10.407704657528939,17.803422265899144,14.287721369394148,7.71004478341365,13.074722296680193,12.949397876349394
1.056,8.724061677763757,9.620211502192433,8.487645245045087,15.404610419266191,12.614658621284889,8.365589188757895,12.409807880958851,13.947919568191537
1.06,5.141367096465274,7.269840504811782,7.6158168720601225,13.790520900492993,12.023618377757657,8.04112208152992,13.00324225617851,15.829119898364752
1.064,1.9605923196002095,6.380283552372248,7.580443170517583,12.540635321127866,12.26271246915212,6.583730826908777,13.964532163440253,17.32139175422799
1.068,-0.03625638319158497,6.537196487895017,7.911477224942246,11.070389196854194,12.592348562060579,4.278709833678477,14.107126739171235,16.856649223486784
1.072,-0.4227876802613082,7.038706677360551,8.260470534058413,9.091522303762758,12.363495839279722,1.7558011618211822,12.810519041760017,13.65226827399374
1.076,0.5074189702540934,7.166408749608763,8.483589604569715,6.732232945355918,11.343822885857662,-0.3355112183080564,10.3018367634686,8.20825062010772
1.08,1.6910827162309943,6.3291761398224935,8.495732083094936,4.352274328310159,9.7046785113655,-1.6564346453292274,7.322105962278783,2.023623211920494
1.084,1.735273733606391,4.165263775826588,8.111666293270446,2.2583362243913143,7.800161296232773,-2.3036374925145537,4.543957752779079,-3.193916945237106
1.088,-0.3035215745289861,0.6846996099941407,7.07808411770543,0.5511277003261057,5.956848792464598,-2.6571762157391277,2.1997224096689934,-6.310990595369731
1.092,-4.237164488464487,-3.5868895098330995,5.30278503992713,-0.8132421305645039,4.408816153049202,-3.0720826389424474,0.14663390055193304,-7.1248626324882025
1.096,-8.629274159032548,-7.616444447362255,3.090891331927196,-1.8545910487864603,3.3538604174109423,-3.6256622170244555,-1.752349565471377,-6.181284495738964
1.1,-11.405881891010722,-10.145609377938854,1.1709490506191287,-2.4565528787934454,3.0152494208859935,-4.0785642446667225,-3.293167367231945,-4.294550325398632
1.104,-10.95734669347894,-10.225533368821516,0.4008599665389738,-2.4395010376615573,3.5812142728864274,-4.059226245150967,-3.9381174706563797,-2.121903772946098
1.108,-7.111617822193239,-7.753138816933415,1.2961102382398622,-1.765789210868661,5.042686680177667,-3.3430449319325817,-3.1660548642530557,-0.005183077414130821
1.112,-1.3761876878215844,-3.680653096150536,3.6646607579182273,-0.7040405310090136,7.059832724805119,-2.022119832030967,-0.9206440397751976,1.9271397509232884
1.116,3.766637113262277,0.3186968066340796,6.622063028839875,0.2128595100775783,9.01862320944224,-0.4545966180448886,2.211794928029576,3.600301479504651
1.12,6.149154005003311,2.610166768617546,9.004048579957498,0.438542288656663,10.288853002355836,0.9447045026627165,5.24365701435454,4.929104238151922
1.124,5.037231967003208,2.362489912998626,9.911711303803258,-0.3053804247115295,10.507978676083212,1.9128713706386407,7.2736288521118695,5.85902855398399
1.1280000000000001,1.436420920130331,-0.1009353717254271,9.083506442617363,-1.901520329255618,9.71869025502997,2.416787693147853,7.912942070140161,6.433628144576687
1.1320000000000001,-2.5597481959002835,-3.5515163059171755,6.90676377802356,-3.9314736546493805,8.278922390374873,2.564571724741654,7.3736502638503225,6.765298790797715
1.1360000000000001,-4.972175875211178,-6.546167904525191,4.1242019492960935,-5.91094429713803,6.616469387580764,2.440532291368072,6.197860575443883,6.904414827819892
1.1400000000000001,-4.962133691872623,-8.136324976911965,1.4687454235004225,-7.487474263830336,5.013292045698336,1.9992387047514057,4.847288255446074,6.716674129942476
1.1440000000000001,-3.0991611619188006,-8.206766446338861,-0.5572457022290109,-8.469505342716275,3.573194499933834,1.1128543387558238,3.4554297704708006,5.925173797494608
1.1480000000000001,-0.7827482985840106,-7.299947226198128,-1.6733480938132743,-8.71078751494315,2.3695138503412636,-0.2615718928846036,1.9007620617676366,4.337614853913692
1.1520000000000001,0.7501377255739499,-6.106549591288058,-1.6843507258290629,-7.990807404251427,1.6247849619671797,-1.9312783855057205,0.10155864739817844,2.116590793699288
1.156,1.1460830877367698,-5.0304164219542145,-0.4434437032587084,-6.070484059281171,1.7115446290081309,-3.4733384271503382,-1.747398655717916,-0.1429200354814384
1.16,0.9554905476516069,-4.100860908115919,2.0016131350985233,-2.932030134830711,2.909639430074094,-4.425120051701924,-3.218101278519498,-1.6650378268959685
1.164,1.019754522191306,-3.2322781468315043,5.18878045731708,0.963648075918627,5.066957775943138,-4.541894162557583,-3.957219475975762,-1.9558454107746002
1.168,1.6990174444949844,-2.5764835919749203,8.170409123728405,4.634272068300561,7.422573166078564,-3.9643391432400676,-4.027522062955541,-1.1914473794186051
1.172,2.544927742640084,-2.610462754454602,9.796412191947184,6.913438979691364,8.827252784058146,-3.171782267610979,-3.972302318630682,-0.211776927117171
1.176,2.654641532797541,-3.837244894080868,9.288000245637704,7.0533923923976545,8.32497152060705,-2.709439021338767,-4.489089053137832,-0.03707977996327827
1.18,1.4261757706185563,-6.305441875857468,6.782556998357904,5.233358432604291,5.771541622917994,-2.8714144465875506,-5.903988724418923,-1.181860945351218
1.184,-0.8298498781487069,-9.324338390771572,3.461168263930176,2.624599014735395,2.0861981767084217,-3.5147306080507406,-7.804481300493535,-3.199519050559502
1.188,-2.9268686804311983,-11.683746879871705,1.0500090216678473,0.8653843591937402,-1.1184095418097968,-4.137808751260309,-9.144446868211162,-4.816622649484998
1.192,-3.5388579323325757,-12.329498371082082,0.8972092150515891,1.1691125079087215,-2.3886523656101417,-4.185460578560196,-8.829111569052657,-4.6578302173365955
1.196,-2.164365231945794,-11.10255425006335,3.1197857325328187,3.560947847148782,-1.3038199589113901,-3.3945488992512765,-6.461547796974628,-2.1739653953482048
1.2,0.3473353994459103,-9.031340942862244,6.360654095511563,6.718654864243945,1.1669998164411481,-1.9893566212695077,-2.7760693785785406,1.8021551949113928
1.204,2.1050708924030914,-7.90517132269224,8.388620858076138,8.57456414614171,3.0997400430474045,-0.5990286614587603,0.5866612394647746,5.3058786435858565
1.208,1.2258600393674897,-9.303459432323052,7.2706439609683,7.398702667002908,2.645893329176033,0.0703467272742273,1.8766939290826485,6.220968538980742
1.212,-2.9801240122869785,-13.617746750509014,2.49504126299189,2.7806118528596926,-0.8950327712973376,-0.4030720725058927,0.18271337707574276,3.4673815462374478
1.216,-9.422954398300135,-19.673608841060286,-4.612843449483535,-4.048358138522417,-6.5961135207967345,-1.9485625846291441,-4.02572856896586,-2.299307904538182
1.22,-15.640683315308706,-25.21853670781411,-11.442411575548249,-10.735745446876535,-12.301181853445087,-4.058417961087798,-9.091056377091263,-8.913573031286433
1.224,-19.014847310505957,-28.04050812882224,-15.357450812268326,-14.909686505598984,-15.707551617806075,-6.06453345727823,-13.004545316200165,-13.769498525935887
1.228,-18.123371048553963,-27.109252663006828,-15.008313199783515,-15.279591231510494,-15.552750064825887,-7.476147143231174,-14.43110785414774,-15.156147509116636
1.232,-13.459139946418418,-23.08044345754479,-10.974204134024149,-12.149346652243366,-12.237015264729962,-8.189518408762524,-13.34889095858216,-13.099504016691753
1.236,-7.13424209566756,-17.8927987485049,-5.417948441583576,-7.1241576301890746,-7.563913463689005,-8.464399155145657,-10.957485926366644,-9.253411668653825
1.24,-1.7589181348816965,-13.702775851564638,-0.9595267553631857,-2.213584102137247,-3.7673614110362905,-8.69840708063748,-8.94782459392809,-5.927747898650523
1.244,0.842330232594577,-11.794825651115389,0.6030331074571222,1.1372916277414333,-2.3867970188589425,-9.140040372136355,-8.580489856813983,-4.808503886737526
1.248,0.39460246882981664,-12.066284125105994,-0.9458538623011918,2.583430809433594,-3.5978718099813705,-9.699627335670812,-10.072831019955629,-6.094890675601164
1.252,-1.9480935421624963,-13.33041784972147,-4.348089620518749,2.7497364621922316,-6.317959505758154,-9.977733574871309,-12.597980727009599,-8.520538115378258
1.256,-4.445512620881345,-14.17580080565267,-7.696877882835906,2.6005839791359904,-8.934753339264262,-9.48604986725968,-14.836853188259738,-10.16729881415722
1.26,-5.778087505394069,-13.807695291078744,-9.4550733124629,2.7405480334218737,-10.178586817878113,-7.9441929753566,-15.707894571621182,-9.556779241267577
1.264,-5.650412906170459,-12.39465804886595,-9.12875453877723,3.0445595600385786,-9.666441004700573,-5.492838656275126,-14.855821196108081,-6.399519776404304
1.268,-4.712160312197739,-10.768532359003075,-7.302788307971241,2.804569345076743,-7.874265037202349,-2.705278611585527,-12.673534265178205,-1.6074733781579198
1.272,-3.955040831448059,-9.743359720696844,-5.125892357937573,1.254241435685799,-5.6623371437458445,-0.3836934294340608,-9.924764460327424,3.3510049926962893
1.276,-4.018605929852129,-9.538116552925203,-3.6230636653704096,-1.8720647903937788,-3.7190122865699777,0.7755770080693765,-7.25388478023342,7.29149147847329
1.28,-4.807056570663917,-9.649481306012603,-3.215280288174654,-6.057306146046358,-2.258565359581553,0.49766630742851703,-4.892138415111731,9.84854076429383
1.284,-5.600595904713373,-9.222765420247015,-3.6555960747664358,-10.146431473423036,-1.1044148299142762,-0.9189240362065902,-2.6915919219800344,11.431654665024325
1.288,-5.537101216326846,-7.652578285395066,-4.329657754909931,-12.836970880497574,-0.02747861222769643,-2.6986262614736916,-0.4127224610929261,12.700818443912794
1.292,-4.125260438745499,-4.995583850802177,-4.661473204310823,-13.239585617017838,0.9488035491608571,-3.898976008360478,1.9664739010731864,13.95621639125784
1.296,-1.5089941740934592,-1.9534712522090558,-4.390050567752041,-11.238626650051629,1.4868918742022288,-3.804162287246072,4.127275203309182,14.835793078857023
1.3,1.6426107317674905,0.5502858500685761,-3.5960077070549232,-7.4908171988772665,1.1583652055742277,-2.2377267023603054,5.545789052427608,14.492363925939571
1.304,4.50434444594066,1.9081243995306068,-2.542209552220811,-3.0995498323663924,-0.22379555763745884,0.35604711465202854,5.797075665823286,12.135536323608903
1.308,6.516558318266107,2.1588988839703234,-1.4679902354764636,0.8790543590630477,-2.388090332444335,3.1212517133244546,4.8383476204880935,7.602287974379578
1.312,7.638878413179555,1.9356246369479777,-0.46465750666266104,3.8663853608559293,-4.637542783339995,5.193720604389455,3.0969064511691613,1.6204160480992869
1.316,8.310359897251146,2.0756171201137477,0.5111424127344435,5.923560962884949,-6.1283115468040705,6.098021420804798,1.299614144928455,-4.38737783074248
1.32,9.168475994698383,3.148674247011513,1.5310731401805242,7.589949366045403,-6.239834359260385,5.942417932314129,0.13298758402379462,-8.88193355063595
1.324,10.67102214283841,5.160119045357533,2.5808475659205214,9.4738777866678,-4.844301083847313,5.315007948942366,-0.08811847047400079,-10.86087415370639
1.328,12.792758197768308,7.558535098793072,3.499267989105647,11.789761446878401,-2.3664418357020622,4.925885952065073,0.41684549597266596,-10.269831075609545
1.332,14.955114750394387,9.520113462711379,4.005518677351574,14.103359756059035,0.3834132499578118,5.1935799033326475,0.9889571947569493,-7.981029836497328
1.336,16.23770181407781,10.327339992337329,3.7995017802477378,15.437961214897769,2.510971287232678,6.0082618051947065,0.8507991748629138,-5.35681568437758
1.34,15.78870701822234,9.661720786089063,2.702734554086419,14.724832278609938,3.345966320523985,6.7971755803573615,-0.5011160100766574,-3.6260107931939274
1.344,13.27376549940891,7.705311357066421,0.7977526308295637,11.413178223305295,2.66741783469206,6.875366789814507,-2.9999527615946135,-3.331599150220427
1.348,9.14833277829257,5.041732683803275,-1.4926236433821032,5.929777445283435,0.7857043921831064,5.902188021707843,-5.944867292526396,-4.08429676261585
1.352,4.575842721900699,2.4217504002190253,-3.4560709101388056,-0.29565399086186517,-1.5451386914910472,4.160785275318631,-8.227928535259707,-4.748698868983411
1.356,0.9806997360774403,0.487172398603434,-4.303749702948153,-5.32622707389055,-3.3725523668545065,2.484161763179145,-8.783523947793583,-3.994061251556559
1.36,-0.5851087370492678,-0.44412868806557526,-3.4869852246074515,-7.53394651823146,-3.8718616892065256,1.8313627522838942,-7.057307830555146,-0.9721264643940231
1.364,0.04314745687315735,-0.4739297351834466,-1.00488511111962,-6.3560866086991155,-2.660845487322149,2.7429469544531457,-3.2881713967617543,4.189449007089934
1.368,2.0545822215144653,-0.04491543463063863,2.4864144850653247,-2.578655377667019,0.043923509036176256,4.989006401190636,1.5533087777366745,10.342580773694863
1.372,4.0825620537170835,0.2919682650699542,5.87257754548591,2.034944053642903,3.522401046350751,7.623907385861457,6.1725639448923175,15.771915439934673
1.3760000000000001,4.928917783368888,0.16206162825255888,8.030697775680892,5.59171242129014,6.852721878497505,9.434034463172793,9.494208728247031,18.935525556305947
1.3800000000000001,4.217513498648259,-0.4105047081629891,8.358205935755905,6.973858975723488,9.318878209232025,9.556882375194618,11.079059041594519,19.155946503031373
1.3840000000000001,2.5824620447037887,-0.9938247010422856,7.073093404420433,6.304872216005606,10.689370733878604,7.917401639271702,11.200019636322395,16.890784201526913
1.3880000000000001,1.2501597251293788,-0.9974217273174872,5.091811564703676,4.718512681080028,11.198783076384643,5.242599559824157,10.527719851339498,13.420929629217426
1.3920000000000001,1.2671258534637673,-0.03968801096561947,3.5484216528520847,3.599696005740043,11.27537706246676,2.6622553681227146,9.638269924013002,10.137791201232176
1.3960000000000001,2.8171789467551207,1.763467045951984,3.195812154145642,3.7359745897429093,11.178008022125141,1.1048555838260654,8.642775860451366,7.801177958284825
1.4000000000000001,5.03788657172845,3.770275520640098,4.025031174011019,4.870501119015898,10.78491017043234,0.8286744803008332,7.163090856909548,6.175547587197798
1.4040000000000001,6.496212000574815,5.104916255748321,5.320674226361007,5.921604638388089,9.690290958032165,1.3572303924574953,4.675920185620271,4.267221604168299
1.408,6.0534480732912925,5.122097740231766,6.123339322532047,5.721457205367187,7.567587328418085,1.8284488514273107,1.0097542418079684,1.0333087550079654
1.412,3.5739983334042336,3.774397345820944,5.823250834800092,3.804835035945871,4.564226744545522,1.5316993970482145,-3.3296840313378198,-3.859761760519177
1.416,0.04539515082160506,1.6579948260105084,4.523444944286894,0.7636403332089685,1.438939676143491,0.3127416428469587,-7.2498512724960165,-9.683403254435689
1.42,-2.9533492088557978,-0.2880890855376492,2.971622013555134,-2.0338374439943436,-0.6896060930357635,-1.3812497663820977,-9.560939608491026,-14.918305624607456
1.424,-4.126015160348288,-1.2549156286386278,2.1158813651127275,-3.1835000164555822,-0.8782164015547096,-2.813226307313016,-9.576710707005986,-17.99652837152098
1.428,-3.161919223708537,-0.9419896082927153,2.560243601466027,-2.0091584891069942,1.10687276020235,-3.410477713265209,-7.464747896974586,-18.090131032713543
1.432,-0.8195428565486509,0.39094133824801247,4.260288216351,1.1188494891684968,4.602548732131254,-3.0715986466384493,-4.121083313018971,-15.489609769294475
1.436,1.6111697501028175,2.1809087699894008,6.6097541521376115,5.054550258762902,8.33136928690692,-2.1583881100996223,-0.6687807097077894,-11.38401965209232
1.44,3.0945359166471462,3.9242306304413432,8.823130789993229,8.51920617596079,10.995950587735933,-1.2120743951254553,2.1004432230674865,-7.2216673893417465
1.444,3.3752225038706456,5.384463577442148,10.339868995532015,10.699424940950848,11.85290261798491,-0.6093027155584423,4.003745098732907,-4.048608089800837
1.448,2.9307474590150377,6.533746337794582,11.010665315581718,11.460919619457854,10.969983106173459,-0.38362220180715667,5.3219944800730445,-2.169880130477395
1.452,2.450087257528139,7.3352020970824015,11.007208615077616,11.13181176211583,9.064511733229665,-0.3082216146030987,6.388642296920807,-1.2606342995586601
1.456,2.2366799551655276,7.5733045564638815,10.568693372080816,10.082006175134666,7.054381026688134,-0.1615476326805947,7.239359601344404,-0.7765505313618632
1.46,1.9993122467458306,6.950179614749686,9.847086774350828,8.471751164157467,5.650205062886926,0.04686578297696542,7.607057727404026,-0.32707119752740255
1.464,1.1692453321575158,5.394042528978389,8.940654686834023,6.323664089351951,5.1807441322853265,0.05211181919366936,7.255379050468036,0.20075891514898103
1.468,-0.48773772013373673,3.337541629729458,8.038265273543402,3.8167900515272777,5.665398570081379,-0.46108186317724176,6.365719193277982,0.7657647057494614
1.472,-2.436474742511564,1.7020930678381774,7.501864041312729,1.5258967317622592,6.993209127648697,-1.5808421329329576,5.631053936585886,1.3620236334754736
1.476,-3.5027670978670358,1.4742548938320397,7.717239417841483,0.32252977127245686,8.994958794430204,-3.031751102069393,5.888385138208832,2.052855031884974
1.48,-2.5307655291835545,3.100553063627558,8.78339826798856,0.9473875974217663,11.375054253405324,-4.28166906549086,7.48599515973001,2.8116514071680285
1.484,0.8459817552138702,6.095431584682956,10.279699357668505,3.5295026532930933,13.628966077621953,-4.831645385722368,9.83709260661999,3.35306348134327
1.488,5.841967144751834,9.170778398936818,11.33703612597128,7.397145743800138,15.10834120110485,-4.498853289755061,11.54278615567091,3.155103660392342
1.492,10.85445781218732,10.89764098878004,11.071602919606448,11.372853557222697,15.303599477098032,-3.495608999463002,11.114104716543807,1.7557977503311122
1.496,14.33640807278789,10.54823221926199,9.172977333036215,14.410715221623832,14.222252048369228,-2.2436905571230454,7.919519647555717,-0.8208153550931456
1.5,15.665933764745205,8.591510512815148,6.261869754329382,16.168678176542016,12.57952536000812,-1.0694096872430237,2.7592677866905433,-3.852391400912893
1.504,15.467972566757453,6.499944020697512,3.7254665003911214,17.140012031115475,11.57887511448098,0.00705338498664787,-2.359182432761372,-6.149883731141017
1.508,15.174300797880278,5.933198964454277,3.038391192110794,18.23944235923227,12.310280736614914,1.2323824353516102,-5.209273025628136,-6.684354555167374
1.512,16.07719518081285,7.758360583701688,4.922079848237445,20.095748446423386,15.068650387591333,2.844793073971232,-4.564932155186398,-5.27163751498847
1.516,18.483230132040262,11.508649807527036,8.849907036530567,22.52858884910529,19.02961563509234,4.760953468721709,-0.9230186241929914,-2.8407069774038973
1.52,21.51149787560098,15.636566324155865,13.242376858977877,24.590460959809207,22.563825189759882,6.471137538905168,3.7318458813570032,-1.033340113102895
1.524,23.645768838021468,18.403198989015436,16.273260076013685,25.156897498623948,24.0672424022232,7.258042282668612,7.01444580032512,-1.2938508329934848
1.528,23.67099121533829,18.835574503878888,16.80791092985237,23.667767519180416,22.838751438524923,6.632574827242934,7.434192785160121,-3.970274041257653
1.532,21.392397215695382,17.16979221843576,14.932936963921748,20.522049738323403,19.48416494943376,4.708795485574228,5.141104845552036,-8.008904569207516
1.536,17.68791674271779,14.523504474367655,11.7663835238709,16.83755309718981,15.570413940702565,2.2543405167125457,1.6984595229878323,-11.479701679410937
1.54,13.910053294144745,12.06873592165357,8.71037950441496,13.732574049588948,12.733855336349734,0.3458164646435762,-0.9409776452830556,-12.664173133445729
1.544,11.069444496923097,10.273225246053698,6.635141411888981,11.61409446158541,11.776980470949638,-0.1967729346251872,-1.5976801737888309,-11.055890057028591
1.548,9.323147862116457,8.717743801895267,5.4977610471250955,9.953939307910332,12.298457889000929,0.7350338517644559,-0.4603754998952354,-7.654659144798643
1.552,8.083029206465653,6.60966783656113,4.616867093291148,7.735685947080128,13.087905638309167,2.478794536607893,1.2298034805244242,-4.344561190409877
1.556,6.613790334977239,3.593155259195555,3.350133031657606,4.2785888062499,13.003328018683533,3.9866876028027036,2.123328104353277,-2.73095544645912
1.56,4.662928078643745,0.26148048263166856,1.6789467433827667,-0.12106115549977403,11.757902520736025,4.441983402364713,1.6818374434860743,-3.1608233918341284
1.564,2.6870447550390963,-2.025237856660169,0.2797309327761468,-4.188992325054642,10.097581088549305,3.736005873848626,0.47632558129953395,-4.546179447541363
1.568,1.5186016994266538,-1.9569151642572251,0.022412756021367386,-6.362757872368093,9.244876923436095,2.5167404981257278,-0.31006134229937743,-5.110822568200092
1.572,1.7133979481277493,0.7932420873949013,1.2536211896403984,-5.758350927333595,9.982358594853395,1.7899009543471038,0.19973335217946442,-3.5957361722139467
1.576,3.0916268243727245,5.180273717855016,3.402311313635437,-2.7780239117219026,12.007923226276034,2.315315247651597,1.901209691837721,-0.14750242087393417
1.58,4.796438414146905,9.25152356585022,5.226618006325225,1.0564574142481433,14.021496373003174,4.163559645421628,3.737581964342098,3.6847515349727473
1.584,5.8398515187400335,11.215462882890279,5.565017331369745,3.954648978768091,14.506776109104976,6.691312895076408,4.4187713286155486,5.8585882467305055
1.588,5.766955844748736,10.464889581940952,4.106408149282288,4.876326661900748,12.719659853193662,8.94693555169215,3.3495172912553244,5.097484769172297
1.592,4.971998363112107,7.912513350851441,1.6582797169930927,4.087813138850834,9.239698672718987,10.231879150849636,1.1212577183014218,1.707350713417327
1.596,4.441689678938474,5.423243080018892,-0.2891897113545383,2.919972018208682,5.706616985484288,10.468682169343083,-0.7769500717477058,-2.557244339915087
1.6,5.093977334734518,4.693454401314284,-0.44714798039149173,2.9019962554953054,3.8857114814304623,10.166326877179017,-0.8733018409220676,-5.510831149707883
1.604,7.16031950256729,6.279747637016044,1.4999473601928912,4.828739227332335,4.633212917000492,10.021873694529859,1.348458015225333,-5.806622828156833
1.608,10.026715160252934,9.364252209554252,4.729143424510767,8.332358565077811,7.402789204388682,10.445240614812064,5.092297624436469,-3.675735859957058
1.612,12.633240427556302,12.372404130652285,7.829729682838661,12.187193250356358,10.605521638761275,11.30691891661263,8.721856436943199,-0.691277444933803
1.616,14.136064500384236,14.00344458863583,9.694734814918775,15.087932117930904,12.579140017920508,12.06253061802272,10.75914532159004,1.2625621265760856
1.62,14.391047868743044,14.014455717448072,10.195774163354145,16.381354697168717,12.581302761600455,12.166655201064714,10.777852974995767,1.1607802675498533
1.624,13.92465951300801,13.246520836302807,10.189961336394845,16.273922513541038,11.17669239933457,11.472848016943317,9.61984689763085,-0.5816157365770778
1.6280000000000001,13.429460380633827,12.897050476531149,10.854999687673626,15.425060048541127,9.780023061862266,10.337045071188186,8.78965243307539,-2.4634978548419895
1.6320000000000001,13.140993463577615,13.553627455477908,12.803008981116363,14.270655832820921,9.666761318718272,9.358671526755643,9.417445023038454,-2.929942006827332
1.6360000000000001,12.563822275636994,14.658610893233345,15.56254728132626,12.598735758681869,11.083954715930304,8.923402680473373,11.46479659698889,-1.4034726070858596
1.6400000000000001,10.78184404102285,14.797529773857605,17.78381984258158,9.712565932513826,13.042503785980443,8.872655137922266,13.688281956434366,1.345509295220836
1.6440000000000001,7.17731545478091,12.655894763402102,18.060175683374837,5.095268646313343,13.93246044832813,8.5592008417334,14.413468252139864,3.7320813355690916
1.6480000000000001,2.0809957173769362,8.030610711197369,15.855876052479289,-0.879779647128089,12.582996536411883,7.294557657016412,12.65552634517553,4.457773153622838
1.6520000000000001,-3.1124432326378155,2.2247822303652356,11.955641399377782,-6.730422375187118,9.099238561449965,4.914168925897684,8.881785269415559,3.4497646793170134
1.6560000000000001,-6.491904433500167,-2.4751140694279457,8.135960289566356,-10.379877370520262,4.937088918963127,2.0696967629846768,4.903831086830905,2.005713610582461
1.6600000000000001,-6.5920232636344736,-3.9962445589280833,6.213902777590192,-10.186531964878668,2.118961349889105,-0.010886691969062667,2.911782378327189,2.006011470759404
1.6640000000000001,-3.235707730429567,-1.6743532856817183,7.018875953908719,-5.919335420263451,2.0251732074466418,-0.19801051535614533,4.17562574641488,4.640075826293469
1.668,2.246452569626854,3.255099561856696,9.874481760329218,0.9026179789962043,4.459780832177785,1.7860977353484486,8.154467756665326,9.412610102317558
1.672,7.534374518694676,8.152156964155438,12.856033994117752,7.530417163881793,7.5358385017725595,5.000693816549756,12.521180675035794,14.052641825743194
1.676,10.326830282148876,10.20975620932586,13.688273994463088,11.140610538079272,8.505622091754049,7.5950113228245755,14.148996840116524,15.473553179639566
1.68,9.328633116914716,7.78879549451085,10.819683061028627,10.048886005974055,5.130903650071559,7.686821946925193,10.587427192425821,11.307429403084825
1.684,4.754444771948329,1.1788424690385,4.14737393140058,4.406961443311957,-3.096567799614604,4.362633175311203,1.3032202402446273,1.2114179019299627
1.688,-1.8449855538310658,-7.574667789598607,-4.917992287319066,-3.919250010032556,-14.514117453404651,-1.7421458596800221,-11.912288806408469,-12.728461771765069
1.692,-8.281728999481857,-15.619083004643471,-14.016183065520636,-12.170086632551829,-25.850270373975036,-8.626230786518136,-25.55154509074964,-26.715582884940886
1.696,-12.573471679603244,-20.488227746590383,-20.71274421618,-17.76551260967244,-33.520238653581146,-13.791097757282841,-35.69415971394483,-36.71452332014451
1.7,-13.586999135026417,-20.9777688754275,-23.30021935694458,-19.163814894815005,-35.05499853861147,-15.355575803117972,-39.423050492303446,-39.977642158728486
1.704,-11.250949265982854,-17.33844619577303,-21.223190293836524,-16.186038618780003,-29.99839998868356,-12.838425877962436,-35.74643602942342,-35.928964624425134
1.708,-6.388030112602792,-10.874665896411898,-15.098385851993953,-9.832634465303272,-19.962899691874554,-7.244072212044557,-25.741906616554843,-26.115427607746824
1.712,-0.32424963538505835,-3.279338293717956,-6.426042321579189,-1.8008150332007062,-7.894508172965288,-0.46395098450011574,-11.986237812374384,-13.393308087044716
1.716,5.53184214997782,3.91305870710039,2.8361932336747486,6.040421409124974,3.0515757583634695,5.6355476874814485,2.3891617318477074,-0.8237811911458266
1.72,10.011386625852538,9.559236549553134,10.715791669569626,12.05834406662143,10.522268168118899,9.924457670829725,14.62300740527644,9.207675126657705
1.724,12.411632214178098,12.914184487201055,15.654323579003176,15.147176684704391,13.534642196104869,12.206684569873687,22.939222339855405,15.390050438511025
1.728,12.622626932190542,13.595657536119688,16.872230968749136,14.93423654479193,12.488753042329336,12.919666397763649,26.770941528653566,17.4585120436368
1.732,11.130126156889673,11.657311616713741,14.59826642551161,11.894248807020631,8.7617920990524,12.627791545070068,26.651124573252673,15.944084926419237
1.736,8.860973137219844,7.7266577431782935,10.0439130373843,7.290546196698415,4.118949786448866,11.672041514057128,23.880138440512383,11.91237663965694
1.74,6.886123186230179,3.040917351252574,5.064281583046977,2.8663101121783257,0.16447562748271594,10.15527305476644,20.084660240761878,6.761165168045409
1.744,6.043417477402727,-0.7904465323217664,1.5529894139144744,0.2938122442919848,-2.030329275744407,8.182796872402832,16.759834707730988,2.0000006887439667
1.748,6.603957212372734,-2.3358588698092717,0.750463474382741,0.5258259714209998,-2.1167591466273734,6.088210543792229,14.86110711161382,-1.0750949529574427
1.752,8.15495898457175,-0.9748333495517727,2.7582777291227103,3.353241108237853,-0.4749076359103128,4.424120466419481,14.55055867106421,-1.7695328261070244
1.756,9.795757619879623,2.750004600914508,6.515933709947603,7.4411961900150345,1.9735756602713082,3.688542185789629,15.231084831231783,-0.25084674000572704
1.76,10.549942171912335,7.28393012133165,10.265546647965493,10.878815843108896,4.099467176649341,3.969468453404261,15.863021277986263,2.489487830782309
1.764,9.840778665319704,10.732443927195163,12.335122467393376,12.054247251393463,4.991614679067425,4.799005230473995,15.464012002827076,5.03896077385798
1.768,7.793438371077173,11.738718010212324,11.878951205973863,10.437616708117275,4.320227379334028,5.369504256888831,13.582633210560743,6.194531350383841
1.772,5.182319642436596,10.089285897962327,9.199661224534793,6.849873593548182,2.453003068855651,5.005678157504008,10.485025558475172,5.48783517641823
1.776,3.0421245854558947,6.724212086117404,5.503503243639898,3.0527376602876757,0.236725461019887,3.601523486449878,6.956786089711386,3.320701998394725
1.78,2.1539514614269137,3.1668831593033246,2.2427050580345167,0.8645026598060213,-1.4671304648518344,1.7369714691703848,3.8379372703202534,0.6556266646202857
1.784,2.6433114347983064,0.698751157146944,0.393636846985828,1.237311412443887,-2.2671425059670582,0.3543475340666191,1.5448032575459365,-1.5704459600547125
1.788,3.8878871007691487,-0.2724211721215397,0.03359924654614588,3.759510647265415,-2.493859616371992,0.17599249411978235,-0.13652601153989963,-2.9648528357065516
1.792,4.807384277351957,-0.2856124717000057,0.43529884246800066,6.872486982254486,-3.028072108253582,1.2427235150098568,-1.8365853715677076,-3.8038454338930023
1.796,4.404568533130259,-0.3287482066416487,0.5897380090600564,8.688253733111196,-4.768613386345351,2.8678691903169238,-4.087865739216795,-4.707155993524793
1.8,2.2856050106711336,-1.1072411036857375,-0.15952294045746385,7.969987788073922,-8.026927205874017,4.043609337466478,-6.847974558770147,-6.093418480322725
1.804,-1.1016162251071364,-2.532569182291809,-1.7311095870827558,4.762775585279087,-12.195231805947515,4.051044913088845,-9.387505103170042,-7.791989891249614
1.808,-4.636112960068203,-3.761512295018292,-3.3903186109673698,0.34493471345922444,-15.925611188119547,2.892539044636578,-10.64286366604938,-9.06920762777554
1.812,-7.021434615791804,-3.752856116998373,-4.231158649362442,-3.452668175481449,-17.762665236084104,1.2756436874169594,-9.868014691855933,-9.072220096499223
1.816,-7.373186811941196,-1.9809482360478796,-3.7483441378999487,-5.173407056090582,-16.899423058315733,0.15614397710851335,-7.175100792694138,-7.4089399917593255
1.82,-5.622294830856845,1.1367709559517607,-2.16102569683153,-4.420893412801888,-13.64576332577235,0.12633923782777856,-3.6076419072596764,-4.501890360759717
1.824,-2.5280301696539027,4.39695430494794,-0.28711516556813876,-1.9474031146401103,-9.315117919604745,1.0321351325947035,-0.6728862159070559,-1.4723842759503896
1.828,0.6889118662984401,6.4552007448892255,0.9381047243050489,0.8515779001409101,-5.585169172096357,2.0499194446529145,0.4311241686682479,0.3880064850218332
1.832,2.914899413870444,6.579318507141579,1.006969358173592,2.726923784126484,-3.6737815361939283,2.179645735899612,-0.5566575352731888,0.2528089638144593
1.836,3.6479550887434016,5.070077423475595,0.13179854142254044,3.2113328242321586,-3.765021736604467,0.8613404154311866,-2.842384758267144,-1.837201748334337
1.84,3.166474150120848,3.0813407211571757,-0.8957201485036421,2.753039074206754,-5.004083648791493,-1.6865524471413664,-5.0524297647516505,-5.034245734792421
1.844,2.290311400266546,1.9482808134980587,-1.1816154016996734,2.31353187406512,-6.04478519204622,-4.594567739639388,-6.030792058694715,-8.159260116077348
1.848,1.897476955701677,2.408323186726193,-0.27239850828391354,2.7050923695933307,-5.839746687659499,-6.8339918759520515,-5.484268980933848,-10.293376073008403
1.852,2.4481785705766015,4.175025000688038,1.5643427009790685,4.061166748231699,-4.220446391652331,-7.777325790073519,-4.094625814283063,-11.151275351263394
1.856,3.750787648230471,6.102063966272908,3.487916265366948,5.7339299081959325,-1.949577318098818,-7.487704892921101,-3.0322014181074337,-11.041288144904684
1.86,5.095066966869126,6.83259824693414,4.559499323275304,6.667640712124012,-0.24303003534532763,-6.595858992441208,-3.1861133166839863,-10.502249865150588
1.864,5.662474676874808,5.564410623716867,4.264620271424974,6.01581957932558,-0.04968092382659961,-5.876745455514538,-4.599138285691879,-9.89700518889913
1.868,4.945722029175158,2.4670862918137573,2.7628424444683333,3.6198418180838416,-1.5324174993456836,-5.817849125367502,-6.470637268363134,-9.239750535960411
1.872,2.9724200399259644,-1.453062652922199,0.7362187904273014,0.09988126117059437,-4.02674692018627,-6.422346964973258,-7.7172713316304,-8.345365115075765
1.8760000000000001,0.23095570913028496,-4.934487079679457,-1.0532620622525428,-3.473167654144163,-6.475115937048031,-7.327757968356309,-7.722836114897291,-7.16178773982756
1.8800000000000001,-2.62730113005,-7.149306268922373,-2.2282567424808803,-6.13557725055216,-8.073186986533983,-8.12833862237494,-6.813626526689404,-6.054800402383989
1.8840000000000001,-5.105679088526813,-8.081383007892327,-2.9753091658558333,-7.486463813011142,-8.716153559663326,-8.649167604886316,-6.139771309341086,-5.794662205064014
1.8880000000000001,-7.011355829095919,-8.395245341350346,-3.836221788171315,-7.792038916350066,-8.987763384414848,-8.988345188974563,-6.989486788014801,-7.192349102482694
1.8920000000000001,-8.377774046893137,-8.902849404177687,-5.246485515373024,-7.708849665445996,-9.705266077703527,-9.340059700933125,-9.941282441087424,-10.579680264803756
1.8960000000000001,-9.246486855010517,-9.966972913537575,-7.129674454447013,-7.808239655667421,-11.311940299662183,-9.75422445287768,-14.37340910769035,-15.439776656519825
1.9000000000000001,-9.514518526703796,-11.228344969462341,-8.8368863462656,-8.207590047941267,-13.518573941219529,-10.0453618242409,-18.664054063039657,-20.468324995514195
1.9040000000000001,-8.977953301329762,-11.815036195199355,-9.489346402865522,-8.517804532924856,-15.417266467899026,-9.926844765770511,-21.010616128676702,-24.093799546222726
1.9080000000000001,-7.556046757603326,-10.916175031538842,-8.546471119106172,-8.134544331984216,-16.025370301485054,-9.267154774552182,-20.415267822089845,-25.209340404953764
1.9120000000000001,-5.543589992781563,-8.385095719435412,-6.263681911175809,-6.70475403555065,-14.94746586787005,-8.291429053359025,-17.299226693403398,-23.755300421520587
1.9160000000000001,-3.6919814266238973,-5.002967164813526,-3.728433488717201,-4.487586740555344,-12.746725780896668,-7.545799330375303,-13.3796793516849,-20.81311416880817
1.92,-2.9896188211587287,-2.2145697014475445,-2.3921944417129453,-2.3785167595278836,-10.766190069786717,-7.619125906878253,-10.84432806215682,-18.115279741445192
1.924,-4.183902988044792,-1.4213398985025378,-3.2875270933727734,-1.5336340066405683,-10.433896451883356,-8.781267839667635,-11.244310475241036,-17.19272908881794
1.928,-7.304524865386156,-3.2256727938765835,-6.368539262124614,-2.7821527515543494,-12.429016297281578,-10.765697604087109,-14.683402480293807,-18.57945618633221
1.932,-11.472620978135637,-7.034805897448223,-10.367000126843323,-6.135363202200097,-16.178310218006573,-12.860367542722088,-19.727308196015656,-21.498314684720754
1.936,-15.150155620671285,-11.263043039199147,-13.308550619042308,-10.671104148435006,-20.018300456169527,-14.270664127167947,-24.095466911938274,-24.22588845475002
1.94,-16.760989139694175,-14.051849163047336,-13.45831171791906,-14.875659855060803,-21.97842735744598,-14.531325586719504,-25.770530761938062,-24.961941871350064
1.944,-15.39838409867798,-14.132584082715766,-10.207401414810647,-17.288422460858783,-20.773391892905238,-13.726516801209073,-23.941810010191148,-22.75537956889093
1.948,-11.28016019534607,-11.41216155629354,-4.448960717116734,-17.15184652366497,-16.501461140641368,-12.386500190919833,-19.324240712826395,-18.006486984168077
1.952,-5.707417036733659,-6.977045552539039,1.782947294400401,-14.746781142614964,-10.6516110242801,-11.133103514765025,-13.740532814390463,-12.285463801733385
1.956,-0.5336265083119542,-2.5329163237161083,6.23968966763141,-11.248783808247026,-5.404737845476575,-10.311462732405744,-9.217506172594767,-7.555389210164321
1.96,2.602167886312145,0.40603064067909145,7.473473595574433,-8.18188965479385,-2.6010729662421,-9.836253141871566,-7.074535612998261,-5.220627165461337
1.964,2.9237359256985656,1.1726728616790751,5.439026545059278,-6.734368415218341,-2.900270208409893,-9.338637451831346,-7.4433667322628025,-5.494930142418525
1.968,0.7762795287771951,0.1275191699651259,1.3949932429491128,-7.263920597608376,-5.576710553542853,-8.499106980444594,-9.413009184634575,-7.40353264172154
1.972,-2.598268902900145,-1.6825603763445542,-2.7993210680692755,-9.212090939343398,-9.011891074389496,-7.31448118544813,-11.636751118327993,-9.375768409719967
1.976,-5.634036842373916,-3.155751186993257,-5.587790843470884,-11.437734393604842,-11.57300881267247,-6.106747206898945,-13.021152475294912,-10.061802209936104
1.98,-7.075139713740555,-3.69361919224184,-6.351794275491557,-12.778277091256314,-12.388862041781522,-5.267620831815293,-13.133288982297927,-8.917904343525151
1.984,-6.388371765103329,-3.3748593535119653,-5.460769346170309,-12.543374512438277,-11.593184471332734,-4.914277392124859,-12.164240407441866,-6.26533966061379
1.988,-3.831168901158435,-2.7255787548383523,-3.8134506354731457,-10.735209449228023,-9.988527176642947,-4.7239151102594406,-10.57254342485976,-2.873663625861809
1.992,-0.2273372862564429,-2.2856746461588955,-2.20875959413479,-7.949154267821541,-8.408903202522652,-4.105974473539391,-8.691421233734218,0.59796864297914
1.996,3.4185102314081632,-2.2388644708989887,-0.9166473666782622,-5.0405290070593765,-7.1829604078616285,-2.612822444829362,-6.549591824805248,3.9546884804422007
2.0,6.264430320279644,-2.3427618316163716,0.3266445279009531,-2.7618815066862226,-6.026834126397262,-0.3421461626112432,-3.9958203408605186,7.4025363055252456
2.004,7.807011543823137,-2.1762088772211428,1.9452221809324328,-1.5504918603128317,-4.3986385543862525,1.9584528633431546,-1.0151427049186168,11.142934252949999
2.008,7.89637619974792,-1.504077319256794,4.069658268670537,-1.508489952088894,-2.0326466751826047,3.225193716728427,2.0370124580076663,14.973609686159762
2.012,6.653441654895687,-0.49473840778045997,6.334073327288934,-2.501563628728036,0.7427875405501254,2.6833128866710467,4.493611406707714,18.221993729252063
2.016,4.369372186482451,0.3426594979459878,8.044246621191633,-4.276965925454533,3.1086973860906255,0.3693394872998397,5.707339804675939,20.08305734226178
2.02,1.427124215972981,0.44650857623810225,8.579482972519145,-6.531305291712215,4.197325135540723,-2.765551267400042,5.4533723275781085,20.143222875821266
2.024,-1.7157987360251354,-0.4322100796325685,7.796634182564503,-8.882223852658171,3.6261078025559073,-5.269452610676126,4.159396732418827,18.759792975422897
2.028,-4.546072454831119,-2.0443586827145737,6.1440225271494455,-10.837923918310935,1.757178902925716,-5.923646741307493,2.774117415148794,17.002082696451907
2.032,-6.556404104939247,-3.7504620122208507,4.422599903013634,-11.848650741745132,-0.4820700171039789,-4.393088654854182,2.3133799363895378,16.136388001366868
2.036,-7.348638786693755,-4.851993943928392,3.349431133120561,-11.452879824884803,-2.0971820640852457,-1.4068629094972493,3.335200582280777,16.956641549333654
2.04,-6.7696553971491085,-4.964440086457671,3.174266461431671,-9.481109532299342,-2.552958028399644,1.6320958783035167,5.632517262160945,19.34207252780925
2.044,-5.01691192274302,-4.202886605453841,3.591207583393043,-6.205133597174608,-2.0001453831728213,3.3882795840372637,8.32764863118291,22.307186651262782
2.048,-2.656077979148904,-3.1075743022938696,3.950586255530652,-2.3451269512333965,-1.1060632216563135,3.2677767505638258,10.305180133336762,24.51146512967989
2.052,-0.5039970313637241,-2.3502807700674566,3.6390579182693727,1.1113659309899049,-0.6060096646460806,1.6670297963864869,10.75273114420952,24.935589787221943
2.056,0.6404742621307378,-2.3748934635827936,2.4124979745920427,3.240401057755662,-0.8412064923479647,-0.31277235315974394,9.539620359827495,23.36383268608006
2.06,0.29784986593358553,-3.188921514037247,0.48846537801682643,3.5166992572544586,-1.5745320091082249,-1.500076647055721,7.231709376889739,20.418376499207625
2.064,-1.4483332965023692,-4.357772147398464,-1.582729024123637,2.040829566477896,-2.1275450719542732,-1.2382259930600412,4.802069023307013,17.19564860420178
2.068,-3.8874643914900844,-5.191506206746908,-3.166497043281197,-0.4507630277339558,-1.7378828939267805,0.3793432749207568,3.210450878837946,14.753982752084084
2.072,-5.892755089002094,-5.040774309160497,-3.7802383866116998,-2.8290636933465976,0.06281472685873268,2.6876630719816603,3.0586529453935327,13.726482628910162
2.076,-6.390059987460063,-3.577519837140244,-3.22165087850658,-4.002858178913812,3.236405973983665,4.878132994324915,4.466214131227844,14.22756817227446
2.08,-4.890697451524829,-0.9657796908722958,-1.5882366254670615,-3.379608901874235,7.246125596489492,6.386001964715433,7.148167458607531,15.98922564364375
2.084,-1.8122772549463662,2.154867427427007,0.7784406260716423,-1.1469281024219526,11.257074873875581,7.034956413106556,10.581352930166759,18.559175101361234
2.088,1.5844025457272437,4.856645360114953,3.3714554291836976,1.7571055876842365,14.407394345611237,6.925504563947015,14.158462725546997,21.42894601141552
2.092,3.698647144096867,6.237105322658408,5.610689184750527,4.025838219221441,16.047565363887543,6.219989832498868,17.27152245251409,24.05754138283646
2.096,3.3347605968731386,5.764186712966875,6.976817449809005,4.575578254082757,15.905072645735345,5.022821527518772,19.36595312589816,25.885162192175358
2.1,0.3456223489281456,3.5167526563909632,7.172274072647269,3.078831917054231,14.147868844431969,3.425227776579959,20.013787462154596,26.422086766121083
2.104,-4.184789374570073,0.20545281926933967,6.247965434832622,0.1692557210490122,11.342460988344556,1.6275459788403168,19.016516803868853,25.419130106231933
2.108,-8.368396052890603,-3.074046250624633,4.612356912987252,-2.8286956801257475,8.291095040330447,-0.01242726187047083,16.498088230730446,23.028731378007706
2.112,-10.358910617111633,-5.265880963114114,2.8900623015779274,-4.546933557795455,5.7774005301630496,-1.0838305562006099,12.912698575325976,19.8164956182236
2.116,-9.235581831707805,-5.7986340712539,1.6536099299332818,-4.3018491730599635,4.281696874571708,-1.3438933439265384,8.922431429863991,16.564175790081208
2.12,-5.480561446397132,-4.852221713938661,1.1461754039823973,-2.523478421075197,3.778865669510651,-0.8945047802840236,5.172579233901615,13.947056235128912
2.124,-0.7647372588812686,-3.2769115214482554,1.1540452633830682,-0.6201598630736953,3.7401328629875934,-0.15957091910831878,2.072306411356749,12.257639257608389
2.128,2.846037618427772,-2.1986138994716384,1.0961667806818696,-0.30780512465253196,3.360299366913978,0.35982047143033924,-0.2985431586644154,11.35017728642788
2.132,3.8705757188060943,-2.4836433743248563,0.310772833934152,-2.708924773471608,1.9350780869037862,0.4103293773105179,-2.104005518077429,10.844700246274442
2.136,2.0866099865322667,-4.320607939494721,-1.6105929166990336,-7.685454883488092,-0.7904517667477649,0.179785353007901,-3.5481690339074703,10.45101309992151
2.14,-1.427127569064396,-7.125758757030553,-4.604313127784735,-13.756033696070972,-4.46699482975373,0.21017406824239515,-4.670035228910365,10.208697244455834
2.144,-4.876366626813706,-9.801043215465825,-8.11948126221614,-18.67079248736445,-8.25265259651519,1.0569908316374494,-5.2518805107179105,10.469451164411112
2.148,-6.625009168597899,-11.216859567641677,-11.304536499113055,-20.375696137190744,-11.135403225066057,2.902392794499974,-4.891111104235279,11.646862194088044
2.152,-5.907925334704032,-10.678802630674,-13.292729773733527,-17.89682215649077,-12.2966636988956,5.356484858604745,-3.1883718279291315,13.896093123261835
2.156,-3.073634013645915,-8.183821002500508,-13.481690033132054,-11.752291838403835,-11.375881838705027,7.583263249907759,0.0304730258926611,16.91002500826926
2.16,0.7160166827220564,-4.3685951234388085,-11.705015754893793,-3.702972079671781,-8.53587428044625,8.704028176165593,4.571073070662351,19.982310237661295
2.164,4.095400841809806,-0.21337991016389424,-8.265844129852894,3.9997495241982506,-4.348679432186145,8.238608439782183,9.856730551230612,22.278346042196063
2.168,6.058072655310298,3.304934969279202,-3.872582332273396,9.468642119526066,0.3871546522157132,6.331953008632809,15.03537014497988,23.143681288360767
2.172,6.24810340303884,5.490191033081828,0.5251115797054808,11.786367074468444,4.838568873803638,3.6700252120490404,19.181800977096827,22.302804573814683
2.176,4.92590287353255,6.057642573014846,3.9691996256099173,11.147127968110908,8.295572650169106,1.141621207980279,21.527191205502277,19.865867578968846
2.18,2.7136078496373557,5.105104340098251,5.735614817284613,8.558444729850635,10.282225151006969,-0.5669446366100601,21.641281778724988,16.183620545916256
2.184,0.31811833137544454,3.0166189020458205,5.548338604224,5.331444482808365,10.65297805497562,-1.2246361774195975,19.5401919358942,11.698755982356488
2.188,-1.6569781549469553,0.34210660873452525,3.6759278942695346,2.5961412546162137,9.637597779489738,-1.0501969826573259,15.691357021223894,6.895923767700424
2.192,-2.7997618972779037,-2.320836510118397,0.8510647899943251,1.0078523562599457,7.7903364629486305,-0.5001929784923504,10.91177638156205,2.3381195544318416
2.196,-2.9433501971640226,-4.443416444298691,-1.9861552422511295,0.6646028246632341,5.808201503311011,-0.0012721017494641274,6.16974074194286,-1.3140909135413494
2.2,-2.2364037219715556,-5.690344813729212,-4.041688388782632,1.174758511192067,4.248753232386321,0.22360416545620865,2.333792920598171,-3.4003240623110287
2.204,-1.1552503174983713,-5.981839996681174,-4.93285797526562,1.8432832987095935,3.304913571573934,0.18502639023586198,-0.03158630815232755,-3.480248725760248
2.208,-0.38831487667221154,-5.474834620862566,-4.7528244304908185,1.921669669480707,2.753875088888094,0.04432200200221814,-0.7610115540619518,-1.567570085784837
2.212,-0.571398026766019,-4.4526483311499305,-3.90492917407812,0.8806069740385283,2.1305793839302396,-0.009970415570933255,-0.0402652947864226,1.7759252533396648
2.216,-1.952019333034741,-3.166323658619831,-2.8109013204687017,-1.3515293291980015,1.0554781449718575,0.14635369641337093,1.7467698863404166,5.587212410457596
2.22,-4.184388079630253,-1.7362148050783617,-1.6892613578252167,-4.2936337776591245,-0.48533632217584,0.5325812195155777,4.178737220903258,8.842325647774942
2.224,-6.3824448121058595,-0.13188726691828379,-0.4890833275883324,-7.008952888398198,-2.0438089932747516,1.0739153668969266,6.914914497245718,10.845958384666574
2.228,-7.481557947621241,1.7396879603525122,0.9778347123238973,-8.423136269132328,-2.8984122425596297,1.6385386079712134,9.715188445618878,11.461250540362926
2.232,-6.757966696690801,3.889238355439147,2.8012948397549735,-7.766086340010929,-2.434660382142738,2.080854542872885,12.373062532677068,11.042780464011685
2.236,-4.205131218601878,6.156828128871894,4.812205489988628,-4.917734296412846,-0.4874240057533825,2.3020847162874816,14.64883662945931,10.138658780439528
2.24,-0.5456722598746637,8.244569085619105,6.612495754555198,-0.4809587370943973,2.552887565294327,2.3039753049556566,16.27530372454737,9.143189740234675
2.244,3.14154123543517,9.85603983847841,7.77340124645707,4.465335015886353,5.93195211119172,2.1988432485986777,17.02652213915235,8.089922459081208
2.248,5.960935785479933,10.83122730300397,8.054078123325212,8.800636590661952,8.884334077801554,2.147809285222138,16.797123930057523,6.68085603690065
2.2520000000000002,7.6116574200327705,11.201066367927126,7.50947998550248,11.77694861356224,10.950872857343938,2.2541168468624164,15.645718810383869,4.5165842231364195
2.2560000000000002,8.4317911529522,11.118417063576999,6.416949179512585,13.210200830895928,12.080400128426163,2.4748118503180194,13.763110796768615,1.3738849787155232
2.2600000000000002,9.059234589782022,10.705685202778284,5.076905164271864,13.384850475259782,12.476867092174643,2.614869522111576,11.375550264066419,-2.6336690989417093
2.2640000000000002,9.959000887205093,9.97086087955688,3.666102443485329,12.788045309680115,12.356955163203224,2.445192924860976,8.672898498940867,-7.068155404518166
2.2680000000000002,11.12866797427887,8.852288193495554,2.235504945729076,11.85129002089002,11.78685198975495,1.8891817619664835,5.815767452999353,-11.311610419156978
2.2720000000000002,12.16411402394499,7.375091106477726,0.8540549104563411,10.842230998121863,10.711970044450936,1.144821635267931,3.0120911949070432,-14.744398464121787
2.2760000000000002,12.622752524677708,5.807731350888275,-0.22591983510886848,9.91795060064976,9.143506136096562,0.6329375806296866,0.5931329580078,-16.87085030284311
2.2800000000000002,12.420541238338444,4.66733200509168,-0.5536744895318861,9.229766383940387,7.327917084231672,0.7609695113003454,-1.002126948230739,-17.380616782220272
2.2840000000000003,11.948739792767242,4.5210058275426945,0.32597454537511794,8.93719338143319,5.74550967107632,1.6156225183211745,-1.3816948473056527,-16.18805393102025
2.2880000000000003,11.80893479269173,5.654266869157311,2.542765339992229,9.086886668155728,4.888032633007697,2.7872811539440363,-0.4359478288971559,-13.491797757667655
2.2920000000000003,12.356702716788448,7.817991712657715,5.662622762980902,9.470429197685405,4.9582976909292995,3.4991425253776924,1.5024254775059376,-9.820112441194738
2.2960000000000003,13.360352791223477,10.238783101923104,8.738410503125976,9.60143117563831,5.704388800889717,3.0092089558932003,3.6998202714762556,-5.989229230454612
2.3000000000000003,14.048793767230904,11.937454827629978,10.683796676690974,8.908427889952065,6.524799759981249,1.0816033487379855,5.30038096810307,-2.9106247601174573
2.3040000000000003,13.585060405827619,12.240267508368277,10.823185933419921,7.099119073901761,6.840265360273321,-1.7507062641565199,5.737559358547799,-1.265069532535506
2.308,11.662418577906124,11.169765406495003,9.282282946093346,4.461799687204859,6.486350500551282,-4.3467498460288425,5.03592191562268,-1.1946885215145358
2.312,8.827220352721042,9.470411020920835,6.970342666739441,1.875148429822218,5.862346515599285,-5.514839202518374,3.803959098668429,-2.209990792994404
2.316,6.277564297840172,8.216752216016403,5.120525721543629,0.4473349985354389,5.715089762487935,-4.672514115910303,2.880103684905521,-3.4151652397089265
2.32,5.186840185490325,8.188736786502716,4.6166120373917465,0.9364696746143295,6.651262554185507,-2.229751696789549,2.8188879710985475,-3.978377729693193
2.324,5.954787279374898,9.383205033267302,5.499142445750692,3.2761531390676737,8.68290360502732,0.5436895953571366,3.5303698366922163,-3.61904048777194
2.328,7.870001974568083,10.972454019080942,6.95997033013964,6.52152126094154,11.124190775264651,2.1608843448268544,4.3290333083429005,-2.7875206976883646
2.332,9.44831669136613,11.789576787201327,7.872851508050189,9.31037284759418,12.966078970566002,1.737013287686068,4.413211480038399,-2.38061982540421
2.336,9.280382259647922,11.068426324320853,7.542588890328432,10.594220136162562,13.515097762085418,-0.47719677543364014,3.5035027564489383,-3.123470873007591
2.34,6.910068833675325,9.000876053233412,6.206788197081551,10.229593441414977,12.900429088339479,-3.1642140705336033,2.218151512539862,-4.9713805238342275
2.344,3.2104506750279143,6.763323674148921,4.973807388314981,9.077235324610797,12.1121141560958,-4.599525629042773,1.8766147226381236,-6.928280584452978
2.348,-0.04984304127037831,5.907721347692984,5.163370279602759,8.489860707363164,12.450910908441358,-3.5708240654956853,3.7324278771300214,-7.477471659352659
2.352,-1.2218629707849686,7.4361715093747875,7.4170262189420555,9.473471257976826,14.678700376503059,-0.04612334830937925,8.050230847319199,-5.44947140041063
2.356,0.2306350706666649,11.113539000983394,11.146574959742395,12.033410059310768,18.398536542914883,4.78470259900439,13.620354785900304,-0.8173555767232301
2.36,3.326224011122804,15.41727163418841,14.671971734330555,15.08485991687644,22.04996553064842,9.109143762039707,18.08978195167731,5.062892374456283
2.364,6.037745697452692,18.242198787761936,16.065505375434157,17.018652822942045,23.62255357324517,11.419171097296044,19.06796439646712,9.998121564211374
2.368,6.4137758797022,18.009980266173898,14.247701498322272,16.611843570551855,21.72205894764079,11.254491258846315,15.470491466280123,12.058417289363092
2.372,3.6919607583727156,14.559226621124367,9.692911790751225,13.742851355894686,16.38641769253104,9.359100079221548,8.322440097412482,10.630532134140253
2.376,-1.2561018800104193,9.29389992358466,4.287251421728001,9.469125704472845,9.156384636342182,7.180858458481566,0.4710006379945071,6.79915990626921
2.38,-6.412180110382849,4.4573694802264185,0.3421041274154959,5.404995870960192,2.298153616280956,5.9964139217627235,-4.773325854972313,2.773580776323115
2.384,-9.766927960589783,1.9043214326091515,-0.7167009537577655,2.749331803871655,-2.4139984282890055,6.158307299266653,-5.412865000164402,0.6128966905690731
2.388,-10.477540194366156,2.042055126003504,0.7578212731634721,1.5372020299315636,-4.672383709070061,6.873659251613503,-1.9869417653538903,0.9646037061803554
2.392,-9.338913613857926,3.556296643340602,2.7077286266866736,0.5936941646280047,-5.785175284963202,6.641492370975811,2.5129281620764914,2.566451652289061
2.396,-8.301052229542051,4.106958242592498,2.4328172485955974,-1.759750477118132,-7.881278012841221,4.115378219354625,4.086975607398017,2.8435128884443657
2.4,-9.292486072039083,1.6448334170786438,-1.890907187196376,-6.619003947811507,-12.589293837845844,-1.0738738937770904,-0.16555038025910562,-0.6594842667934699
2.404,-13.03025636407358,-4.349980433252995,-10.053083526292085,-13.648447597967333,-19.917625481591642,-7.96978221693621,-10.375059991744934,-8.780996888049913
2.408,-18.50466705660483,-12.404578008981161,-19.677102100486877,-20.98494854313151,-27.996653850195116,-14.598314754354988,-23.582986234248096,-20.008550676751838
2.412,-23.416344878670543,-19.625736977697898,-27.207661727826235,-25.979101802823834,-33.84451717903795,-18.77831131192238,-34.9860315072882,-30.94734887339041
2.416,-25.322552259773374,-23.024859212390766,-29.52898527870866,-26.40530113127386,-34.77084686094105,-19.027981018988385,-40.13108922145818,-37.788191555999674
2.42,-22.85714677014846,-20.924615774332096,-25.385513006825477,-21.51131411472636,-29.683173775946727,-15.136611387688163,-36.93169721620836,-38.01603911420375
2.424,-16.368213241803005,-13.720531610357625,-15.889628761132599,-12.369009453414947,-19.611886733741017,-8.168896261429381,-26.497763739837865,-31.498759799291975
2.428,-7.690477761858347,-3.6725297373182,-3.9448997602138434,-1.3912994692616394,-7.241319837088838,0.04552915056274287,-12.457747094245065,-20.448404707060945
2.432,0.7330633620749722,6.108585036915656,7.061269901846231,8.679387520445403,4.257913925285038,7.634291597205902,0.7796610850109573,-8.361583122088177
2.436,6.884463826517049,12.94369738195985,14.592121057233157,15.779284402968415,12.469347507512907,13.268352606380176,9.877916775102221,1.475601984322111
2.44,9.842015837349322,15.510307904119372,17.697286013672624,19.064802043434725,16.447506160286366,16.413113822313107,13.643902050178895,7.181728387629846
2.444,9.832765072246048,14.058176079690725,16.928966264234532,18.825015011781943,16.669475280850065,17.21573456483293,12.942400546173303,8.659352409222492
2.448,7.78265805569697,9.938116334424194,13.657314937611432,15.951150465390242,14.392544352868526,16.19502603306887,9.72192930842607,7.142001548898634
2.452,4.749213401281281,4.819002053807594,9.28399081251382,11.367041574873383,10.887989818478786,13.968784445185065,5.857875425186194,4.311469751420191
2.456,1.5669413633219165,0.03300503342609318,4.786614030716692,5.747921115087252,6.987479610538571,11.136587913997346,2.4597927439047,1.525380525128412
2.46,-1.2096783628172716,-3.7093948446334934,0.7095987509158022,-0.41914069290135103,3.0673521692100394,8.279839681789554,-0.14100400123288637,-0.5144721409951671
2.464,-3.1901092652396983,-6.234212134404856,-2.5906517009614163,-6.608244012604018,-0.6861886312977958,5.965906202073938,-1.9647508943019147,-1.6587531709071754
2.468,-4.078537928326455,-7.663250016809684,-4.761165832966867,-12.130023226910907,-4.031824610945819,4.665039280554311,-2.969453916150087,-2.001579277858127
2.472,-3.770153161766416,-8.226268955374508,-5.513413078153576,-16.264749621974943,-6.661475928804521,4.570966004343518,-2.9902925581739055,-1.6656228374508828
2.476,-2.5406531503731458,-8.215359166564554,-4.863748209950813,-18.58565028503267,-8.401692605231347,5.432306579064289,-2.026149790969612,-0.8056576905614747
2.48,-1.114607843623162,-8.01904735865412,-3.3205981890465637,-19.229577586109826,-9.427907318655116,6.560874657165414,-0.5630909056953897,0.25608913948690315
2.484,-0.45883342230354174,-8.084903779366641,-1.7761427671739511,-18.872398577409285,-10.245798232119455,7.088386428627018,0.431310365711397,0.9691030249568939
2.488,-1.3448304349996079,-8.759214536561217,-1.0897501970429175,-18.371829229797868,-11.390277662951803,6.3804879804815755,-0.05277696057760295,0.706517533130409
2.492,-3.8920940063603666,-10.063832596365955,-1.5868858062071922,-18.252391254982285,-13.009042201189118,4.4013322003606845,-2.439207254739358,-0.9156912045650643
2.496,-7.369154224281033,-11.555728487214083,-2.7809229184914557,-18.332609845347633,-14.609058162853557,1.8178880203042809,-6.1544793383800425,-3.7363689508965763
2.5,-10.411620317050506,-12.413427345426726,-3.5447420678516437,-17.745183976043336,-15.185014638595703,-0.2529315536614831,-9.76316920416707,-6.980471756455927
2.504,-11.594680472025061,-11.764169415459378,-2.678384763774261,-15.386854596274816,-13.706179937508296,-0.768229169548249,-11.649852639189248,-9.5254976171409
2.508,-10.083760092743319,-9.119061402996294,0.4225107290969845,-10.587723078004046,-9.718866687234936,0.7078963399476379,-10.884146638853508,-10.381743975729023
2.512,-6.016036411802133,-4.683052381018683,5.3697588700169945,-3.6343331345101433,-3.715717758038295,3.740386832412014,-7.781619523618474,-9.152458120210667
2.516,-0.45345512525307186,0.6325758639488868,10.8856133938732,4.137857869724712,2.9596754878348293,7.173419129213244,-3.827360282829659,-6.22433249148844
2.52,5.043817904951084,5.508641882711004,15.343866137850569,10.756236978309971,8.63050138960125,9.640924028066365,-0.9761346923862675,-2.5886334073820763
2.524,9.005821493282156,8.701371978944167,17.467640607275143,14.350943144374696,11.963706394368387,10.181488322934456,-0.7022212042968476,0.6014576419079276
2.528,10.54113200649283,9.481428285920856,16.819015169885915,13.881787849213197,12.452607561835862,8.65690877553925,-3.3108602549593797,2.512846549606138
2.532,9.558102424451931,7.850059140061148,13.86692254408274,9.535321571547229,10.479168031268955,5.778578192053146,-7.854225941305685,2.9177131946369173
2.536,6.68164991547053,4.468842278192483,9.662170045175799,2.621363571844313,6.972484342493658,2.7342393238773184,-12.646428665178519,2.181268316550131
2.54,2.959997205206946,0.3574665864467761,5.3305857783579995,-4.96286613764687,2.8833743557338494,0.6194329916258994,-16.074096650253523,0.9997461207613014
2.544,-0.4984754485853955,-3.4840135816268685,1.6553017405407218,-11.449589881463226,-1.2258036188706,-0.040054619401189484,-17.27747685793065,0.03960590695032806
2.548,-2.8888876154196623,-6.413257072784404,-1.1087897010063443,-15.819836948966667,-5.304621993887167,0.5409777164081788,-16.402621234027492,-0.3481934903329602
2.552,-3.9967972634631224,-8.340363746809885,-3.178094466973789,-18.081975732026194,-9.63881813559533,1.5976303532777365,-14.382500970354613,-0.23464648996969117
2.556,-4.302945339171629,-9.708639468459069,-5.031002340298755,-19.099610489253564,-14.508288991853306,2.2519332848810336,-12.422922648194344,-0.007917717059171991
2.56,-4.837325254183725,-11.28542170179162,-7.17626933504323,-20.067364286262773,-19.89275850655713,1.9572777800572112,-11.470221448453003,-0.13304593680845755
2.564,-6.745310467501213,-13.794048549167428,-9.940046937641682,-21.84458435201941,-25.336135609797907,0.7390123880968531,-11.884451459263119,-0.8794056353847282
2.568,-10.679945441745303,-17.511446142168552,-13.305745703677758,-24.450817391161763,-30.018114573792218,-0.8680496915239928,-13.394006807821143,-2.14138151110933
2.572,-16.284576696317117,-21.986090095577083,-16.8253535954193,-26.9589938539209,-32.97450132447739,-2.136844458973883,-15.268649573881703,-3.4278534965733343
2.576,-22.060735722318668,-26.03114189438611,-19.6464690566811,-27.860042126260623,-33.3669231642923,-2.5386167853653205,-16.604669088724904,-4.035159284569545
2.58,-25.82990705261841,-28.095625761750398,-20.72842112662329,-25.788796770962335,-30.754749193267685,-2.0124259420208546,-16.630323814530357,-3.3652044014174862
2.584,-25.67064670734885,-26.909448574921498,-19.236436022728412,-20.274967955038846,-25.292574407588972,-0.9835851132788775,-14.958378814387515,-1.2569894700814075
2.588,-20.925168383080063,-22.155861758821175,-15.001427576731658,-12.156139507001399,-17.80867945837906,-0.13723900645618414,-11.75130543797627,1.8197478514125578
2.592,-12.737484657048526,-14.830071534198623,-8.815190114986763,-3.4066875910884846,-9.702223896988016,-0.06193417919212152,-7.745051218976641,4.834876559775694
2.596,-3.7561057829088895,-7.032067721873091,-2.3496889890091097,3.5898365217992705,-2.6284501313542705,-0.9513288695056872,-4.091088775725439,6.545928077737699
2.6,2.921001290873619,-1.2236362224637105,2.3448927119127347,6.990017756240832,1.9479181803944812,-2.525704915053666,-2.0324232917957943,5.984815123277258
2.604,5.110952375729312,0.7913663570370773,3.625917875728419,6.246953228832581,3.218563375589838,-4.180957234630569,-2.4769207597448712,2.8945668515107172
2.608,2.530443859588331,-1.3225433650620744,0.9711293298739747,2.2910259439481706,1.3099648293134578,-5.305021073608714,-5.629570870635689,-2.101334870780647
2.612,-3.147885327705808,-6.272171056317575,-4.758078399509486,-2.973235115033276,-2.7920536613505647,-5.587493815504786,-10.863328047957111,-7.716225564790875
2.616,-9.194115315625822,-11.727639836072285,-11.653860002770216,-7.572120780406749,-7.654579605841718,-5.149698552161681,-16.899651488030486,-12.506960627895296
2.62,-13.197061738934053,-15.41784834416535,-17.57581131025563,-10.317691539586576,-11.992038664550819,-4.46409275419137,-22.259796141178413,-15.453021597746101
2.624,-14.184102815623419,-16.17386874182307,-21.03947979990585,-11.18320027465279,-15.14226331995701,-4.089057084212982,-25.79589760250292,-16.320428599245133
2.628,-12.905252828184757,-14.394726476668666,-21.74572402102399,-11.043701468975996,-17.193092078100335,-4.355587865446978,-27.068572883007164,-15.636513160741288
2.632,-11.184551207318009,-11.708928572057857,-20.512418880387713,-10.992926820039656,-18.713086827007146,-5.208543044805992,-26.41423292951322,-14.308796625178275
2.636,-10.749240010562517,-10.010336193183548,-18.67023107928435,-11.646366376683545,-20.23151245904637,-6.23431725067303,-24.67257489233134,-13.085731139248765
2.64,-12.255306620859301,-10.426544985107284,-17.30693990280065,-12.846896055467823,-21.799725843456145,-6.8752938967104456,-22.729403924349754,-12.172892686206069
2.644,-15.046102933242992,-12.769335069117005,-16.772372562795226,-13.899379860206409,-22.8970703180712,-6.739085709533356,-21.12003546662845,-11.214075463095469
2.648,-17.683319242794596,-15.72577038151826,-16.67113878098894,-14.11067546013146,-22.728585964850936,-5.810899318666088,-19.876904371515593,-9.62221148644403
2.652,-18.873610775582392,-17.64871396542958,-16.28864151972698,-13.261087109061009,-20.736413072671212,-4.457187734846229,-18.666719120423295,-7.060780657987834
2.656,-18.205109363742622,-17.472944766234605,-15.146530421299985,-11.708910615940567,-17.017382376673822,-3.231090057716301,-17.107597705210537,-3.7863289469346455
2.66,-16.253052776145978,-15.23413209960222,-13.328717912104366,-10.072853155800658,-12.385168474252396,-2.5891523406939996,-15.069839743967805,-0.6410121870858347
2.664,-14.044058456474431,-11.910383641599083,-11.381805586507653,-8.721055736703875,-8.004958338238339,-2.6611720308546865,-12.777969145806765,1.334118704948196
2.668,-12.284945080345324,-8.738064210177754,-9.894554743664003,-7.438905862259617,-4.80902918060292,-3.1947400652293254,-10.661606081355785,1.4613436151212227
2.672,-10.894356472015033,-6.446567469158708,-9.052451653673188,-5.5286999198833655,-3.040704349289854,-3.7112076392450035,-9.066928621595252,-0.1560002622054526
2.676,-9.15484446397977,-4.892067489714918,-8.484652580624697,-2.308562971678384,-2.199135780889719,-3.7771787084257085,-8.029920520256383,-2.6093339419035146
2.68,-6.35077269019348,-3.2954609241739945,-7.515036522429682,2.314264150708368,-1.417742077290768,-3.2423988509231094,-7.254056171147113,-4.58940009780099
2.684,-2.4511080593558745,-0.8912550005939011,-5.645225282620686,7.581880628022191,-0.039131413828954464,-2.326785147875853,-6.313540786949488,-5.016675131149441
2.688,1.6325284557963187,2.4296209721305786,-2.972634199258664,12.128470701165497,1.9440891194255983,-1.5033082292752624,-4.9760462233725775,-3.5763099679247716
2.692,4.4211493760105895,5.907105064437701,-0.2520944356772361,14.617723469651537,3.8546972212241144,-1.236988507524984,-3.428890071384103,-0.8726911251924321
2.696,4.666242728627367,8.279398317773257,1.4676066885731416,14.410877064583929,4.726178245189203,-1.7156778405214936,-2.235814601223865,1.8765067905014803
2.7,2.098007845258053,8.515825011281095,1.429725665277374,11.882563546031633,3.890114789199515,-2.715098995649896,-2.0179797578271064,3.455288369832033
2.704,-2.3247365480026474,6.489168951449983,-0.3573829864672007,8.217732871171393,1.4260301431893367,-3.6795818380073797,-3.026538356099536,3.2521854895544493
2.708,-6.823059727280906,3.1789598666703114,-3.0453698920839543,4.8165066762398965,-1.7920596736692005,-3.9883335597969563,-4.863380150438843,1.5490406676080966
2.712,-9.609471123604408,0.2858382378717579,-5.3158401982043415,2.67561850435186,-4.473951047885521,-3.263729497733948,-6.5454097280921815,-0.6426259929498883
2.716,-9.65261642648261,-0.5426753504609678,-6.000144898215467,2.076402236652484,-5.514160285242724,-1.5680272313938985,-6.9297565811734785,-2.1066549126189784
2.72,-7.004791429004399,1.5226716887032126,-4.62718473091536,2.697519650620052,-4.501718113741163,0.6185580259671042,-5.306837263653961,-2.028445580790958
2.724,-2.5791981810721154,6.144155591053959,-1.5939655728061553,4.014393663315332,-1.8675398060076986,2.6285467509183036,-1.8323856083125065,-0.37458661459049836
2.728,2.395504765451051,12.012021349639326,2.0857954669713763,5.660195976269279,1.3618359544939267,3.919331631493151,2.4486927019938776,2.1236960853098026
2.732,6.890090752390051,17.44536546371819,5.297133383901155,7.515359610410087,4.050696910948773,4.294063038707918,6.033389733743661,4.3510498474311134
2.736,10.304910229656116,21.09426455391872,7.3325793910209995,9.524787660576976,5.438492479126353,3.9201769046785557,7.657663598577528,5.358419518425308
2.74,12.373673673824896,22.391729522561945,8.125319314753824,11.420648323347905,5.384702947935921,3.1442349168282817,6.886561178046577,4.79604268156163
2.744,12.955396368250831,21.617438129852644,8.147504829009904,12.630787144378473,4.323431853936654,2.233711192673127,4.2968182738623,3.0327029653631143
2.748,11.947315271716889,19.615325572852953,8.071695329667136,12.499813616274423,2.998646932703423,1.2312345616619496,1.1530198996820218,0.9280729314109522
2.7520000000000002,9.408403432426894,17.358918432144492,8.405345746966987,10.717741594809922,2.1419020564064795,0.025767348100998788,-1.2451795132496954,-0.6010745487133136
2.7560000000000002,5.799529023975765,15.5976784056611,9.300052446857535,7.677422617820639,2.2445779726074306,-1.4059517362265979,-2.1715641516361757,-0.9842415556431661
2.7600000000000002,2.0887271989902274,14.69969194955911,10.587017513377987,4.4766841955383825,3.466144883879224,-2.764893676553129,-1.7267839411083514,-0.18232015231342302
2.7640000000000002,-0.4722554946915807,14.683278138387777,11.960245837069579,2.489050101779867,5.651618980905141,-3.4076777217906056,-0.6389935211150259,1.3954423953273363
2.7680000000000002,-0.8672692569994069,15.32845579340028,13.145101516614659,2.685114420898117,8.375229560068192,-2.622361234523396,0.23213006244577628,3.148987858928649
2.7720000000000002,1.120391125414244,16.27951682175444,13.949657366550582,5.06977235622162,10.985470193749961,-0.09907152747837245,0.3651269737929397,4.5564397590487715
2.7760000000000002,4.664041193894036,17.12147542721118,14.215835283894648,8.581801164607441,12.699462504763233,3.7006097524554207,-0.2502362202558288,5.327269344621527
2.7800000000000002,8.160193127471075,17.424136763406977,13.732056531674061,11.53285554124659,12.760359009852891,7.549334455748067,-1.2881135854659078,5.391036137069932
2.7840000000000003,9.942352214231278,16.816975126096168,12.223129599587764,12.389567788696695,10.676199561174826,9.932719753147467,-2.447342719990502,4.78323874219177
2.7880000000000003,9.111240174020395,15.11726746486579,9.481513671158837,10.514096298505137,6.480903946023091,9.809503605245936,-3.70604052405497,3.553586429420193
2.7920000000000003,6.032036856681543,12.463991347771525,5.587367335039289,6.488231090424506,0.8867727592551091,7.242984294362941,-5.270201972140512,1.7792622226311323
2.7960000000000003,2.219852195714111,9.383606152998254,1.081670903117356,1.8613020179004707,-4.7910173477407625,3.5154331021153666,-7.2502126566851075,-0.33683252444643585
2.8000000000000003,-0.33842460092841975,6.711084355656567,-3.04374193889862,-1.5385320742370823,-8.970865708407246,0.5924817469717709,-9.301141054947948,-2.3705435161155037
2.8040000000000003,-0.10568264987750808,5.3525525630188895,-5.599690177252569,-2.3902462365867905,-10.318585141704716,0.15499723244420238,-10.535693570722287,-3.715004709933055
2.8080000000000003,3.280755642808117,5.940200935049006,-5.635841295392311,-0.41696940283372896,-8.25796264327164,2.7072215535681607,-9.86263291720843,-3.802897264711646
2.8120000000000003,8.842754158383968,8.523534015890391,-2.8730518881600347,3.5463743728737427,-3.2505314382106008,7.262797679631603,-6.609259826703237,-2.4261250027088863
2.816,14.724913805701817,12.451623345503322,2.08073256693433,7.953119579304257,3.3032780431717583,11.812294672561165,-1.0778177299430354,0.026644507305718435
2.82,19.009869686204638,16.51572035172876,7.858229465533668,11.179544406116293,9.524275203785464,14.337481986457533,5.326794944878657,2.592174002669708
2.824,20.512814270231956,19.36828207731992,12.813253709268338,12.139821314989604,13.72937082151725,13.831529616339594,10.563387892031187,4.080721530765459
2.828,19.18195836633072,20.043801935789816,15.643608755384093,10.629350053882717,15.026566938707901,10.761763892329327,12.82498847677266,3.6140080753989423
2.832,15.94224207310026,18.3508437677051,15.884691691028593,7.288124848300413,13.577660163430323,6.711705739044191,11.380743915102812,1.0837044908384996
2.836,12.14115229592312,14.965762214342249,14.061953145363987,3.2640251179120696,10.438495102967181,3.4350655818284395,6.941510370888636,-2.714983641974868
2.84,8.910063040878413,11.14954153388021,11.407055936171673,-0.25816185538883474,7.044404880202933,1.8800304235351177,1.3508545950528514,-6.387023451763525
2.844,6.728489484476768,8.194168171706167,9.263162654590303,-2.478502123467365,4.582099100975142,1.7442034155101283,-3.257617830872732,-8.576014172541818
2.848,5.358597154542281,6.8335475353801485,8.437846658091075,-3.2214959112800443,3.5117435460236948,1.7986986456024852,-5.423096210968652,-8.627895047436823
2.852,4.155988655861847,6.924239401517298,8.827547811313025,-2.90091873151232,3.4604025801015723,0.7729627850458201,-4.950471634702808,-6.925375226790038
2.856,2.5163934113379582,7.556751941085395,9.504428515823292,-2.266085249632397,3.515900904077853,-1.768992378540588,-2.857434314262946,-4.7000500402959915
2.86,0.1999968938962411,7.526665874735841,9.201170373406967,-2.0733788314705635,2.733932383964202,-5.109678032876218,-0.7631591538165594,-3.4177496158426948
2.864,-2.579184579162529,5.972252534055997,6.99069390954628,-2.7863091555786923,0.6382863428043493,-7.79338857976154,-0.04793596203944617,-4.0263506918136045
2.868,-5.292836958803036,2.8684441237210194,2.839883660003011,-4.3999236216484405,-2.514623875869802,-8.50613681720506,-1.1984170145153712,-6.4395742494041315
2.872,-7.332231466203211,-0.8735149189330969,-2.242633721951961,-6.433354763721809,-5.823202530712479,-6.873375959954046,-3.639311442451344,-9.5384551615266
2.876,-8.203121536902586,-3.754507990332513,-6.54020236465135,-8.079248613290929,-8.113863610287694,-3.6878727559039817,-6.075253041450878,-11.698084865034843
2.88,-7.634060019105505,-4.348254784329811,-8.32240856441615,-8.473725799495469,-8.439624847617551,-0.4443341569799486,-7.13851940664199,-11.583856109164344
2.884,-5.598794149505807,-1.9636977721247604,-6.5988356302755165,-6.999364352921248,-6.4863327293460316,1.5259826444512328,-6.018676950044892,-8.830430645413799
2.888,-2.32463048159741,2.986203470526675,-1.603781326341732,-3.544407888305159,-2.7315992380056286,1.787254238384321,-2.8021500403856408,-4.2721819994649195
2.892,1.6766294964247663,9.080751361405987,5.217435028718683,1.3672341262140435,1.706191763451102,0.9473676094730763,1.5815565737771067,0.3850584392507699
2.896,5.59227373715737,14.403891471283032,11.712200004559008,6.618171820980251,5.450821427949677,0.1658955974376113,5.731823815972348,3.2797513471577986
2.9,8.421961159886905,17.259332535363797,15.819034359543139,10.759594267711009,7.343397373372113,0.3651710588212609,8.299803439642119,3.189036552594189
2.904,9.279628536123028,16.821883790306742,16.369599935363453,12.471875169972009,6.862132952669413,1.6413704073506779,8.477491942623374,0.06300525152005321
2.908,7.7890306086277405,13.438559444818225,13.538959805374134,11.067655000820878,4.31032377941483,3.2416299589435766,6.287384171680969,-4.939038546629945
2.912,4.391863326799012,8.46445929163076,8.758379291039432,6.846217157911951,0.7045407863026867,4.096189782876536,2.585659967392985,-9.90754545952359
2.916,0.3351937609608058,3.7050434512703987,4.120046212352577,1.0999893940293077,-2.6119072781281147,3.5361903661603264,-1.2315976894853975,-12.941483302176039
2.92,-2.785581817051252,0.6647608048861002,1.4889222094357137,-4.314728322158999,-4.5248633437744274,1.7251273683482395,-3.741058489077659,-12.909120954126138
2.924,-3.741169675406013,-0.052171083292478215,1.7252177597684977,-7.687457402560085,-4.623411175886417,-0.4615707837294849,-4.0348259820907515,-9.892263369655439
2.928,-2.308809469686821,1.0492874233596012,4.347615689179975,-8.162882129473928,-3.390620747769617,-2.013410698491043,-2.083024851708842,-5.139546916638437
2.932,0.5248987373635146,2.638510620070406,7.803737863903734,-6.101638983059047,-1.9934688313057904,-2.4297135796716702,1.2422147040413165,-0.552903149875192
2.936,3.02107238668259,3.2430920535649648,10.241710994361028,-2.8627901257351596,-1.7188262976540045,-2.0085075408476314,4.52516287800745,2.0966950347246893
2.94,3.6230021940589268,2.0073332081817625,10.423301158895583,-0.08378126176467049,-3.306905293513182,-1.5877430821203689,6.418991878318366,1.9127351755978452
2.944,1.8864207428088093,-0.82262563752613,8.340942434510453,1.1920677700895794,-6.5020037901244905,-1.91632113512037,6.250578864450063,-0.7398172954879101
2.948,-1.1408353921161734,-3.9625897044276144,5.205467297381688,1.0665610118762743,-10.08147296946629,-3.0812984975082145,4.3206333543180335,-4.3689949008323765
2.952,-3.369584519576847,-5.702928055711936,2.799002169811615,0.6982778914961045,-12.393212727369132,-4.377218052301032,1.7363720267020426,-6.984600630733439
2.956,-2.771871330896488,-4.781054912281775,2.5079641509333896,1.5929551940921556,-12.168130836666933,-4.725458969772262,-0.14999597863823055,-6.962602339493969
2.96,1.434806356351487,-1.0790067709440336,4.540559537926811,4.648030201999518,-9.207032153016087,-3.3800031837743063,-0.42360272077769423,-3.7613797779847573
2.964,8.21769620701707,4.2664737032325775,7.798811812350493,9.521561097239896,-4.539704133744976,-0.4666736885310456,0.9595039506648391,1.8470432420789393
2.968,15.123966375663713,9.416628262589995,10.485118995615267,14.704689617035683,0.04662039669199203,2.9936016578758426,3.2125229330060847,8.148947492468665
2.972,19.461526612026205,12.761559365211156,11.127034445246522,18.28406671971743,2.887040498040733,5.600694111808934,5.197423849724487,13.281583140630119
2.976,19.656163064614134,13.734649217277877,9.449845240920297,18.991636081564593,3.2802142208804526,6.341222634475571,6.068629983468895,16.060096616761143
2.98,16.012731974011444,13.034770900228239,6.57769412283028,16.923863839908677,1.8317837900539757,5.145252083740047,5.724554350173662,16.44041828006516
2.984,10.4727095706221,12.135534361178884,4.4291241526146905,13.510283812810599,0.12602332059191212,2.8934113839952715,4.820395157346979,15.404436181607934
2.988,5.51763350260137,12.342131176444354,4.606716423091484,10.721808353824827,-0.12172896605159167,0.8855677593786595,4.334035317103826,14.345769126029154
2.992,2.849443549317357,13.95107725247965,7.42207960497484,9.963707203327772,2.0268732984017674,0.10547278523563364,4.949645635014349,14.302013229251315
2.996,2.6059619112254495,16.020745184587724,11.637434572493135,11.294406162896962,6.253210451868256,0.7143844929662464,6.618746762714636,15.435131660130537
3.0,3.5246067037127204,16.89827600178222,15.101717414498808,13.42654817237667,11.166506701343053,2.0592186114567994,8.546342405565838,17.02309925859265
