Timestamp,O1,Oz,O2,PO3,PO4,TP7,TP8,Fz
0.0,-6.821210263296962e-13,1.9326762412674725e-12,3.126388037344441e-12,2.3305801732931286e-12,-2.7284841053187847e-12,-2.6147972675971687e-12,-5.002220859751105e-12,1.4779288903810084e-12
0.004,3.0315500327938594,15.16664140225447,15.050186020906153,13.084006325079258,13.263396980982805,-9.017408178010214,-3.64151570703973,-10.976534763089376
0.008,5.300095477671391,26.165612250318475,25.632087300333808,22.712783698011265,22.44905570351807,-15.862209880017303,-6.620950092559156,-19.29374201939072
0.012,6.408263092096433,30.749835919339432,29.36743014511842,26.94047087517106,25.381261332625456,-19.345635765833322,-8.37894448868235,-23.38721156528993
0.016,6.4627649727669905,29.476277860699554,26.93743978571422,26.036993407635634,22.655152536421383,-19.717769460213162,-8.604657245513408,-23.335483305826187
0.02,5.922531101764832,25.130895609677395,21.45300723862448,22.05733919767522,17.047827508051626,-18.369245161217123,-7.382822043456372,-20.612271244942804
0.024,5.240473016069359,21.04749825433396,16.612229161932305,17.551940758701903,11.836857823945081,-16.97576933945504,-5.258903325423319,-17.200089580982194
0.028,4.532229751527666,19.317508450371065,14.732317356693898,14.192760513044675,9.036509003845367,-16.600851920303285,-3.124536242321426,-14.578811640096205
0.032,3.5031640021226167,19.888474976230498,15.743914210645244,12.100227663087935,8.54164980737761,-17.265483700371533,-1.913498512592355,-13.139004146903517
0.036000000000000004,1.6827551781810826,20.98033641011523,17.630285097108697,10.18785361130574,8.59174815135458,-18.185856145738285,-2.2138483840954564,-12.294118150175905
0.04,-1.171118131184869,20.467100165781744,17.94374783419846,7.233089746093924,7.180914519736234,-18.453684229808573,-3.973826357889493,-11.13593641672594
0.044,-4.762178415345318,17.295337236776277,15.398148874991136,2.9365707035887,3.46388167992464,-17.691953900897488,-6.488494269730154,-9.180948141540512
0.048,-8.2344430109452,12.135692143867175,10.631424014933089,-1.6834292439606884,-1.661737218689666,-16.279703612920343,-8.698302577049617,-6.746624782494337
0.052000000000000005,-10.489045062230957,6.950646485803986,5.769866876083654,-4.796211381323985,-6.0920056119316826,-15.055552862944296,-9.683848379505207,-4.767901547025303
0.056,-10.68680703850896,3.829507111015687,3.162041289102717,-4.829910326023537,-7.76933373407789,-14.73942271773035,-9.109083308499692,-4.2107835989069144
0.06,-8.642724738324375,3.8675492282542336,4.1183727750614025,-1.4150487974191037,-5.819173380586847,-15.463664231895677,-7.359914726844011,-5.446175479167209
0.064,-4.918273991913736,6.6800924750474735,8.327903170748954,4.345384633280958,-0.9491688125878852,-16.69278304904128,-5.30845975423648,-7.952982541218489
0.068,-0.5547035536914109,10.781634397372073,14.22334345993795,10.44512874626298,5.073671381592902,-17.567273726851283,-3.8189118846360657,-10.523067383084538
0.07200000000000001,3.4077547489295057,14.515949043162607,19.96674015919524,15.03925875571781,10.483694025089846,-17.433582012853265,-3.2657933717064793,-11.842721346581527
0.076,6.356600460754549,16.914926301277518,24.38763539137466,17.350430780078568,14.414261944389068,-16.23658840838459,-3.3465572801756025,-11.134654167563554
0.08,8.262740320814146,18.01671468140617,27.35014728323651,17.901515270404843,17.118535411246057,-14.540333582160201,-3.2779135388706777,-8.505957148921027
0.084,9.500195120529327,18.500064280627015,29.382862606505512,17.95944272022757,19.4184123336631,-13.188802803811939,-2.272383629473836,-4.841023136536364
0.088,10.489842274796786,18.98935578870234,30.9566123908956,18.592614127601223,21.844073242566253,-12.82171383224835,-0.022703328121735922,-1.330360815148083
0.092,11.409193763571949,19.540725810004915,31.97620127723374,19.959648591804466,24.08158839332762,-13.533560881415156,3.0799723538438,1.0836297923889902
0.096,12.128318525055732,19.625847740489377,31.82464184512216,21.258715225920298,25.096104953188302,-14.869474917480375,6.1108854417438465,2.049130750871825
0.1,12.390134091321386,18.582455340766643,29.8918504374671,21.343445756661367,23.83425139169958,-16.10933286381703,8.06104907980557,1.8099936680816313
0.10400000000000001,12.073790740124082,16.14920709891919,26.150875035993437,19.559807410509563,19.981931519363172,-16.640148733786305,8.317341326115582,0.941272826230886
0.108,11.36441961382721,12.738056419887272,21.372705496524503,16.27474936362873,14.289110844716419,-16.209453059159273,6.924698895883353,0.006115945984049631
0.112,10.690096515008577,9.265882032524132,16.802356626007338,12.74940875859528,8.243087131451773,-14.971661766919453,4.511178017212387,-0.6915133292829978
0.116,10.476280725298267,6.685110784707632,13.519404708975031,10.453235698640555,3.3169409550699527,-13.340997575483584,1.9596226911268104,-1.1465024282943546
0.12,10.891673711736672,5.534720052345136,11.90581957293648,10.250028724516,0.2824526771475462,-11.771473608136432,0.032322056780571984,-1.5099084965631278
0.124,11.744224126529701,5.739338494088571,11.52912193093104,11.92863465596912,-1.0298876273579083,-10.569918662898658,-0.8632246067163578,-1.8741094267456901
0.128,12.595335432943045,6.7595835623500875,11.517157204015263,14.351660177324845,-1.3977991184611653,-9.82309570195946,-0.6934705875027021,-2.1342321154277784
0.132,13.03860180078442,7.976044792901689,11.188383337651487,16.130764076031028,-1.5400757850331672,-9.432245234879645,0.35431743497520074,-2.006022102521001
0.136,12.972163174549934,9.045482163393501,10.519651147364385,16.41285492660404,-1.5726472086477088,-9.218762565793327,2.0436163486780288,-1.190893725145429
0.14,12.689359006975877,10.032904772165807,10.156132206259088,15.311348686967676,-0.9298589000825643,-9.047639603407049,4.160333358736182,0.40488771315949634
0.14400000000000002,12.729850340075359,11.247851522312715,10.943219067881813,13.749245602753774,1.1890223606842483,-8.890386225131238,6.4803789220992485,2.555378886114397
0.148,13.582067294707088,12.94739953732082,13.311314256209187,12.865108872075552,5.182526762562304,-8.823381821713951,8.70834295628373,4.769841067188395
0.152,15.388757942164489,15.101567395324878,16.90166204048387,13.348687682439902,10.641428603669112,-8.983448264994536,10.471130138801811,6.470588671095527
0.156,17.830619572857927,17.35776513847952,20.673150863301714,15.097861978408162,16.43760601759675,-9.495703397716397,11.414514662483839,7.206999962968894
0.16,20.253208213580706,19.208811811559144,23.427743951698915,17.36050342599816,21.260670603359756,-10.390547657295656,11.363043906349503,6.819833662541214
0.164,21.952641163780243,20.19947119376411,24.38827316788627,19.19320365720455,24.223669911320144,-11.539679041798422,10.412450226612805,5.493248182764091
0.168,22.48795889274072,20.086922880092914,23.517736418298625,19.952319097770783,25.199918646750746,-12.653557900695091,8.89211276513447,3.6727674470272405
0.17200000000000001,21.867154731469952,18.912601148127635,21.435981272283527,19.549650222575735,24.73036309921116,-13.372052394372758,7.215955715329471,1.892256398567497
0.176,20.51653767935295,16.974067914740488,19.015230725601953,18.357091632991967,23.596087927712063,-13.429279133227737,5.688403267518538,0.5710961940554853
0.18,19.07450929086616,14.764867667181989,16.935674994682643,16.897981429501783,22.365206230363015,-12.807898024571841,4.399045043498745,-0.12243750336881476
0.184,18.083543974400186,12.844490208174818,15.40620090788866,15.510456462199556,21.13644069534587,-11.790575389548621,3.259666913897263,-0.28730015240296325
0.188,17.730292876569933,11.666064651979923,14.176050367923835,14.18344233576363,19.601625331894752,-10.858316252320606,2.1374869190075287,-0.20626483310627464
0.192,17.76241908804917,11.409833988079924,12.791382514380985,12.642751692972752,17.338427080696135,-10.475481749864116,0.9966216010120661,-0.2061033581992433
0.196,17.63066051341923,11.882337979743738,10.909717571739407,10.594837085593781,14.1093560475137,-10.862957443047549,-0.0525768670574962,-0.5301126164131347
0.2,16.79847399048606,12.551721731788348,8.48716389430939,7.961310642697072,9.986385192197588,-11.87746650991653,-0.8267083638626218,-1.2573985319623944
0.20400000000000001,15.05323218623488,12.702488876657412,5.73700903196999,4.947985743902336,5.229482080590799,-13.051992753541413,-1.211641030238411,-2.272009424457792
0.20800000000000002,12.65901243042066,11.698395905246855,2.95986803559515,1.9438391891833362,0.08011654681126856,-13.79731015995219,-1.2671561761409293,-3.2998865119412812
0.212,10.27328945511033,9.27191703450228,0.3998189412478155,-0.6510291314413053,-5.329149503702126,-13.680525487818159,-1.2093372898475536,-4.014551414066318
0.216,8.647510787134024,5.698189973564013,-1.776634709021323,-2.5592236860425146,-10.863841175921948,-12.64394857065804,-1.2763484739322166,-4.175480090715496
0.22,8.250580338510758,1.7572787202489053,-3.397475810980154,-3.655835397776059,-16.155495401773805,-11.042726240099,-1.5675851929916007,-3.74341949913628
0.224,9.004107094362325,-1.5581535223205947,-4.23646706851423,-3.9391961228334367,-20.483508351043554,-9.471919132651351,-1.9641599737357183,-2.9093589135441107
0.228,10.29451315752226,-3.429014366113165,-4.046909778335532,-3.479116240861913,-22.887546473762313,-8.472753716865327,-2.1804893496669138,-2.0237286845269864
0.232,11.284416060942021,-3.4956927957669564,-2.6736018785834403,-2.385071502180722,-22.506559024218006,-8.2765049088855,-1.9267885237824203,-1.4631962527853375
0.23600000000000002,11.359225860897482,-1.9426936207480594,-0.19025320506727894,-0.8206602232580735,-19.010574842854453,-8.710272516533678,-1.0856365272974244,-1.4841708624317107
0.24,10.463858515763604,0.6608227096018027,3.067625722824687,0.9749093920277119,-12.861211196719864,-9.326490781360462,0.2001847091229365,-2.1443941425407047
0.244,9.146064906755669,3.666651815806631,6.619571769617664,2.7063442648466207,-5.234001577281447,-9.687237523733074,1.5798490262603764,-3.3408764751886793
0.248,8.25539350290535,6.609278568068362,10.03296352880534,4.0788823459255354,2.3688289547142745,-9.645185440328532,2.6455391551743332,-4.935076840294641
0.252,8.455720584821506,9.284830691273214,13.060581871200156,4.859903374729129,8.613760262115306,-9.437889734069813,3.1027139954665017,-6.864389666304987
0.256,9.83197401577354,11.647444880573175,15.645215251584432,4.9210250394392006,12.712890216936785,-9.529279438003414,2.881066461583714,-9.150048881288058
0.26,11.831374762965652,13.65020956289095,17.811840675298868,4.257797769090985,14.546690912395206,-10.295881307966283,2.134869368328282,-11.807628313940768
0.264,13.581439649173603,15.151989140302021,19.527812266657406,2.984672079087204,14.514539839144504,-11.728094001209683,1.152717516728444,-14.711439499682456
0.268,14.388135535198671,15.953943522526515,20.6383232615201,1.3063451601918814,13.23211391267364,-13.344572616947971,0.2423546375987371,-17.508819846386814
0.272,14.107749034586618,15.91292221287415,20.909236775874206,-0.5372203858248668,11.232995841914203,-14.398459702287937,-0.3654907728202943,-19.662749951240812
0.276,13.169323493114462,15.051375148425564,20.16297613375093,-2.3373471987345056,8.813186061459874,-14.285017484172158,-0.5603860438552601,-20.634769440635182
0.28,12.253764405783954,13.609637327919017,18.4413206432356,-3.955795531189324,6.069803402175921,-12.941876454093517,-0.3390738098755719,-20.1354728336878
0.28400000000000003,11.819357120628524,11.981170927597418,16.063403999280354,-5.33370545666844,3.0494198931241954,-10.989096231976646,0.22946893035009452,-18.29094966356888
0.28800000000000003,11.770965609704717,10.550814290965718,13.506142537015307,-6.482455358071093,-0.1396141320510651,-9.488016566996293,1.030380466025008,-15.611687754880904
0.292,11.48248318486435,9.513116866454538,11.152875500164896,-7.459120524762966,-3.3387351344022136,-9.397637439982645,1.9213973545611225,-12.747862014803331
0.296,10.163461010806031,8.764951006144202,9.058410345847733,-8.336728567495356,-6.454043856036947,-11.021392312819899,2.739459394305186,-10.182572234151394
0.3,7.3563749056563665,7.952520306173142,6.9086909009395185,-9.165512558409091,-9.557604555663033,-13.78208004518774,3.307197845401106,-8.06565405033416
0.304,3.262031155066552,6.654290226156945,4.227704849303109,-9.94561293804577,-12.877038157497623,-16.472003259559415,3.4515081042147813,-6.294258015229616
0.308,-1.292819653126685,4.6126749716634095,0.7263696437266844,-10.631651021623611,-16.65013334606965,-17.875664108391902,3.0394328114234668,-4.784601608833555
0.312,-5.218077109808064,1.9044224996443972,-3.4067120192498805,-11.16152664950846,-20.91079599467821,-17.406975760756268,2.019560026065392,-3.721612993197823
0.316,-7.632882833513577,-1.018435217905676,-7.438157244376839,-11.480196721816128,-25.318143533263765,-15.410290701200438,0.47362138942867205,-3.5917557898012547
0.32,-8.184711974767765,-3.412569928145558,-10.288192255907916,-11.518902366350176,-29.108959676624522,-12.952078816545963,-1.350139914330839,-4.936739384163502
0.324,-7.074521198004845,-4.4469205598628605,-10.93694152941032,-11.154164885723048,-31.247485408921307,-11.225049256469447,-3.0558143445948645,-7.958263191915648
0.328,-4.817653640248636,-3.4690184912167297,-8.854976353123334,-10.185312345321108,-30.747675408082387,-10.890773641052874,-4.181977542630648,-12.200684069407316
0.332,-1.945696753815696,-0.27531264479591755,-4.279057088576451,-8.396494466841432,-27.07282945293946,-11.734523396815575,-4.34448513510506,-16.54271508456941
0.336,1.16937429746406,4.724665247777921,1.8003956104766985,-5.699882721493168,-20.439058093697327,-12.829870034692249,-3.3967378906893373,-19.578616312093345
0.34,4.303943550577856,10.568704134318864,7.975593022580938,-2.2750722749578927,-11.845332657776567,-13.117595369980336,-1.522275212149225,-20.244584820345835
0.34400000000000003,7.247431628179811,16.033386742399443,12.945314497707272,1.390752115367377,-2.788666793536322,-12.053398567323484,0.805772026815248,-18.36178565906266
0.34800000000000003,9.702574037284421,20.06033774517971,15.992821131107121,4.624655100047448,5.229617999622974,-9.922311311893282,3.0015684062173023,-14.78187314118918
0.352,11.32359377766113,22.12519215695113,17.18721919608049,6.810188197854245,11.183128199597945,-7.659631766400253,4.608609014145031,-11.030389603379945
0.356,11.874364711701332,22.379810224561083,17.228068488924578,7.64091881780837,14.777548830358228,-6.290510360495546,5.489936611792473,-8.610688567436455
0.36,11.407313049965751,21.522964692700498,17.04159549712915,7.265073439768457,16.4015438695493,-6.34548954795946,5.8560123273089175,-8.327652832619151
0.364,10.28775718018369,20.42207080801768,17.300032896822586,6.19673511144083,16.782917616552368,-7.607004674171776,6.0925617620700905,-9.991950487497888
0.368,9.02603694340678,19.66627382886827,18.094081236474267,5.023590572579678,16.53562477668163,-9.30580738032927,6.476319738972052,-12.618545831624942
0.372,7.992802015005736,19.261273323663204,18.89186598341007,4.050329878456296,15.820198324361058,-10.610331591985869,6.93673343518185,-14.979363799364137
0.376,7.184572038416945,18.62940976982452,18.795439087911518,3.0888090022231154,14.289253908276692,-11.095855244215272,7.020416778877916,-16.197170477523287
0.38,6.231981248959187,16.961542240534868,16.99975230454197,1.5712897827052075,11.372129900209302,-10.924638714098364,6.114091104942872,-16.075738491783113
0.384,4.656050990070071,13.740354996986184,13.237334064576658,-1.053632356632761,6.7341638036214135,-10.639286298957359,3.8325726490895704,-15.02824110913275
0.388,2.23214951556929,9.146522517512949,7.9876281160354665,-4.856434142932358,0.6354669945449132,-10.741415084376285,0.3603664946565459,-13.697201183251309
0.392,-0.7766233503955391,4.094318755872791,2.325024894310104,-9.190631609775437,-6.049493491562657,-11.339066179737074,-3.4786377074001393,-12.521347182658246
0.396,-3.6754838973172355,-0.15672537134673803,-2.527360000368617,-12.87035320402424,-12.185770041334763,-12.08979748236652,-6.516222162478016,-11.51307322113098
0.4,-5.672825966644041,-2.6038056665240674,-5.701411808626062,-14.700559112193787,-16.890148974600038,-12.470561954993627,-7.787976219886787,-10.372463936276745
0.404,-6.315080431703109,-3.0026145935486284,-7.005934288699564,-14.096680932278787,-19.916433879196234,-12.18545488252721,-7.059795580278887,-8.83651790994736
0.40800000000000003,-5.747897300677323,-1.98612333899041,-6.915121096412122,-11.439739306276351,-21.675497523043873,-11.401180054700944,-5.026810213452791,-6.997616957882656
0.41200000000000003,-4.638747647870787,-0.722836891016982,-6.246580505372776,-7.946824711835006,-22.8689175703405,-10.651904880518487,-3.0153399926175553,-5.350395514456068
0.41600000000000004,-3.7775060474457405,-0.2690487831109749,-5.688751355680779,-5.0724137997451635,-23.93034213555029,-10.463277202900827,-2.288412782741034,-4.503475701853404
0.42,-3.567207113405857,-0.9363414844311819,-5.395527824736973,-3.72965650111837,-24.58627843674367,-10.945192641269387,-3.2980435964077515,-4.740803982691887
0.424,-3.714091047347665,-2.041373317241778,-4.868422617217902,-3.7677180741382017,-23.834083006106994,-11.638241951179225,-5.300858375131611,-5.724862758570453
0.428,-3.32837621721751,-2.2098366036057087,-3.205966148680318,-4.023041689241381,-20.403099703699127,-11.734085175160999,-6.6037678011477965,-6.551551706896134
0.432,-1.4390232392813687,-0.14247900168334127,0.3525212405495495,-2.981230860383903,-13.527511261236214,-10.55843834630923,-5.401132501291613,-6.18693747509451
0.436,2.3288681819460635,4.53305228698332,5.842323790051751,0.27321677127929433,-3.640745546663993,-8.03903606691847,-0.8307784541370893,-4.100152749335393
0.44,7.301652320792755,10.804056711698195,12.259299058097213,5.340251065422308,7.420624864097931,-4.89613453821039,6.2827311228038525,-0.7707424928858018
0.444,11.82220005145291,16.483672259083278,17.708461062589777,10.450417838437716,16.869518666857402,-2.428666245241857,13.44424965156918,2.2487085517414016
0.448,13.871179774581378,19.0623793612167,20.02541553976016,13.17712010815103,21.939813682436807,-1.9693287695881736,17.37544720396636,2.8530398646639696
0.452,11.96682216733393,16.81132785458408,17.632345663288334,11.586101747592693,20.95919448648658,-4.27900156611031,15.43154639405293,-0.6892023622704073
0.456,5.910670588595167,9.612913918754884,10.276961818518885,5.2505696928587895,14.046518593256792,-9.173172835602145,6.904404099478143,-8.824737652223575
0.46,-2.986437493325411,-0.8584536105186089,-0.65224572391935,-4.367021478246443,3.1451459916008844,-15.5469849128458,-6.421201831919234,-20.263396530851878
0.464,-12.33308813316421,-11.711211854654266,-12.420935263536649,-14.39094631783496,-8.634053828565584,-21.769051056411172,-20.775060767933837,-32.24604184991449
0.468,-19.55883667244393,-19.919583513623365,-21.79918827426809,-21.671027762583435,-18.09059527583736,-26.250264603395863,-31.80122113726975,-41.468360681513786
0.47200000000000003,-22.88747387395415,-23.441744515066148,-26.175120250364216,-24.05626361979739,-23.002415989226392,-27.936541478474282,-36.23458491588872,-45.26813899884428
0.47600000000000003,-21.948678148540466,-21.90001426838444,-24.508163449552058,-21.21872086199437,-22.785642858443794,-26.551107589611092,-33.12463637001861,-42.58099614130742
0.48,-17.779759581030703,-16.544747748326245,-17.702234390315652,-14.652459934314265,-18.50857160536293,-22.568951947475853,-24.06875784153999,-34.272412099900066
0.484,-12.265223761597781,-9.579987488683855,-8.23175788074218,-6.884010945925638,-12.309678503704845,-16.981529456142198,-12.381501648740823,-22.71409208276964
0.488,-7.335870274057243,-3.235491273482694,0.8105782921281843,-0.3361545857794681,-6.523590426783585,-10.980696151861594,-1.6482695345739558,-10.8377912261858
0.492,-4.278370398222478,0.9974611169207037,6.849101306039074,3.62286173171492,-2.871409463630471,-5.638988835967211,5.653996922635542,-1.0913677739345076
0.496,-3.421270373358311,2.6857903289486558,8.682519960274021,5.03610650483688,-1.9958346955473871,-1.6623730129031173,8.873500261198615,5.272479542309156
0.5,-4.249389966968238,2.309205973127405,6.750237961744915,5.040035336480969,-3.4331938728762452,0.7261245055083236,9.001772140785079,8.315764655746989
0.504,-5.809410628122578,0.8239763686957531,2.7407033394639484,5.113578881634794,-5.957878943519063,1.7557757606095947,7.807363358888324,8.982526564410364
0.508,-7.166207832498003,-0.8005355703402302,-1.2410205195247954,6.307383770873457,-8.11648159873107,1.9454923693783712,6.809544992842575,8.41273842138662
0.512,-7.726013896857694,-1.8911362578286344,-3.5584868995642864,8.809166513960008,-8.753728935925778,1.8639878875947034,6.622557890540065,7.376955170438123
0.516,-7.34076767968736,-2.1683677202034914,-3.6058217285315095,11.998772923342358,-7.358869881573355,1.891873106264029,6.928100793990097,6.069676314525168
0.52,-6.2256448629837,-1.6746596788648276,-1.8254731033800908,14.894365361575183,-4.128878487404904,2.0762261849597508,6.973799891604131,4.27952871790535
0.524,-4.785673077033152,-0.6460703571259501,0.7419888878126812,16.70199962635502,0.21897483885345537,2.1483324370803984,6.226647100408172,1.759436589570896
0.528,-3.4270369098280753,0.598353924505659,3.0898733282002695,17.192477614456266,4.776323915730927,1.7159819765640805,4.778105724009492,-1.4492471710248083
0.532,-2.4092480068438817,1.7338654396568245,4.726717288367922,16.745614907700883,8.774749446559326,0.5456144117872554,3.2906971228635484,-4.910133252853939
0.536,-1.7749066636142743,2.4913509159506475,5.794933585243143,16.082646963726575,11.794463883140907,-1.2217040797379468,2.571722267421592,-7.937032332275294
0.54,-1.3481914768451588,2.748006513012342,6.844280440925672,15.873355856689159,13.811413895118562,-3.0588452320641863,3.0699356937425364,-9.895854972730831
0.544,-0.8248156857872573,2.59291911698233,8.410234703734886,16.41339612031061,15.074627112306302,-4.287676379689856,4.58761799138847,-10.482904570625351
0.548,0.07323803075257729,2.3130527572513984,10.653917244393938,17.519520209207712,15.89156699314617,-4.431374863298515,6.381668978990319,-9.832890857669781
0.552,1.4253243440423375,2.2495625421850036,13.226925231486007,18.64674668671978,16.404154379431475,-3.500938392367061,7.565553517181343,-8.420516097895188
0.556,2.9944754179485926,2.5656777168779854,15.393873684580399,19.140462646927745,16.46521129137841,-2.0513439948149426,7.560696698908487,-6.829259217986873
0.56,4.251901348897718,3.0706001088231005,16.346815856882245,18.50359329625485,15.694313876149977,-0.9553579582620841,6.340574418716869,-5.523516756898971
0.5640000000000001,4.5656027553505965,3.2229805317447244,15.545381043177258,16.57583546776914,13.68532908298505,-0.9991152948325634,4.361907270435495,-4.71145658784917
0.5680000000000001,3.493167082388709,2.362162236838799,12.932796926632363,13.577742833866068,10.269553301914812,-2.497778716288394,2.261880495755122,-4.329492365125361
0.5720000000000001,1.0357542248656273,0.0585325942503232,8.938166066174745,10.017233837791764,5.683547943799226,-5.1241265481139635,0.5108512362653528,-4.124214365345324
0.5760000000000001,-2.2770704310427163,-3.5927462542993,4.292922647372961,6.517412158987781,0.5376217064745106,-8.0475165581081,-0.7777926279736675,-3.7845532141375315
0.58,-5.537221775511966,-7.901990072714625,-0.22869791526488825,3.6381809810648065,-4.408483340607518,-10.3205181792448,-1.816000232366605,-3.0921965152931534
0.584,-7.79563277310433,-11.813639752312042,-4.043080771915584,1.742719971372253,-8.56365201637982,-11.319669065990183,-2.9444378944413074,-2.0514558310826487
0.588,-8.422522094264764,-14.331484424771133,-6.878188922456275,0.9460752445149865,-11.746915148665607,-11.009518145175662,-4.401419032923286,-0.9514803682718593
0.592,-7.325354376995733,-14.935957239674508,-8.756212813590764,1.144836561719103,-14.207328244199402,-9.895717312732359,-6.192991604917324,-0.3069267048197162
0.596,-4.932071717057056,-13.784958697637308,-9.877829643479913,2.0962585642823797,-16.39813893487917,-8.713400384271608,-8.117068960544657,-0.6861440233426492
0.6,-1.9646172014774947,-11.582117605666895,-10.439307556512404,3.5233274561464896,-18.592362055358763,-8.036507895122895,-9.873563617123864,-2.4666069850266013
0.604,0.8750072895161338,-9.190000506397041,-10.462870342175961,5.202942062422835,-20.558108261424195,-8.011857002562238,-11.165249504235135,-5.6025384022987055
0.608,3.1498403015209533,-7.207360877297788,-9.732483983110228,6.998910190796778,-21.515619167362956,-8.357349343692476,-11.74934407441333,-9.531284305022155
0.612,4.7530266432900135,-5.751048825757152,-7.8941961227398,8.818898468296197,-20.464987232662452,-8.602412352442116,-11.446937043559728,-13.29113619714144
0.616,5.802302890108194,-4.5421260016113365,-4.69428166650664,10.523698332628896,-16.761460225441965,-8.40083407818588,-10.152590888768827,-15.83481969236459
0.62,6.465293463156172,-3.195238206038084,-0.22253650326729257,11.85538856278913,-10.621123897020539,-7.734667406830567,-7.886320888514547,-16.42734740997912
0.624,6.826751817534841,-1.5239539463910887,4.9585337116843675,12.449558058780553,-3.2582378868207797,-6.890420168522269,-4.8771177872904445,-14.938595599084465
0.628,6.860043703216775,0.32776652032714537,9.89999873693057,11.948521491153656,3.481705875843545,-6.220495367244439,-1.6090438510923377,-11.885950881443478
0.632,6.492647765840843,1.9867658381448337,13.55487795804413,10.161704147981709,7.851659779876513,-5.858062661882059,1.2383910849923723,-8.19499506143893
0.636,5.7065931833873265,3.0948062076823817,15.153839762720963,7.206507207467894,8.948578359141266,-5.569206022942353,2.983494878831607,-4.785988403151578
0.64,4.5916582800405195,3.537976304295512,14.511983069813823,3.555146420031747,7.1098231978027115,-4.856469949268785,3.204681135617875,-2.2042870633008533
0.644,3.307309029656267,3.490676343767177,12.085578860180249,-0.07257866028157878,3.717973241293521,-3.2848280093796802,1.927513722583285,-0.48148589814127263
0.648,1.986052585162156,3.247834821012134,8.745858031508305,-2.939732798862451,0.5035434916360373,-0.8375507565222051,-0.36881489934557976,0.7209245998838014
0.652,0.6353680387223903,2.953975851641644,5.368333449291185,-4.557746281187406,-1.3091870514008406,1.9357164047992228,-2.955766621927978,1.7814780953826812
0.656,-0.8692404739233552,2.431963540874335,2.4544154224306567,-4.855607365446531,-1.5609440719856593,4.106102286023088,-5.181374387398819,2.8099411230409714
0.66,-2.666070690463357,1.2726215552896747,0.01411942796198673,-4.147490771412663,-1.1080178907361642,4.8263781694709,-6.741984351011979,3.5443652901999485
0.664,-4.74423934656113,-0.858744180762983,-2.256647210556821,-2.9335687736065665,-1.229479197013859,3.825690490894658,-7.7780911273290485,3.495000576565417
0.668,-6.812437375784384,-3.869148169248433,-4.6260010382956125,-1.6254700440761098,-2.837950510552389,1.6454182369836872,-8.74155172645294,2.2536328706949007
0.672,-8.311745686180075,-7.093180612489448,-7.046690354606085,-0.36083132257601847,-5.961227585752681,-0.5456502097431439,-10.11152034621091,-0.2165505486955226
0.676,-8.63025369463412,-9.515704176992699,-9.164193516341811,0.9670534555978065,-9.805378527907294,-1.5109567172537481,-12.138090445062971,-3.492071172792521
0.68,-7.415028336285104,-10.261669956613048,-10.593635219466762,2.5085325317289744,-13.31505738777389,-0.6063332158755657,-14.73094853464886,-6.837923807095649
0.684,-4.842982213271739,-9.109784833405172,-11.29244466677045,4.205987741761987,-15.868941390062957,1.810981256918467,-17.54047583662384,-9.512631594443292
0.6880000000000001,-1.6757326082927193,-6.7124736834400665,-11.748996293337768,5.672501472634167,-17.65123397031516,4.484971138211222,-20.15237064950827,-11.061096698007987
0.6920000000000001,0.9802298082508969,-4.36406209612835,-12.810948785289895,6.3043076257961275,-19.457760066266815,5.857422039857397,-22.261860603549394,-11.444066261878334
0.6960000000000001,2.111469423547419,-3.4173613291651463,-15.204690534644783,5.577438286166853,-22.057552783996982,4.860959148903817,-23.733590719253016,-10.973641502233932
0.7000000000000001,1.257602949668808,-4.610651923818352,-18.983338127080003,3.3905335008970496,-25.486163410387746,1.4934729597115393,-24.524537626136294,-10.114975032778148
0.704,-1.235380308587196,-7.672350492112855,-23.261399706868133,0.2416862828330295,-28.750702780921586,-3.1365899411160854,-24.556517322024433,-9.285460927811187
0.708,-4.304105207117573,-11.409267519539185,-26.442363334691436,-2.878693911719324,-30.163167788944804,-7.319655636516131,-23.639436843972135,-8.73498392825627
0.712,-6.595839337699658,-14.247832790090797,-26.888445544232525,-4.865353225857916,-28.15700791787583,-9.544470225637042,-21.527683641522117,-8.51634816637818
0.716,-7.049624654666445,-14.95884470478694,-23.71431336739579,-4.9753037256922426,-22.14679023926368,-9.173576226900082,-18.087878435304333,-8.511659220345791
0.72,-5.332845058708642,-13.16802859045265,-17.2473573495368,-3.1374772334742147,-12.909836555912136,-6.642421799357862,-13.45813288547572,-8.459687851917693
0.724,-1.9367684765620652,-9.432762038792191,-8.918317312957242,0.046454147335794005,-2.290510039154867,-3.1175481929957414,-8.106217535726273,-7.999778381490955
0.728,2.0977635376828516,-4.897864781190265,-0.6413098620212736,3.5977036989404496,7.6036633982813555,0.15738959897919358,-2.7378339811901924,-6.769105759764216
0.732,5.647041767788039,-0.7761337112694946,5.963333312290956,6.565922524051416,15.241835498663761,2.4379920106594,1.9036998897041713,-4.563070039410036
0.736,7.917919354369019,2.0539163708944557,10.083189638019746,8.33261990746314,20.086007037916602,3.6707733681121226,5.233996842537067,-1.518565055210388
0.74,8.62859027944711,3.1864783577156004,11.75355677794306,8.70609677864843,22.439352512928565,4.248605806484306,6.954110224727401,1.7926801143021294
0.744,7.92114662804471,2.582993332883916,11.484161338487922,7.817775258007032,22.900375177011767,4.5384952294460845,7.076380395640626,4.467262936101861
0.748,6.130713042045443,0.4075406163860862,9.789787502141508,5.958773114976111,21.852964275354225,4.527238265962183,5.873964194857763,5.600341267692215
0.752,3.5976944693074415,-3.029933979322152,6.94925552467646,3.489863010561635,19.337000747023865,3.8296617663005463,3.8161337125552564,4.737544201191554
0.756,0.6411389488217196,-7.20100365486752,3.120377525544484,0.8513106540174249,15.34112128340405,2.0509359685437403,1.510553630429058,2.2125048726096566
0.76,-2.3452974853693718,-11.273822481854552,-1.3314293516687599,-1.4055220808356808,10.252467151050894,-0.7597888063380651,-0.3765813113468539,-0.8664494019894846
0.764,-4.8258242509129445,-14.203691107789894,-5.614448424352815,-2.6923766045465527,5.066527170917652,-3.8938337986695615,-1.2567358363056655,-3.0413250179468605
0.768,-6.205356268146943,-15.068619854416568,-8.654070416588183,-2.6095711568334536,1.1226039355135526,-6.189500841719109,-0.8000311286778015,-3.1672673065631898
0.772,-6.087439149615477,-13.53638479863531,-9.594860802724213,-1.2357540502753181,-0.5519843951889811,-6.577591096038304,0.8978344305522796,-0.9843717851729252
0.776,-4.552991682666061,-10.189520369556817,-8.369758026007275,0.7218836983866481,0.102164884983722,-4.659528597096482,3.271039865890657,2.720917366483377
0.78,-2.2392185505667044,-6.419662070378308,-5.917042644353387,2.109038891674288,1.9951091246109627,-0.9814133027623484,5.446055610782764,6.492661291627655
0.784,-0.1177539774843126,-3.8608965838847666,-3.829099014144674,1.818926815585428,3.362700177257068,3.1666500258688757,6.5860954791971835,8.926674092240091
0.788,0.9658987293628911,-3.593991182258094,-3.5414603477002515,-0.6111255773616335,2.7005276694180225,6.324391813297325,6.276221456459439,9.353623333660835
0.792,0.7533875844293902,-5.541854410944154,-5.496939558670817,-4.628909350485571,-0.3502439676420863,7.504861321982958,4.749980934262453,8.11828589103402
0.796,-0.2675218014704228,-8.440074583012063,-8.80002892490586,-8.795511553045344,-4.705863855221708,6.573043932982955,2.81736948794628,6.2880745276518155
0.8,-1.1358745468893972,-10.447650143134808,-11.6044281402082,-11.405179343866507,-8.328030534046434,4.187655790866188,1.490526152319262,4.959522485288858
0.804,-0.9799110522071715,-10.097307554418535,-12.066754773727041,-11.299381761592315,-9.252580127116062,1.388943821452699,1.4772394684918027,4.581129839726032
0.808,0.4332222933090293,-7.084057784463994,-9.358119311312066,-8.45332217023747,-6.605916180899726,-0.9074209010208278,2.807147135621676,4.686239585885573
0.812,2.4918819216127304,-2.4610649781248526,-4.176805020857046,-4.015382304451407,-1.0647657087563402,-2.2363484920977044,4.795587927850079,4.19880160599098
0.8160000000000001,4.03070291718069,1.8830000166216792,1.539529218805967,0.2448299499195059,5.486465661264731,-2.6117867404796016,6.375781503503731,2.147785967769323
0.8200000000000001,3.9536968880940435,4.193405103746102,5.566702687449379,2.7847587843693873,10.894998743454721,-2.3224081461398782,6.634686715479859,-1.6475005429689418
0.8240000000000001,1.8535091849250307,3.7353521437777886,6.482982053250282,2.980604557701213,13.743852680176758,-1.690910540824234,5.272471189582916,-6.33618235304948
0.8280000000000001,-1.723897031918682,1.1364840340893352,4.333598674216034,1.3135726790193871,13.913867131588773,-0.9564520772560172,2.7564735696252,-10.390162735919262
0.8320000000000001,-5.5325346028966464,-1.9946609677194829,0.5240090919718909,-1.0198898420104001,12.437469669274634,-0.3005761651681951,0.09496436117848361,-12.370873551698082
0.836,-8.253670841737971,-3.946337095840704,-2.9765661588864987,-2.8224328942022225,10.782119083507752,0.07314118912654521,-1.647788468789372,-11.67348620944938
0.84,-9.131699894166331,-3.7697829482509633,-4.645469162198424,-3.509789401573471,10.020790377901704,-0.06902040451723224,-1.8298847396083033,-8.833918572336643
0.844,-8.284554498042667,-1.6861376796022114,-4.09803496777738,-3.3124702571564626,10.333743762119553,-0.8796995809046848,-0.4748041980504354,-5.240330162370128
0.848,-6.541759431581738,1.1466109450977342,-2.1324715869220086,-3.004397576926749,11.063863791164607,-2.2847830447266233,1.8067874523985097,-2.4314672755906486
0.852,-4.930217607320628,3.326320325623726,-0.17556283855242327,-3.3747764264012403,11.216282573765938,-3.905821410375779,4.146647163398768,-1.3728897435643148
0.856,-4.128001206955673,3.941604775756616,0.5129296422456378,-4.782215475724001,10.064829380881946,-5.15959818575368,5.812170126297474,-2.0907543796191703
0.86,-4.1902143620641255,2.9593153805667782,-0.5611055605920114,-7.02393384275274,7.525233351986913,-5.514915104778879,6.464145263131684,-3.8296504133253393
0.864,-4.656130721715954,1.098882470526945,-3.007544154228043,-9.53389063809152,4.122719175199165,-4.762850918935669,6.189331087493656,-5.585161488423864
0.868,-4.940859952884523,-0.6838632205991075,-5.90530688357677,-11.741910886654352,0.6304077969640218,-3.1337312065259653,5.331731006431198,-6.679738153727726
0.872,-4.729765403567001,-1.7552107959523937,-8.354218440510493,-13.331181287216225,-2.351822652624236,-1.1847904589561722,4.265075029412287,-7.0358084304577915
0.876,-4.144629832023668,-2.0965992228533707,-9.914167012664166,-14.259834131643458,-4.641516060208659,0.49005048238643667,3.2311337878152813,-7.032060338309805
0.88,-3.604421290749599,-2.1848642606099418,-10.701837543574072,-14.585794287955764,-6.416546920606152,1.5533961995278105,2.3085182970842197,-7.09561393573091
0.884,-3.5036179138678847,-2.5889193058462183,-11.162856927215586,-14.28160937836958,-7.944867021043194,2.0302396991821183,1.4883854381101855,-7.335424188101115
0.888,-3.9257254089887965,-3.5548066434056977,-11.706197911381338,-13.204108025918742,-9.299909766389959,2.1811641519141745,0.7600842201987916,-7.468910189123221
0.892,-4.552810905553571,-4.812139538634369,-12.420798029745924,-11.230735020053203,-10.235878265206281,2.2527477431131615,0.1535205015096608,-7.071232517447697
0.896,-4.855071741353527,-5.730559759705358,-13.037848778454872,-8.472262450945948,-10.308054706379835,2.268923577593796,-0.2860886597483727,-5.967356337422473
0.9,-4.443510960148615,-5.712626200029376,-13.11996416070815,-5.38225464161161,-9.148276679877824,2.008746838711886,-0.5616419019632417,-4.50074818808821
0.904,-3.3646079572897065,-4.586199759643478,-12.34523760435718,-2.6416503493124424,-6.734655966606255,1.1818031073001976,-0.7590155457015726,-3.4675790066801255
0.908,-2.142696933775369,-2.7448562905196923,-10.693813716483533,-0.8476199979731973,-3.471646265047525,-0.30561454404642063,-1.003667695208378,-3.711724208014857
0.912,-1.5460055296540531,-0.970789315986849,-8.451908239989052,-0.20297438471448004,-0.044448206495872,-2.1909138585969004,-1.3616147348850518,-5.613828641963892
0.916,-2.184647847825204,-0.03718144532416545,-6.065698267846983,-0.4057882606714429,2.860502206444494,-3.916234381239974,-1.7380542989674268,-8.776665148455322
0.92,-4.129595415731671,-0.2926011875546237,-3.93215044371118,-0.812332463969824,4.8357802540793955,-4.87125687853586,-1.850429063455067,-12.112279979853156
0.924,-6.780052884201666,-1.476147656979606,-2.2580069392225255,-0.8092581817099926,5.873129736594024,-4.701876932937239,-1.329105362567816,-14.312459754716656
0.928,-9.051620859959598,-2.8397472708414284,-1.0277689142782265,-0.1584596001700902,6.288200896725527,-3.4953191232403924,0.10554577565858381,-14.448809714442177
0.932,-9.823370815367355,-3.5267889876660092,-0.0881039272381372,0.8752661530986643,6.4966292703215345,-1.7445091384189482,2.461742264588338,-12.393627385643413
0.936,-8.468174903295221,-3.036798533682429,0.6987717699887526,1.6670997990198657,6.748918620772997,-0.10911881154424918,5.370902068353075,-8.86047088570956
0.9400000000000001,-5.2006739464179645,-1.5137312406390038,1.3435251132750636,1.5741092710007933,6.983070877722241,0.8838163617353985,8.143349974729745,-5.0521094071152675
0.9440000000000001,-1.0757818064034836,0.2753153516242719,1.7034312506747256,0.2644197763504508,6.8515522918469856,1.030632366518148,9.98014055262206,-2.123648765427106
0.9480000000000001,2.3873802791031267,1.265997654748503,1.5433311456895353,-2.143902007578049,5.902385777845723,0.473348412022915,10.263601678569103,-0.75321824391267
0.9520000000000001,3.8226649242866415,0.5813804144488586,0.6472955975789318,-5.177489450932171,3.8168166573935878,-0.42423651368835635,8.804806868407809,-1.004826994289715
0.9560000000000001,2.6238932362618925,-2.0491651577184484,-1.0689749059363294,-8.229028060826977,0.5873530242998299,-1.239258950248768,5.959785963144213,-2.47023156654177
0.96,-0.7428102836086055,-6.127942944425058,-3.4834503803527923,-10.756959193583498,-3.431897316686218,-1.6132188525907623,2.541378939920719,-4.551277904904964
0.964,-4.882702937916065,-10.555788293544083,-6.261685306709182,-12.35952423543722,-7.618552792102264,-1.3039326058765255,-0.45509163844394607,-6.6892722188115386
0.968,-8.04564484656396,-14.05532052210458,-8.933755756387654,-12.749134714178808,-11.274902136286187,-0.20749624870904881,-2.222316844482066,-8.462689368702286
0.972,-8.865588879516622,-15.654397084428183,-11.025837960380386,-11.714995191203798,-13.833686276891967,1.6141287440705128,-2.4624425910317314,-9.570076757848483
0.976,-6.9435667286600165,-15.022705533641329,-12.195514091257564,-9.171992799397913,-14.995072290212647,3.8988350330860158,-1.5106751092071136,-9.79384407394059
0.98,-3.002149134588194,-12.524662825922633,-12.318959845488848,-5.298982521361268,-14.747271870491659,6.184385503801877,-0.19006319722484477,-9.044386132707132
0.984,1.4845173268287226,-8.981433382158343,-11.488813198934167,-0.648123711036078,-13.28063605011107,7.907312289991296,0.5621798432041487,-7.465758637314593
0.988,5.003023840120136,-5.267411884729654,-9.917618384165507,3.910948129246208,-10.840370522154217,8.598667106612766,0.148045946521961,-5.491229393321646
0.992,6.708095192779638,-1.9384339771404484,-7.792888523816714,7.467443539789201,-7.584666160014649,8.098912709124988,-1.362985568521708,-3.7350617285742373
0.996,6.763348000408087,0.9166458002223408,-5.187194363729532,9.45368411876234,-3.5480522068378377,6.662317943095331,-3.216447124956858,-2.7287888038636083
1.0,6.153083097572107,3.554247720411013,-2.081293847126858,9.928770566535604,1.2728713085482468,4.864539759215859,-4.313443827179299,-2.6415328588846023
1.004,6.051814081698126,6.250801806225695,1.4946593908621253,9.546357043993794,6.745132160114508,3.3254904516429633,-3.7756220026867595,-3.1715083300214246
1.008,7.09145435812934,8.971697130471057,5.284065926230596,9.171328395703313,12.428268088012487,2.372542059039688,-1.4685169738359036,-3.7349000859212538
1.012,8.932660713719315,11.232625457474569,8.721739040187686,9.333368230622227,17.531098230284897,1.855611078314496,1.8136267723398305,-3.8721982809722704
1.016,10.378744309874719,12.237024989721704,11.03714511503199,9.828839641533705,21.0614947469644,1.2385249385324641,4.641957690599156,-3.615989650037136
1.02,10.001813270901948,11.26165995118049,11.55276755944908,9.752239256251869,22.16492171225832,-0.07000104299550003,5.632944020320338,-3.5637521712546913
1.024,6.947210578078511,8.084174363166312,10.038030743551644,7.984518395503528,20.50899304737743,-2.3196164099781527,4.183207869047237,-4.547078978378522
1.028,1.4791121215218936,3.217311417941346,6.92240500543744,3.8975939638307864,16.524215548033794,-5.199134677301117,0.8617610338201303,-7.060433133377046
1.032,-5.025788808947937,-2.1938584407259896,3.216780748407473,-2.109907609988113,11.352599957161601,-7.926555257881773,-2.776801197241184,-10.782116707342084
1.036,-10.65056427000718,-6.802010697790365,0.11529946383188872,-8.59105512468318,6.459296429689516,-9.613955648022511,-4.911538058604037,-14.534839610247218
1.04,-13.773621619180176,-9.606228843216286,-1.544139499591438,-13.599816921836918,3.0663583053158163,-9.702962685510101,-4.370285698814769,-16.78997831506058
1.044,-13.756442658525884,-10.359299837083654,-1.697088093026423,-15.567753701240235,1.650838084692623,-8.244467047301441,-1.2649040820137998,-16.487896505385834
1.048,-11.131160485477722,-9.605199666273165,-1.090698488745602,-14.043352673989602,1.7667881829997896,-5.867677043891035,3.024225808758729,-13.703791713811825
1.052,-7.204530427535474,-8.333589527580216,-0.9070398672783995,-9.896324978700477,2.283991112812828,-3.448890592972475,6.5156064012116985,-9.741655226152034
1.056,-3.352312829645598,-7.457070437130824,-2.1654317779559733,-4.9000301446965295,1.9204288235973763,-1.6996871562687375,7.5928749215868265,-6.547784268153009
1.06,-0.3875210494284147,-7.3727893605178,-5.194413882222079,-0.9044831631031229,-0.1746696917987265,-0.8776835066091735,5.774221505956575,-5.716737554392239
1.064,1.665856221608692,-7.846521877341502,-9.463708400166524,0.956718879559503,-4.069660895646166,-0.7553613119280271,1.8777106911607007,-7.634940554233708
1.068,3.3316378684930896,-8.253747145643956,-13.853122526400966,0.6475206707013967,-9.068839216003653,-0.8463770957041561,-2.4834890882721083,-11.249125074999938
1.072,5.154080304280342,-8.018815738357262,-17.20026174971008,-0.9518209384204965,-14.057891144116184,-0.7170349370276199,-5.768801572965913,-14.603846483012148
1.076,7.237931549992709,-6.9834623906829165,-18.82714314341797,-2.640639351876871,-17.97749970314817,-0.20609989753847913,-7.251217846808231,-15.866966072737341
1.08,9.165242441788223,-5.472780358192722,-18.74535170230888,-3.529594768563129,-20.163738202549666,0.5338462775057451,-7.2191172935486065,-14.25725555150484
1.084,10.301859472119304,-4.039974243142524,-17.462022618553647,-3.385110731012446,-20.432223297632163,1.1695947620819425,-6.570005910508826,-10.363191859211383
1.088,10.276109496556955,-3.0626516702066056,-15.544422313811538,-2.5662124183804735,-18.932567002626,1.3863476127653485,-6.109678129811073,-5.708704912322446
1.092,9.310653154568627,-2.461371166163417,-13.231343415314086,-1.6673399457986307,-15.927158231695785,1.046046225806549,-5.998918940735166,-1.841597296247528
1.096,8.17289942067805,-1.736349085622578,-10.342682634880703,-1.1329991411666924,-11.668015717310482,0.2276764117532366,-5.68253194885483,0.5076713847411156
1.1,7.751550430515181,-0.3113485015621791,-6.5391183092338,-1.0769442859900664,-6.434439220330432,-0.828151896540021,-4.339453466543091,1.7223984746406131
1.104,8.533120665338629,2.031981920406224,-1.7405140669322918,-1.3506415537935936,-0.6537715144818321,-1.8143125906126443,-1.5475077513988253,2.925524621059594
1.108,10.300545823576385,4.918475833276034,3.5950355340310125,-1.7514909733858985,5.0388649952906235,-2.462491350929213,2.289800432642096,5.199535814814681
1.112,12.263162058830858,7.516683255875705,8.54080293166271,-2.1843959794709917,9.904677635652206,-2.605770074753309,6.0448903155484,8.909839913783344
1.116,13.552743032432772,8.98294030049965,12.09955402880928,-2.6565384134337364,13.34207338207375,-2.1933441434202905,8.446101827987604,13.534684273029598
1.12,13.754739605929899,8.940897921659598,13.68887648976147,-3.159947983877373,15.119537328913566,-1.2927901113671396,8.761933666029108,18.027042535564306
1.124,13.141348329862922,7.69338478293048,13.411469761661692,-3.5738378384226053,15.439486348610899,-0.07392044141488441,7.1795719153547,21.44162423699163
1.1280000000000001,12.45820950299867,6.034453691207318,11.950176805935826,-3.6898384919527416,14.788437437370703,1.2323951849948571,4.661958428296202,23.402481652978167
1.1320000000000001,12.400646328939729,4.767714170708132,10.146875437033032,-3.364379605627164,13.655717827975195,2.390085801260284,2.3692409877962746,24.122825660908347
1.1360000000000001,13.118161133848844,4.217412787777903,8.518024507086011,-2.687321676186457,12.282131726403577,3.211238363938719,1.0086743814185866,24.033171957147715
1.1400000000000001,14.064643357263776,4.0330810352816115,7.00761578323818,-2.030648632123757,10.592035612223299,3.579517135176502,0.5052044870203645,23.31889405808215
1.1440000000000001,14.311241849118232,3.405614607534517,5.114878163972207,-1.8997158590786967,8.339852811693618,3.4463718862371024,0.1618155818714513,21.728826907979055
1.1480000000000001,13.148054276989114,1.5794174865900459,2.3152781880503426,-2.6413570703921323,5.369324871173376,2.807887709447641,-0.820375585212787,18.803681139998844
1.1520000000000001,10.602583360676363,-1.6417146143539867,-1.499618811036271,-4.186432743183104,1.8066653464488809,1.6949872263712678,-2.805855979432181,14.365010826596517
1.156,7.539201939799568,-5.697956881601385,-5.843629915957081,-6.006798182103921,-1.933543248710066,0.20987389564743353,-5.502819171787451,8.910014925423638
1.16,5.257044486272662,-9.490080912982194,-9.826599126225574,-7.342394809068537,-5.328435048696065,-1.4389796608083998,-8.166838021043077,3.5852976200603734
1.164,4.816077145024337,-11.87205922109024,-12.581329444183666,-7.570183240764436,-7.970886585072549,-2.937521046709662,-10.049590930264458,-0.28651144539617235
1.168,6.484363949630733,-12.141347994152511,-13.663110233869702,-6.5078514143756365,-9.689840679724512,-3.944785788898116,-10.795402286947137,-1.880616979828119
1.172,9.613593665931148,-10.278689396954178,-13.182977869073966,-4.490247887561054,-10.50250335864439,-4.245518388942401,-10.540746673402282,-1.3399897543922634
1.176,13.010514964063532,-6.85479212175278,-11.61481659343508,-2.1761015309439244,-10.454542739323188,-3.886002408277818,-9.682804623199445,0.2882668446563912
1.18,15.570938296328677,-2.701158399047017,-9.418070319680737,-0.2064256477942763,-9.484924759361547,-3.1962069641494963,-8.513408258262643,1.6331555931374169
1.184,16.802628664867825,1.4285657387772517,-6.738857612704578,1.0785256928793387,-7.4481246124910285,-2.64638286905938,-6.996802966495125,1.766343695071555
1.188,16.950380761638826,5.042310195922255,-3.377201145867275,1.7115848993253167,-4.288544245124285,-2.6046295571286464,-4.84318588746919,0.7006852074728158
1.192,16.686615040067863,7.901679157359467,0.9658294171526904,1.946279722127656,-0.23877506337930754,-3.123354916561766,-1.816085906997614,-0.6617520046174832
1.196,16.591365972410586,9.897202330275377,6.314435102463904,2.0026261791117577,4.111384614957387,-3.899932445842751,1.9549833310102258,-1.0801329458363398
1.2,16.764880058754898,10.94762314289801,12.173582106800495,1.887410826336236,7.971642207273817,-4.446049222752663,5.886473001016384,0.30108293333250913
1.204,16.805816048607085,10.995897053607678,17.581909050582,1.4048784346205139,10.66586878419821,-4.38227898392779,9.156102674784961,3.4830404031490616
1.208,16.144018559594315,10.086865864332594,21.465641366156888,0.34678936850013997,11.944184970287097,-3.680863026813313,11.088406791033776,7.652044395858866
1.212,14.484276118702383,8.434927727604645,23.11264777051565,-1.2771827098431459,12.105827741475878,-2.6919264479047342,11.479395171489159,11.673853930788937
1.216,12.077380826902754,6.400758251175375,22.508501961357524,-3.1228354803170078,11.837704472050518,-1.9172601508562366,10.670399826119137,14.729272827999011
1.22,9.65677939644047,4.386611538953275,20.36612480441545,-4.582896937681653,11.855886601073507,-1.677250313505283,9.331399285456428,16.706820546649396
1.224,8.078537052093452,2.7062719056757487,17.8191525246325,-5.0311791457143045,12.534619437515175,-1.8806903119157141,8.102948138314787,18.13224554179942
1.228,7.882199600950116,1.5152163464917976,15.93072297864228,-4.109973187362812,13.71874314218303,-2.06350374952126,7.307910279584576,19.701985160264485
1.232,9.029264865153436,0.8244179124358197,15.249637701916981,-1.9250151203759742,14.809488009724191,-1.6889286004452515,6.884739354503836,21.727495461922445
1.236,10.949011688643168,0.5462029342243113,15.593696513824852,0.9368703091768111,15.049661170119634,-0.5262846497689679,6.5281992130921935,23.83144964539315
1.24,12.837335050435286,0.5245290400798694,16.158927910588318,3.5787854682757825,13.859585325628814,1.1494348059932236,5.910391174856159,25.070139430281415
1.244,14.01412077498253,0.5174600122281845,15.888669075295184,5.074254332384044,11.054768477381003,2.682113926935017,4.837294100525469,24.413200400633286
1.248,14.177005106837896,0.20477600948743202,13.967291375288369,4.780054549509259,6.898511026915912,3.4247061521909927,3.2810200337880815,21.326619309433227
1.252,13.45477555087382,-0.7108955967696602,10.247107861443055,2.589507051417968,2.026287902393051,3.168981754522065,1.3408450949491453,16.146597277819637
1.256,12.278859777069556,-2.312273497717797,5.428685062637669,-0.9675158322124844,-2.6960206417647896,2.328553761387411,-0.7777907431946005,10.051582587493613
1.26,11.203476833871719,-4.252658708803665,0.9171061106189882,-4.809993321299771,-6.314740343734684,1.7439491316326894,-2.725535300761294,4.657871128248189
1.264,10.72542187334966,-5.709101881908737,-1.6393601670879434,-7.613277326968273,-7.9549604508965785,2.210913989502842,-3.9712202586360945,1.417133001122238
1.268,11.137478922581977,-5.629629912455584,-0.9888787456129648,-8.28346535401397,-7.043912508605899,3.994296832620421,-3.88687204802045,1.0518462027257556
1.272,12.40614379411545,-3.255951148777058,3.13032368831864,-6.46011673355315,-3.580893374264633,6.60141031562307,-2.037824692019967,3.2413017512599254
1.276,14.074028695685229,1.2972610794822685,9.687136320388163,-2.8369320732163033,1.645565174647345,8.949649151742051,1.414507596369731,6.671028943736019
1.28,15.263560780877924,6.768171414205426,16.53509732673183,0.9080244909846442,7.066006806222049,9.841811840584342,5.439394718849144,9.423437459210618
1.284,14.86647498545517,11.026080776513481,21.077884572572657,2.6410495084719514,10.679258652207864,8.487480780266196,8.248436429231333,9.601739683874257
1.288,11.94910817973323,11.913273563080566,21.24328789403262,0.6391684294721927,10.74101718617294,4.810485504025564,7.905455574187727,6.0206731845191825
1.292,6.254451681018509,8.306148302031033,16.381347218685733,-5.554743220103774,6.542791077431502,-0.5739320504162606,3.2349759024436935,-1.2738327340703108
1.296,-1.446069955240091,0.851714895121404,7.675728512250316,-14.70707353132002,-1.089393517568169,-6.632879383132604,-5.3949026774407685,-10.852565099576168
1.3,-9.402782408149505,-8.052933633621251,-2.1600499208361725,-24.168091335761346,-9.866627982120917,-12.243933848792949,-15.86137790220073,-20.22045707471625
1.304,-15.41785623119722,-15.129392057945552,-9.84721181423447,-30.80392387334723,-16.758854486061864,-16.418619463516734,-24.87359476592428,-26.56081009779882
1.308,-17.678922406692436,-17.574410808458197,-12.789883802493023,-32.208890262460045,-19.11645152359597,-18.388972484815895,-29.18612333078636,-27.6929175935511
1.312,-15.535000604756533,-14.283237805646422,-10.08336029590373,-27.66298082352114,-15.724815212277008,-17.64174778243614,-26.932052767694586,-22.888533736946556
1.316,-9.799356070021531,-6.330507135735388,-2.835733769590661,-18.38005877823798,-7.314859985579005,-13.995910598288901,-18.451763237681007,-13.201389494048271
1.32,-2.3954576119704143,3.5397207018013432,6.3433556237423545,-6.92659373566039,3.724845646196627,-7.759248931231923,-6.204420813458455,-1.1410102769750665
1.324,4.473253936151195,12.13057641650721,14.429211346887314,3.872167435693882,14.286623169731683,0.14351939624430088,6.207958260813939,10.198280426666315
1.328,9.22983267266136,17.13017336872963,19.163325448346768,12.012659386063206,21.723834307209472,8.229745503562299,15.462284208060737,18.222454895865667
1.332,11.448450279180179,17.927212097832125,19.807943389612774,16.875308183733978,24.745829837241217,14.79841669733105,19.718369761494614,21.687729857916565
1.336,11.764401071599423,15.56065610740552,17.176172988045437,19.061236436908075,23.65478402966437,18.493765182907737,19.08698029563311,20.96799075407398
1.34,11.289723447162942,11.95018752481792,13.024185855238102,19.703005461931753,19.916157397803545,18.849965509863978,15.231666749225042,17.667239001009875
1.344,10.908382494429134,8.88118747633689,9.164160579099189,19.697978366649295,15.348569181095627,16.52093864395647,10.397578759168027,13.797484368307778
1.348,10.855196188741502,7.281493381745349,6.742580334428567,19.29286332868469,11.355393878162431,13.023567972302772,6.384650806776335,10.901098472771992
1.352,10.788104120943899,7.1020983142243495,5.990243953801837,18.199158467880807,8.546150966392815,10.073987901951114,3.9563049942298676,9.511315760748403
1.356,10.228642363081235,7.715862256519358,6.448439063316073,16.06830485702085,6.825804013546076,8.819414695011801,2.873778498986212,9.146489368305993
1.36,9.042537574539892,8.495525123587868,7.442352452452724,12.968175654030347,5.7913669722265695,9.348988679572358,2.408936097424885,8.773151522780609
1.364,7.623481785904914,9.180581777597581,8.482267652329028,9.524588281208707,5.135895765789428,10.7451836982018,1.961833763794857,7.461467176755832
1.368,6.663165953510543,9.857367329827866,9.4048980602538,6.6455104704054975,4.835178690640532,11.651869533157878,1.4186112357801903,4.906625032359443
1.372,6.691213623282238,10.670837803822906,10.261330963796354,5.0275318340372905,5.06588941688824,11.055078196421164,1.1131091577044572,1.5838184788408398
1.3760000000000001,7.694367782301015,11.534866443768806,11.093741233517903,4.7653825463748944,5.965545102732904,8.86236381130766,1.494614675961202,-1.4923806434962898
1.3800000000000001,9.062386376196628,12.077727877386678,11.793238883806225,5.305399643068085,7.42925149029179,5.966513974979534,2.7479761655158654,-3.2587905982818484
1.3840000000000001,9.899556254892559,11.862992204187321,12.125382376731977,5.762220858330693,9.073882722790586,3.7515575904690195,4.618595538426234,-3.0967627567260934
1.3880000000000001,9.506309854050414,10.732457470531699,11.89664119934423,5.404176561107306,10.406492699247792,3.3183282594363845,6.5259047379349795,-1.0907688674560632
1.3920000000000001,7.711846754860744,8.998021120867634,11.111325484571353,4.005248550955002,11.075496402990211,4.861764614670392,7.865725319516059,2.0381436430798203
1.3960000000000001,4.890898324976661,7.326870156855875,9.987829103940385,1.8875988859344943,11.047976005854252,7.55187782797293,8.309165225622564,5.277038036256272
1.4000000000000001,1.7150718681059516,6.395206300267091,8.835180462056087,-0.30471477793071244,10.624689129892431,9.99022211954616,7.936484110992751,7.76694890032195
1.4040000000000001,-1.1843168051327666,6.509286262850765,7.868144698776632,-1.93686510533189,10.274811645114823,10.98580346905328,7.15081926761377,9.141807775295092
1.408,-3.4209342135900442,7.4433686640522865,7.095078727227701,-2.6160706277223653,10.38102406076814,10.213483340645325,6.447178833193902,9.60117760472167
1.412,-4.828986767305651,8.596366853114887,6.346245186668966,-2.2323453392000374,11.017129773330453,8.374400098438855,6.169112952587966,9.686373902422929
1.416,-5.317601913442559,9.341360663007436,5.396953303229566,-0.8694791791021999,11.849254458473297,6.768237950545881,6.368721872540846,9.892532730791572
1.42,-4.7729798008776925,9.355883418921621,4.108038581794972,1.2884804272634938,12.221520913546556,6.516001426263756,6.821013618791767,10.334758430059082
1.424,-3.1332752380176316,8.720407081694248,2.477317333380597,3.9610888734860055,11.39370941303423,7.8835647238320234,7.1485328370763455,10.649784780098344
1.428,-0.5707425979226173,7.764215184113709,0.5911448819961151,6.732025545430588,8.85587132729961,10.095306617591632,6.981355479863851,10.192209958986496
1.432,2.382727426497695,6.797340991401143,-1.4485278314396055,9.065969089819191,4.6138501150308,11.745436887054893,6.090175010542225,8.442374863774603
1.436,4.9342702844578525,5.920164540732912,-3.5459376590497413,10.45405975394715,-0.6793692709534298,11.588037019018884,4.465056993223698,5.409244171605678
1.44,6.375617281265477,5.04498797227734,-5.552421145388507,10.660108339718136,-5.829793746208452,9.252420688353595,2.3279313656603335,1.7831340365264623
1.444,6.488449181979377,4.079369740061338,-7.196077919246818,9.908036675085896,-9.461805524279043,5.476822918448306,0.06893983114605362,-1.2825376070704806
1.448,5.725425915537926,3.1085022802135427,-8.08586290346284,8.841990653365428,-10.51075652547479,1.7225150997492165,-1.8688691460301925,-2.6778754213628417
1.452,5.018978753271767,2.4311607842673766,-7.847054618094262,8.23012446498069,-8.65195496094384,-0.6180256056049984,-3.12979984310914,-1.8749118073228601
1.456,5.268326545981836,2.389320922126899,-6.356827361440992,8.528961963002075,-4.476294835215413,-0.9491487550185411,-3.56565466981192,0.7831905901257414
1.46,6.768618262697601,3.0917011687370177,-3.937826480619151,9.563075341086005,0.6957676483034447,0.2568027176166652,-3.279801974660586,4.207145270955152
1.464,8.939218890783195,4.23028069218708,-1.3608026207848525,10.540051814599792,5.301615622693134,1.771267384330713,-2.5654315978026716,7.046100262981781
1.468,10.536722076376464,5.139959644724513,0.4067316655364266,10.429561884655413,8.119985499986797,2.3120399087474652,-1.758928379167628,8.278796619510103
1.472,10.26069161153464,5.093055015115169,0.6129397217282531,8.511790947815825,8.682112162244266,1.2112616347658332,-1.0865564504238137,7.608734615978392
1.476,7.439349291325925,3.670897977160166,-0.9192794604186929,4.79483897244063,7.325655401665244,-1.3045987215537025,-0.5894968887114374,5.478417929138232
1.48,2.419561623788468,0.9999477956343981,-3.6841014250449007,0.06131946161076485,4.89573289870259,-4.3433783131931705,-0.1680803707022278,2.727551159214272
1.484,-3.546931096358094,-2.2935388955229428,-6.72112483311048,-4.485865227879913,2.2731295866078653,-6.8928355350435595,0.2721553024603054,0.12168836821365403
1.488,-8.849103419159292,-5.368568964111546,-9.058927806556312,-7.764962200904847,0.004055367443470459,-8.338799651559384,0.6744307225799275,-1.9749381701003585
1.492,-12.210218381114828,-7.52984024340185,-10.131308881568657,-9.240371416612106,-1.7792035318025228,-8.66152113528733,0.8075427972325997,-3.6093898351755342
1.496,-13.187516930545826,-8.500776369340201,-9.975745710114097,-9.032286423542246,-3.184513064028579,-8.245275629982643,0.3826607804512605,-4.991089523951814
1.5,-12.25490234357494,-8.470757018270888,-9.1163146986446,-7.687749209462709,-4.291529873132276,-7.5063385586836375,-0.7454426464610151,-6.19151176822561
1.504,-10.484108887894763,-7.930661811285063,-8.223322867560455,-5.798562178608336,-5.001296832584558,-6.615837260160333,-2.4184021606251918,-7.013036087522778
1.508,-9.01628983284536,-7.406847899038439,-7.756706141587529,-3.7136926642961043,-5.1144762681242355,-5.48797107415885,-4.185567189842914,-7.125722993836462
1.512,-8.581547697380302,-7.233872484409403,-7.792641699068554,-1.494437959341667,-4.5693727891712115,-4.018787094930303,-5.505543910388951,-6.375968273714534
1.516,-9.280925714641853,-7.473678970794936,-8.109067652303565,0.9015500148307183,-3.656534314271994,-2.370568746013305,-6.036819069358899,-5.032833674547874
1.52,-10.6702706283304,-7.9697143118810345,-8.43566054353687,3.378519411658999,-3.0171880553025403,-1.0370496244941023,-5.849223953748151,-3.779104599281709
1.524,-12.035517993223039,-8.473689884423948,-8.687884722192393,5.594662287985557,-3.376568030001181,-0.6251714863537927,-5.414082781833713,-3.4014500481644063
1.528,-12.719280539899046,-8.757805209539583,-9.015169216774666,7.078235181543278,-5.132642546564966,-1.4818034190757317,-5.3480348344546655,-4.3423136253150005
1.532,-12.377736777682003,-8.677933249184207,-9.654158178789658,7.4822070445716236,-8.054657771538587,-3.4174931337765884,-6.054178970218345,-6.3922182614333
1.536,-11.082389932355,-8.190060868910223,-10.688917968864189,6.806508322344598,-11.290127005460818,-5.733207292498264,-7.461380718974397,-8.725545055618568
1.54,-9.251239630211785,-7.334694567465704,-11.881247164932574,5.443214864108086,-13.698300878757436,-7.57287057918802,-9.014666354112705,-10.28533290402629
1.544,-7.456980282207951,-6.215216537082597,-12.704551559740139,4.005856849165866,-14.353492233574798,-8.396098914839968,-9.94572746324775,-10.309665463646525
1.548,-6.186551553542813,-4.968719516638885,-12.575571868106636,3.0437688634265214,-12.952769926907422,-8.277178390570043,-9.691571602466865,-8.720854272993165
1.552,-5.628439212276135,-3.7088957446849236,-11.131688864179523,2.8142550706143084,-9.900002700667756,-7.851683919849165,-8.200741722168459,-6.153744575341989
1.556,-5.5977391871856526,-2.4837137873164465,-8.4207543976554,3.2108579923915386,-6.06899668074584,-7.9061033080433845,-5.962915124324354,-3.608479542319401
1.56,-5.63921247471626,-1.265712703067038,-4.896434746129671,3.872522445337381,-2.3924482368347526,-8.850574041658547,-3.7431167931663367,-1.9253594487308874
1.564,-5.277849253299792,-0.004873746554949321,-1.233613011710986,4.383103164809654,0.4916968372745032,-10.414891858341434,-2.170271419963683,-1.372296746900247
1.568,-4.311108575817343,1.2714806313842928,1.9228745787695516,4.433801982600926,2.3651532156800386,-11.759190940138069,-1.4250641801281745,-1.5699258686036046
1.572,-2.9868574504180287,2.3708817763690604,4.146523458959564,3.8721947535632353,3.3132559984314867,-11.940813948789582,-1.2016630455709674,-1.7730843326389731
1.576,-1.9285160841845936,2.9412333394848247,5.294018216227414,2.6685455839615315,3.5085656630126323,-10.464294646677445,-0.938169638178806,-1.3084125537898217
1.58,-1.8270530802128633,2.6025898789976054,5.4607910895501846,0.8701872658202774,3.065884020397789,-7.610235525891767,-0.1674367035375326,0.08155965695186751
1.584,-3.0483126233448274,1.1550238579293364,4.886414447257266,-1.4025758672651136,2.0494728943904192,-4.341908962604066,1.2239465237835248,2.1637257570691872
1.588,-5.36948843418395,-1.2411335526303446,3.883644824705698,-3.9093511239716463,0.6021176917492994,-1.8375954883304075,2.9755943944655883,4.405279570430139
1.592,-8.004590691672092,-4.029926964889455,2.7969346991667408,-6.234157587854497,-0.9361159794352716,-0.9085867954090645,4.656425633116669,6.2820768084548035
1.596,-9.928988424377621,-6.440614281323178,1.945218284807197,-7.811169005987267,-2.063650047991814,-1.6183084262065677,5.93817580438008,7.500404610679652
1.6,-10.326668778575367,-7.795728979064279,1.5385424399746626,-8.049384860453756,-2.3075996555762686,-3.2713598068285137,6.763230085911346,8.035406507234256
1.604,-8.934337035987483,-7.799557901692424,1.579930685360523,-6.52637079087981,-1.4734214633917873,-4.774812034567731,7.310412976381485,8.011689389226376
1.608,-6.112266254489441,-6.6518677281273995,1.8178968059346516,-3.1717742213040765,0.2075758233149827,-5.164872366687632,7.791675951433717,7.543877352349227
1.612,-2.618559492551867,-4.918311133653333,1.8157977614100673,1.6490178116509924,2.1355872879903472,-4.034337724729994,8.23686577132321,6.6672992682943
1.616,0.7583801206837961,-3.240102415704314,1.141088156211481,7.181376056640147,3.578114322212059,-1.6838924815310747,8.409901261646155,5.378130914992653
1.62,3.495773008944525,-2.0381733581307344,-0.3938773943900742,12.447068108853273,3.976274224709414,1.0572809138320736,7.930447680428188,3.7287609596496623
1.624,5.415040009338554,-1.3833679630097322,-2.5831770577115094,16.462257121585935,3.155094001841462,3.213763618736266,6.523810487005903,1.8758887673320714
1.6280000000000001,6.551863034805137,-1.0895444097186555,-4.874397982932351,18.442656418603292,1.3394006629578143,4.042397236142278,4.235628463151443,0.0025825830052781384
1.6320000000000001,6.955307007157899,-0.9481794343118963,-6.621242488545249,17.95262390204516,-1.0052444814446062,3.274904496516683,1.4669765829003154,-1.8307808571735222
1.6360000000000001,6.577068326199878,-0.9394021184962185,-7.41657471293729,14.983246558073006,-3.399448415214465,1.1531159779660811,-1.1862182173736073,-3.765966099646903
1.6400000000000001,5.323966846237454,-1.2729805436974857,-7.32187126624558,9.961215887255094,-5.514778040313104,-1.7181099365407135,-3.189513365869061,-6.055553287813382
1.6440000000000001,3.220324469200932,-2.225820902394844,-6.84758593118022,3.686625099986486,-7.208021963862848,-4.607838632211497,-4.269031078221815,-8.815031626476411
1.6480000000000001,0.5500838212956296,-3.870294155789452,-6.667020029084597,-2.7993257462021575,-8.441153204734292,-6.886098427235993,-4.445269732410452,-11.773731687746476
1.6520000000000001,-2.155263709160863,-5.875798786262749,-7.215477361276498,-8.41887953204423,-9.17706981932497,-8.184310958811693,-3.914963940027519,-14.215005096695677
1.6560000000000001,-4.326910467307243,-7.551781690019197,-8.413077432456703,-12.321196693184902,-9.34640462308198,-8.457515676895127,-2.8835205134382704,-15.207602164064156
1.6600000000000001,-5.637146803008363,-8.133264200982012,-9.679229824381764,-14.122843060946252,-8.904742555188932,-7.942807662053383,-1.4752216045799287,-14.064529968880379
1.6640000000000001,-6.171556641564166,-7.169192814948474,-10.255344739742213,-14.02118159213751,-7.932090722429166,-7.046803304452624,0.21385406129411422,-10.78289610693173
1.668,-6.3787178293387115,-4.801807101248414,-9.657367881658502,-12.703278957595103,-6.682114026239105,-6.188065159472899,1.9853826297621708,-6.189640883509128
1.672,-6.807957840273957,-1.7556044068296615,-7.985788026175214,-11.044912578374351,-5.516604203737188,-5.64108652561481,3.459447828174234,-1.6668296114403347
1.676,-7.784331624752667,0.9632770830558002,-5.914636665140279,-9.714671873520274,-4.74866108284732,-5.455437351760338,4.1400655416455265,1.43955423009902
1.68,-9.194714656001452,2.5071633344014117,-4.350762774949544,-8.84656144681503,-4.477978329439793,-5.474267861693079,3.623206158810717,2.4306507132132538
1.684,-10.511862785737321,2.5320239027932985,-3.954461002696007,-7.95197911204923,-4.528738349924424,-5.419419495658076,1.8466949360990839,1.553658912100218
1.688,-11.032219796014033,1.282288802100993,-4.791969625866841,-6.147263435905188,-4.542441191963007,-5.014700767969771,-0.7797638927222579,-0.18144236046464357
1.692,-10.184608996389215,-0.5897029193383787,-6.30189570496259,-2.6055818554305006,-4.169093832486396,-4.089708146482735,-3.473156024072523,-1.555309933852186
1.696,-7.76805513168074,-2.362765585337911,-7.599400253334352,2.9542774097553774,-3.2677057913206227,-2.611155528717063,-5.380545213814912,-1.7555671793597867
1.7,-4.014392171189684,-3.557080790273176,-7.943031212636015,9.975971053876492,-2.0127505515074517,-0.6588271225664357,-5.946814943132267,-0.7372355062725546
1.704,0.5211474265979632,-4.062084451841656,-7.103063543644566,17.137500315166108,-0.8375101052988612,1.6105645986608579,-5.159599172189701,0.8591281364060706
1.708,5.150900422384439,-4.067862348241761,-5.444217911260239,22.775379391425304,-0.25378447371713264,3.9731267073384515,-3.54865159410474,2.130294351334669
1.712,9.223847642249893,-3.885617361358527,-3.6913412335479734,25.491803186954712,-0.6328797812493576,6.120060943245335,-1.935174581645697,2.39131926115806
1.716,12.228192717528145,-3.7834457759145153,-2.5281359706996227,24.678224132641844,-2.042803608734175,7.654510888842196,-1.0679759027152613,1.4448785537606454
1.72,13.822862880075263,-3.929296745512147,-2.2663438292329374,20.719245874983244,-4.2147738837084034,8.148991540263523,-1.3200075807744724,-0.46486252115028037
1.724,13.843892059709106,-4.420143070148697,-2.7468470060539403,14.795865645553931,-6.634351056067317,7.304260811570202,-2.5686452862555598,-2.9051583816453785
1.728,12.320087527885335,-5.333068980750795,-3.5103393765930377,8.387673706351052,-8.718773508217055,5.14469535686294,-4.307287372024803,-5.516155739493115
1.732,9.500117521071843,-6.704745973982426,-4.096521693509203,2.7296857952605933,-9.992384765523639,2.138188334840379,-5.900104124493737,-8.091252038966559
1.736,5.850044442662693,-8.44706143888925,-4.298167750479479,-1.5481774262916588,-10.221972630703021,-0.8848943179509661,-6.851113295242612,-10.485725497877866
1.74,1.9826113215240184,-10.272208647975276,-4.23675645356434,-4.467917273364947,-9.477144778898946,-3.02767518447763,-6.982303115735704,-12.48553264781367
1.744,-1.4839126289425622,-11.714673677430255,-4.237454851136135,-6.467574789363425,-8.10143250247802,-3.7017312632960966,-6.447887212516434,-13.781233298239385
1.748,-4.092211286522797,-12.291644079681646,-4.607998605419198,-8.051041285983956,-6.609989887345364,-2.8992866225235048,-5.606549827429262,-14.108201230130362
1.752,-5.66105463695385,-11.718462309574534,-5.433731513530802,-9.500595899280597,-5.504247849119565,-1.1951878622712684,-4.815801788512545,-13.443606283215559
1.756,-6.2977358538319095,-10.059161507564568,-6.494837437711794,-10.774583168409663,-5.055169666089569,0.5482297492308135,-4.241165020057451,-12.080349423806183
1.76,-6.299725339016732,-7.705842962819588,-7.330788478804607,-11.58772161120578,-5.136398067517803,1.6460477256587183,-3.768405405793601,-10.470196258338547
1.764,-6.015475078505915,-5.196057407094486,-7.416992669204774,-11.599482114457714,-5.2081913108931985,1.9431421466433676,-3.0629609029019775,-8.916947904541303
1.768,-5.717119793102938,-2.976125130753644,-6.378261393030698,-10.589689812442884,-4.509735547843775,1.8687243726271845,-1.7589599058319436,-7.344152699788538
1.772,-5.544233249294848,-1.2422548047043165,-4.141921209540669,-8.544969375454457,-2.401245413403558,2.135951799677059,0.31462377100251615,-5.343817246279286
1.776,-5.530829676862595,0.0478861960427821,-0.9860165900445281,-5.64913651007555,1.2784301457195397,3.2461451659182785,2.98564086897386,-2.5208102907381544
1.78,-5.672555336974256,1.0060310686285447,2.5173033769760877,-2.2284520652829087,6.01003060723815,5.122389716705584,5.739942780770434,1.0572665693453018
1.784,-5.984458271767835,1.6194192108132484,5.647847936636936,1.2997825935835863,10.684686226391023,7.099429133355443,7.894320433088069,4.631209630475496
1.788,-6.503688454205985,1.6918045761995018,7.743371652557471,4.4785575498281105,13.996569757711768,8.302867795286147,8.88203036955747,6.978076442663223
1.792,-7.243441673814232,0.9737640637722507,8.409972267168996,6.886353210617017,14.981356482156116,8.193857260972436,8.504660235899792,7.034921901717098
1.796,-8.12630362166692,-0.5977466937656573,7.659670586024731,8.245587387260457,13.441861500535197,6.948205222079196,7.017489007088443,4.5827098575191485
1.8,-8.93540782989021,-2.7127352733314183,5.919183418141074,8.540842748769137,10.044461699768362,5.430122859852418,5.003773621136133,0.5539690218320175
1.804,-9.333545602818049,-4.715039210182113,3.8845796142668405,8.068216003253838,6.021259124023345,4.740897035950184,3.1085937662901415,-3.2894320244304254
1.808,-8.96344369689632,-5.866785315107336,2.26717454669415,7.36066034104806,2.630749160371124,5.592906262565521,1.792854458302827,-5.182180112293281
1.812,-7.596329546287961,-5.706077022856334,1.5398189122088297,6.991730512760114,0.649208422256379,7.892748320537066,1.2247775956984697,-4.249895746008406
1.816,-5.255450679665955,-4.2891779113761,1.7940420666109276,7.332965990101002,0.14451829073095723,10.77474359226835,1.3475456042251608,-0.9638132797917933
1.82,-2.2692780791467158,-2.171827871638925,2.7604965133759833,8.383752770610954,0.6217778388454462,13.075101850859937,2.0390078259388247,3.1172488749689364
1.824,0.7743733205988974,-0.12993828254002437,3.9761497769923153,9.769315581348565,1.4254504245500357,13.96966672482813,3.2243682593179983,6.182395056042878
1.828,3.1968739749900124,1.228738015860472,5.010220631755146,10.929330287039193,2.14594969339214,13.391229782686423,4.855210929939858,7.0963089724155
1.832,4.460401116431058,1.7514752604929527,5.650443142350014,11.403672109104264,2.8162475131102838,11.985931465764224,6.789128325188358,5.90535667380027
1.836,4.34933485903457,1.7562305905576068,5.96122701688455,11.05120734313823,3.7981073580504017,10.650893080615788,8.691328319089735,3.6622111405322357
1.84,3.035453469620734,1.7888315193640665,6.212947298396102,10.090577420542104,5.468006048585266,9.959022642786294,10.093007274719639,1.7236457323560899
1.844,1.0092508893949343,2.2872894410602385,6.742009579182195,8.956226119147686,7.924723890135283,9.837938231017688,10.639419627585085,0.9875734234155971
1.848,-1.1048072199391754,3.3460618837507354,7.80428933130861,8.060078250195147,10.890206762234811,9.694431526109838,10.377384234243436,1.5165815232576279
1.852,-2.759480117759267,4.7171567471195885,9.479972192936657,7.60759974787652,13.849940407055328,8.885750355535492,9.868154876796325,2.7153484758200648
1.856,-3.630230062656665,6.015865078857132,11.637752680303493,7.570853082157555,16.31085634113424,7.223981655013631,9.976024594709088,3.8710539108378725
1.86,-3.644018132254132,6.982701815131804,13.946570784149117,7.8210944551201464,18.003417458663534,5.188085355037401,11.381670771397694,4.662943673352856
1.864,-2.902505640704476,7.625356571870725,15.932466787963676,8.31346633092835,18.90903326285934,3.688072670587644,14.098323423009788,5.304946147436567
1.868,-1.590565932260688,8.140244916359734,17.07172713833552,9.163310503302455,19.108350593202886,3.526762190669615,17.291121189082332,6.250081096441136
1.872,0.07404812709955877,8.68979866911286,16.92653162793613,10.551620931370053,18.59460137500355,4.899525113265554,19.570022098917434,7.697903076581497
1.8760000000000001,1.8312211476932134,9.19700690881109,15.305909403432452,12.510220617679806,17.201733397619137,7.231649432378617,19.658292991935014,9.283973314037212
1.8800000000000001,3.3550922128206366,9.316110292012127,12.399942836947048,14.739897573749658,14.721067784289517,9.46675698295985,17.089770656216388,10.196587615106182
1.8840000000000001,4.290478822644218,8.613847231503314,8.787057515680317,16.606649839448437,11.122677988485975,10.640502005153394,12.519343184029822,9.650052428662093
1.8880000000000001,4.37881147007738,6.861062436706561,5.268985144079124,17.371833804036214,6.721255624256173,10.39101289617247,7.4277545442928385,7.411949372750314
1.8920000000000001,3.6058099550309635,4.252850478059372,2.576794636257546,16.55286780957249,2.1570840218678313,9.103710401337594,3.3739148345430294,4.0267597517977265
1.8960000000000001,2.290954138989946,1.419931924325283,1.0798895364405325,14.226320518186185,-1.8166087641707236,7.636798317184002,1.2245792112862546,0.5921178976132069
1.9000000000000001,1.0243612403937732,-0.7911329777080027,0.6558917808952174,11.090038791776351,-4.614622191324543,6.805624869371968,0.8084483839720633,-1.7758163427115505
1.9040000000000001,0.4250086504189312,-1.669845500221527,0.8075670363223253,8.21284726984868,-6.006749910658527,6.946711679796863,1.1822560489645184,-2.4674646552794
1.9080000000000001,0.8217060987253717,-0.9499178065757405,0.9738297343938029,6.570987978137055,-6.119799421490825,7.793809127912027,1.3241016700330874,-1.6088943038685102
1.9120000000000001,2.036794044396629,1.0954515262847053,0.8794642834482147,6.605253968924444,-5.256252721036162,8.695363735190767,0.8136269487276877,0.09947874555291492
1.9160000000000001,3.415492926707884,3.8035920716019973,0.7187104063541483,8.025447453687775,-3.666094582441019,9.015120662388654,0.06918603921349131,1.7994595517466223
1.92,4.109921472419046,6.42041047965904,1.048452818622991,9.957687624144455,-1.4281889013136606,8.459332774975337,0.0003456050390013843,2.867702235142133
1.924,3.495608345540859,8.401677162068609,2.446874533799928,11.363608424295307,1.4989518536276591,7.15833652641777,1.3163100111341919,3.080531982091088
1.928,1.5106262660292487,9.580069501460457,5.126088555131901,11.517271007581257,5.104572208661466,5.509135044046161,3.964438442319988,2.5361222951805757
1.932,-1.2650172344956445,10.159233202547512,8.742996135595149,10.315783927823759,9.182262999748218,3.9269256028283053,7.084848521776621,1.4690392993506975
1.936,-3.8457491205235783,10.568401409660964,12.519054508317822,8.279324008430194,13.324501980106561,2.6856632097978945,9.518141021462725,0.12007596708554047
1.94,-5.2975582747722,11.244881331799661,15.592338886723155,6.241421605705909,17.04299385272998,1.9090306997159132,10.527569879888688,-1.2794569897450856
1.944,-5.179074610172847,12.43623291124004,17.393528151177634,4.90581071381439,19.920495324278818,1.6474584742427396,10.240134513393059,-2.474351050630503
1.948,-3.777761159304191,14.049412024863159,17.793371774702337,4.476169325484079,21.655371771606042,1.9120253132532525,9.46604360508536,-3.2426690940983462
1.952,-2.019523216016296,15.603254136313353,16.960725919690958,4.5400023666170455,21.97586661223795,2.5986308450064826,8.985629826651348,-3.5746819359774236
1.956,-1.0996876525546213,16.305835512984686,15.048267724774178,4.255952907100436,20.509107459731695,3.361689641220437,8.776860046698857,-3.865697743659439
1.96,-2.029544065304435,15.244385058285388,11.931180987810876,2.7335587189836588,16.74286013016399,3.5592734722704336,7.724157262866356,-4.949655026775872
1.964,-5.262156635570591,11.68220151606829,7.216383916111226,-0.5572545463883216,10.195812681313782,2.4186685929053056,4.0929553731048145,-7.823669770431479
1.968,-10.509529483786082,5.401146208359933,0.5681079411660903,-5.515892600015832,0.7784984591089597,-0.5645049567801834,-3.4005206668271057,-13.108532894237214
1.972,-16.807940526738548,-3.0436181538661913,-7.8264119974414825,-11.391223359049036,-10.840501995780869,-5.202108648429203,-14.528018464202432,-20.51691060579833
1.976,-22.77870592634372,-12.293120527545852,-16.952301206632455,-16.991395271415968,-23.10099827805334,-10.417735927661852,-27.154407176980385,-28.641558160165914
1.98,-26.99447672786073,-20.45862714276518,-25.061136858166265,-21.03946187429574,-33.81779676363476,-14.471800568539038,-37.83231865664948,-35.28014789329518
1.984,-28.356524464060385,-25.65878301055909,-30.18898869097029,-22.54454940825599,-40.80096583812292,-15.5913753113864,-43.16075650399216,-38.206660890391504
1.988,-26.394584890444094,-26.648682414810082,-30.892220059226474,-21.067683760551517,-42.58967546133999,-12.742527037447871,-41.25216118463322,-36.05931254567986
1.992,-21.40471668410919,-23.28060563153076,-26.838782843874924,-16.811654078429456,-38.96952379273944,-6.172459563518714,-32.56953053696907,-28.92806355236462
1.996,-14.372955927600287,-16.587440709162365,-18.959600282623796,-10.538396634122364,-31.025951001675367,2.578006477579038,-19.704399558165278,-18.355225686450467
2.0,-6.687680018583251,-8.43203113747495,-9.089244249741114,-3.3565885914076716,-20.714698984108963,11.241115731980244,-6.238963561056153,-6.760915551383732
2.004,0.26341797170880454,-0.8596926844143127,0.7157266735785015,3.54514858991206,-10.160246050179467,17.714033421336353,4.72073666968663,3.430288711412686
2.008,5.4773569171238705,4.578745227726813,8.865000306569982,9.149059596040388,-0.9965293792643024,20.863099910779965,11.63730196657525,10.55963382473601
2.012,8.544982396415435,7.257670414735458,14.631624563433888,12.785863036805495,5.988236234510168,20.849616794081157,14.776561377239886,14.090488130881567
2.016,9.614728903272407,7.510829890200057,18.121597486755036,14.212794343421137,10.803119566944133,18.85707159681624,15.594799895618053,14.47978700308795
2.02,9.168947151399607,6.315626913420601,19.93381899409951,13.598693328230183,13.92361441685398,16.40373955135874,15.72745912559003,12.73585963876485
2.024,7.7522434024740505,4.814954962573665,20.73864543031459,11.434193694421083,15.901579651387237,14.594403199072076,16.151298449954993,9.941961717276172
2.028,5.7951189850145965,3.8981824486841106,20.986018166303438,8.393619882072016,17.10626970126259,13.694385100689033,16.91628830537502,6.96358026046255
2.032,3.610403749469242,3.9978150202418874,20.85044750850102,5.183088497437893,17.680477667684954,13.205540918344013,17.455941214460836,4.3834882999262845
2.036,1.4997996621104903,5.10445292160739,20.341042912186367,2.397050028279409,17.634132716692875,12.32918874419829,17.170227933114802,2.5715169016875734
2.04,-0.17930942146631423,6.889431228702961,19.423606145348458,0.3902877572518264,16.93676120836426,10.520639561022108,15.859205693612239,1.7308690067839052
2.044,-1.0813214080394573,8.834745648344324,18.064273711605892,-0.7940947631464041,15.539233531386799,7.835069722708795,13.775485239847512,1.867854594183882
2.048,-1.0669553177563103,10.326161878709172,16.19831652818175,-1.407098979526836,13.339204678748956,4.8919823660162365,11.34952495656853,2.73163418655804
2.052,-0.4088452269561458,10.734742319174075,13.683936774232734,-1.8971817481187827,10.166137002180676,2.5154195175900895,8.839341952690575,3.8101818527684372
2.056,0.17845782357517237,9.548000292222696,10.328059026409846,-2.7491404084103124,5.856835874301851,1.2865888194755826,6.182268387284694,4.467279346526993
2.06,-0.2212176030870978,6.562459584021781,6.011674578219754,-4.310680882678298,0.41744341723324396,1.2574358344754728,3.151231147465296,4.193056884348152
2.064,-2.286007675887049,2.0674100606674983,0.8478158032580723,-6.661723554230775,-5.821893096963095,1.979875956005344,-0.31263086154785924,2.8548743225264843
2.068,-6.056616292019498,-3.126943968934029,-4.739074946098754,-9.584943877039223,-12.18423341513244,2.806606679221659,-3.8548572832173704,0.8047299752415711
2.072,-10.82098043812357,-7.909226553171038,-10.091587712235878,-12.651377800903447,-17.816388165011404,3.243478378990403,-6.772291328099072,-1.2537167569698795
2.076,-15.363724466324129,-11.273050637534197,-14.526651938849454,-15.370344794926496,-21.98029972976019,3.1601336213152535,-8.37156401433731,-2.577280204410272
2.08,-18.47277280759681,-12.7238371546066,-17.550983987141308,-17.330329330976383,-24.304516633800176,2.7729278427805184,-8.396170583571347,-2.7004866430193033
2.084,-19.467590594078956,-12.485433803663227,-18.985951050945005,-18.298707108729104,-24.86263036828177,2.4098351650081895,-7.245184460019118,-1.6066399059509422
2.088,-18.453118385027665,-11.366008332176989,-18.94127414879108,-18.24550277561957,-24.028585837643732,2.22975993278078,-5.799785349672675,0.33402009070141503
2.092,-16.185652051839043,-10.329237091514187,-17.669793285637297,-17.30329105423698,-22.19512655599806,2.0875508381986947,-4.935410515690364,2.60512304961685
2.096,-13.650450455611008,-9.993732244459352,-15.420990915417406,-15.699616018524466,-19.54198270468487,1.6178078951270436,-5.008650968549773,4.806194928682089
2.1,-11.59638614254095,-10.33280270626733,-12.373361037788527,-13.686439218218311,-15.99761210386805,0.48618320972764195,-5.622190044540275,6.79843885796754
2.104,-10.286426523000273,-10.747008595011266,-8.680491417572739,-11.49523827745088,-11.429904331349007,-1.350086183865642,-5.835925370151472,8.661343103770832
2.108,-9.547476083543188,-10.463912102690529,-4.5765484979829125,-9.314043107719954,-5.945650804149636,-3.53511654828435,-4.717622346880944,10.51165018398433
2.112,-9.02310410174914,-9.018299024412045,-0.4230805810982474,-7.262198589547552,-0.08024381869881836,-5.4402422248622315,-1.9070167660511288,12.328485822181392
2.116,-8.446809655061315,-6.539425496739568,3.3552478360286386,-5.384991380626616,5.260121248921678,-6.4622987755810755,2.1350558580938923,13.897747779368274
2.12,-7.769491982951195,-3.689579572236198,6.403739981521312,-3.6886937102540287,9.097176103801758,-6.334663688019191,6.326451452202946,14.910698375472748
2.124,-7.112841427461717,-1.318868837141963,8.533448361193678,-2.2229319030666375,10.760135913365275,-5.2867016164573215,9.478395117135278,15.143327615580347
2.128,-6.635437880463314,-0.05296555009999793,9.706656097677296,-1.1730330419195525,10.133676972092644,-3.942606823598453,10.829828879353954,14.59547509115282
2.132,-6.42362427717012,-0.041360919096860016,9.92689131047382,-0.8787508377977247,7.657895786210474,-3.0084199477810216,10.312012111688546,13.51541188298097
2.136,-6.473898821777993,-0.9904189903834322,9.117751141570352,-1.7231895945735687,4.092843176714268,-2.9104165495614325,8.431951685008244,12.294970826134886
2.14,-6.743101065453629,-2.4235554327826776,7.1082324668689125,-3.907892075457994,0.19014995452266703,-3.5621011114972134,5.89962107808924,11.315567272792578
2.144,-7.188138296365878,-3.9748585937334155,3.7694054042960943,-7.21433258662546,-3.550660336158444,-4.3951569602072595,3.26475815210415,10.838361927139886
2.148,-7.747609301628245,-5.538254809643604,-0.770091850096378,-10.902911933706491,-6.936248170622093,-4.648790352393462,0.7785075234423857,10.989140542239511
2.152,-8.316439106657526,-7.2183655518324485,-5.982058687550534,-13.88356943240592,-9.971222482546636,-3.7872273414259325,-1.4932199729887543,11.803193337575067
2.156,-8.757920159229343,-9.156097828504699,-11.007460611522902,-15.129069343651736,-12.699362727880498,-1.823946529254954,-3.4502430194390854,13.258694373827439
2.16,-8.989931934292827,-11.365720024575694,-14.940436482007271,-14.157146805629736,-15.09495580293924,0.6228205323404836,-4.837514448911861,15.253827395663848
2.164,-9.104708347249925,-13.690522966890057,-17.1990896950947,-11.331129450651133,-17.052098982693224,2.562144165927748,-5.343895475355112,17.53671986848167
2.168,-9.408750739104107,-15.879852259745803,-17.77406937130445,-7.78086096399511,-18.43352184305172,3.0641795704113974,-4.861528720986371,19.65785988952848
2.172,-10.283024583671022,-17.68528527694525,-17.181162152898196,-4.920211934215331,-19.0935915840289,1.693226779269935,-3.6960343592757,21.02811634864338
2.176,-11.894821948710842,-18.894424102603466,-16.12657351037035,-3.779375781887211,-18.850568650402693,-1.2702022935914101,-2.536807743719237,21.104806309770083
2.18,-13.92321719845404,-19.294913785489598,-15.077043529328648,-4.497261816772607,-17.45703606452389,-4.931824752463399,-2.1576069057509812,19.622842451002725
2.184,-15.516080326419797,-18.6368740866734,-13.9861923109994,-6.255525246571324,-14.638543143589573,-8.171259099812005,-3.002727057419179,16.747406483510304
2.188,-15.590002017869892,-16.691880744587024,-12.362127146577109,-7.7140245234763825,-10.25104531909244,-10.10965734880142,-4.926974090003114,13.037972815075364
2.192,-13.377209936015106,-13.425293967377456,-9.649238365559313,-7.723608803040179,-4.503277341720377,-10.444511397073711,-7.269146753638324,9.210156466411718
2.196,-8.928481199740077,-9.176572114472037,-5.691411109994988,-5.9252899272769355,1.9066814135002232,-9.50836461335598,-9.226882528238775,5.82992169248314
2.2,-3.265060829351114,-4.694482731914604,-0.989479411906359,-2.913651458319464,7.876617034080027,-8.043414542929668,-10.302290548114797,3.1178275646198017
2.204,1.9630322029727267,-0.9314913524685835,3.4281822278375103,0.11491677448248083,12.228301359582815,-6.81724408070113,-10.537430357410813,0.9745830143770036
2.208,5.164859256165869,1.3340943251798763,6.463173721022713,2.0039693486983197,14.138308519186012,-6.295589237445029,-10.39887892022739,-0.7921326435889569
2.212,5.510692431432062,1.8669821339310602,7.480509098385255,2.205108892781027,13.462438056018073,-6.516700004518043,-10.39470455309106,-2.198702635550717
2.216,3.2752529666322516,1.106115417361707,6.611770387005436,0.957248922382405,10.771879011033775,-7.202162331090676,-10.676917529855245,-2.966133496972361
2.22,-0.37139338652445986,-0.056346487061091466,4.649195929830739,-0.9910033426101563,7.0697544860989865,-8.035444359533813,-10.906657798862398,-2.645466135533752
2.224,-3.977795829082652,-0.745540398846515,2.5874450066924055,-2.901085295542316,3.3343756867095635,-8.902620313876241,-10.487242420947268,-0.9307556671078601
2.228,-6.478885484183365,-0.5710934458725205,1.0759554385182355,-4.464348612449385,0.12836250679004024,-9.94947716004026,-9.010374092671555,2.0403160456055502
2.232,-7.554419648300723,0.2065317207127464,0.11366571675057457,-5.849845037051182,-2.507776247697052,-11.418960079773115,-6.608383169056879,5.618187897819553
2.236,-7.543753772369655,0.9030809997976803,-0.8588299304334441,-7.385179124617025,-4.858552368032292,-13.380276922539906,-3.9682264228640634,8.884270301355627
2.24,-7.048216784263559,0.8938082557006055,-2.5405685294103932,-9.117139577246235,-7.187778499297053,-15.520179506235763,-1.9715152984999804,11.088095568500421
2.244,-6.493316136502926,0.07097274672207732,-5.278181903430323,-10.565304161067957,-9.464523274480712,-17.143916316299965,-1.175067256167722,12.031010630219725
2.248,-5.951979456606523,-1.0395971921952878,-8.799090655782948,-10.887776160098383,-11.34165529915117,-17.43685701445338,-1.4766953408546897,12.142715002770728
2.2520000000000002,-5.272035920026951,-1.5667373822801096,-12.303483092084434,-9.366746311321549,-12.372225044556785,-15.871401250624785,-2.1762797701971976,12.190295089331812
2.2560000000000002,-4.35052518333066,-0.8131385335258301,-14.8496064421048,-5.91277984199121,-12.301120165339341,-12.538542584746097,-2.409709903309931,12.781687542922896
2.2600000000000002,-3.312089300604839,1.316563498255789,-15.79127210976651,-1.2587309794417934,-11.226021167531883,-8.212367041928132,-1.6909223468142045,13.952246746101196
2.2640000000000002,-2.4472331633822932,4.242098162089121,-15.020506762737227,3.306673458884461,-9.520966337592426,-4.082704329337503,-0.20891439850890947,15.092725540718448
2.2680000000000002,-1.9612814313806552,7.038389346342683,-12.9063858309637,6.542983688217191,-7.57001690463261,-1.2538297286048419,1.3227559626237735,15.296434772977818
2.2720000000000002,-1.7226968629544217,8.985721230016281,-9.982934395433801,7.873743107812857,-5.476954937826235,-0.2403114938838371,2.1859480912243043,13.9326655088488
2.2760000000000002,-1.248881366222804,9.978343301975201,-6.621314206134116,7.640239971837559,-2.97280073100103,-0.7534730750204517,2.206231094495024,11.092867589128673
2.2800000000000002,0.0066961274096684065,10.526254131314317,-2.9090488868829425,6.836721942602935,0.3867186850955022,-1.8955893118820768,1.9533824900547643,7.62947507012484
2.2840000000000003,2.2367519663835083,11.359606284589063,1.2135432102153914,6.49150991820261,4.840699145929079,-2.6544691935216633,2.4303511694216695,4.746067766134956
2.2880000000000003,5.00568794648234,12.873854381671322,5.6611438418038915,7.051746985331135,10.076970571239599,-2.449781488007602,4.407484994703282,3.3573139122763678
2.2920000000000003,7.339004014133366,14.781346045413443,9.981200244843876,8.134156632496115,15.161773977316244,-1.4455805083601945,7.808375298144142,3.594163384711237
2.2960000000000003,8.159318994643229,16.194980836072716,13.36981881799079,8.767815673065968,18.818266851615675,-0.4555410843266827,11.539390532803282,4.732778428096253
2.3000000000000003,6.830484091294352,16.104000425834386,14.95103299375046,7.972453629247525,19.93932016443648,-0.4910391076119822,13.912088608834267,5.590969421107161
2.3040000000000003,3.5069916212751195,13.97916354063085,14.193052414657757,5.339225537241077,18.097717384742367,-2.1826302576819216,13.478703035297713,5.185567024031002
2.308,-0.9076551441918355,10.145600610074098,11.230559540841227,1.289525540188606,13.791855368842192,-5.392106164796132,9.84322445399215,3.280772635758808
2.312,-5.1669720898980245,5.703084320396897,6.908063582958903,-3.117275947845428,8.293443968318542,-9.232616809174829,3.9927309755357783,0.5137391963784239
2.316,-8.23310330033462,2.016858472441072,2.48376978684729,-6.707078704364164,3.143932810572551,-12.475253330093324,-2.064624480029636,-1.9680066953814048
2.32,-9.665195367774515,0.06251372991067683,-0.8708987711203235,-8.733816825054134,-0.47035071633160896,-14.121795188654119,-6.184694268878388,-3.138152468869521
2.324,-9.650408588962932,-0.007602114315261588,-2.5303825875842563,-9.13902356452678,-2.1657478561562584,-13.845634013835706,-7.038267246739451,-2.6285780619142542
2.328,-8.726579027372964,1.1253642340331567,-2.6359168408230857,-8.434641960262923,-2.43981202733346,-12.074752196096483,-4.669938446817127,-0.8918219522537356
2.332,-7.402293514341409,2.3476774916114778,-1.9736055822406797,-7.316406969600621,-2.3526487574877137,-9.713733031580887,-0.4069049647754355,1.077963234091726
2.336,-5.906449230697206,2.6959179649534235,-1.5681949647025135,-6.243525170826274,-2.959101443117106,-7.68398640873238,3.8279609428162757,2.3022920663910327
2.34,-4.192733265015477,1.805046101465166,-2.1844209310488623,-5.2303220117332785,-4.759807057086562,-6.523445103995755,6.417807477796487,2.320923741937577
2.344,-2.1428812337609315,0.00969623424538213,-3.9605867491341087,-3.9400087997448736,-7.429508030160264,-6.262575002381709,6.719420467917303,1.3775180338972177
2.348,0.20140993571448007,-1.9102987432433451,-6.325558063386893,-1.9859553829782044,-9.944483365674728,-6.570192280140873,5.208125223794809,0.22819850231189776
2.352,2.546226988058038,-3.1663489733905976,-8.233501046446065,0.7488671544772387,-11.052258077599504,-7.03596437922522,3.0833163528450314,-0.30119489026230895
2.356,4.4555836413009615,-3.3297782625334094,-8.607281490788466,3.964114388948474,-9.854700467220312,-7.401962127331672,1.5996264915031588,0.26257266643165167
2.36,5.5845384960717865,-2.4562704268901143,-6.795731744707098,7.04087445487221,-6.223444895980947,-7.611566625786509,1.486833839878841,1.8630975761755053
2.364,5.860047478371143,-0.9621894197637744,-2.8689997718543623,9.297029940398488,-0.8715835178117572,-7.704700724272357,2.715688564065431,4.023880948175929
2.368,5.489469728897518,0.6268644299228185,2.360278739494163,10.249465405853812,4.935989979869362,-7.673853164526804,4.662869170810723,6.131531692270755
2.372,4.799432831354295,1.9100693155483555,7.610071752359772,9.75141517908196,9.885277976888347,-7.416140217708858,6.5165892167729,7.708878913126682
2.376,4.012005458601777,2.7104739876765507,11.58132971242054,7.961459879855397,13.078583762261417,-6.815951322765727,7.675655259794212,8.539108632981538
2.38,3.0969214286020588,3.026675981489859,13.404376206830705,5.199065030951033,14.254002104797792,-5.883315906673488,7.93929925882594,8.612959233323522
2.384,1.8269985173358236,2.9451093441294347,12.93061621847039,1.816815428260611,13.71564826932746,-4.810632988056,7.4639480401298215,8.019759536187848
2.388,-0.010989092829504443,2.5764636468874187,10.744648165385968,-1.8471531850210567,12.049875757838208,-3.8863419669116865,6.569342886023833,6.884970689908869
2.392,-2.37486445759464,2.0494411074695336,7.894668723764539,-5.429250638793178,9.814046504165049,-3.3093525949868763,5.535433462154401,5.399480026931542
2.396,-4.868475183997589,1.5282583969230359,5.45397679485842,-8.494380501671685,7.363210747479229,-3.0299390714703804,4.507292759841221,3.894536583703257
2.4,-6.872271402955903,1.1879778639970482,4.093862530937258,-10.577899096613578,4.866991652356035,-2.743154944207845,3.5213080891775235,2.8486901198448322
2.404,-7.842290307541248,1.130618467725185,3.854090514503639,-11.328232065281327,2.4472458359585403,-2.0686622686262126,2.576825089939234,2.745371312442103
2.408,-7.628932474639441,1.2784991177964002,4.193102312398764,-10.693056424237739,0.28907999701857534,-0.820557745445285,1.6705866673281662,3.8237651536444446
2.412,-6.61601155783876,1.3502730920970407,4.2963567968579355,-9.018158049843805,-1.3581874458645302,0.8195052290766398,0.779267740018895,5.881226049005136
2.416,-5.590164942012848,0.9627002450722557,3.4824267368687742,-6.974003902350205,-2.312320470180566,2.3436155196111486,-0.1889287082123019,8.257053690188513
2.42,-5.37295731906886,-0.163078670942582,1.519950104350528,-5.2874482083634575,-2.617118661632844,3.177941864483273,-1.4096710435559316,10.058393616523517
2.424,-6.37456639004472,-1.9723698928646627,-1.2678518536209822,-4.379268222372957,-2.5722421751926277,3.037860638828306,-3.053627612833111,10.559191197493647
2.428,-8.32616784249069,-3.9963165239838645,-4.170701357112648,-4.1219584164274465,-2.610954660658649,2.1425632613700145,-5.1554188176077105,9.532369414245068
2.432,-10.344691244307,-5.497278075922509,-6.431617191650162,-3.8662711613378633,-3.062957415153221,1.147415253431518,-7.519957042473152,7.329553796667369
2.436,-11.319419043859625,-5.7964814695552604,-7.580396471474501,-2.765064993040369,-3.937811126232191,0.8192574626461919,-9.734561264695685,4.667711766316643
2.44,-10.449588766792317,-4.6220029607228525,-7.5981740960363595,-0.2631537246905964,-4.870434429442071,1.619083478004086,-11.309829780415384,2.230430745614285
2.444,-7.662670566256338,-2.2846510929251735,-6.84891701701099,3.4970599199727985,-5.274821150919934,3.4314713104388375,-11.886974953929212,0.3270139141754953
2.448,-3.6974370973020996,0.431509972760864,-5.828109448937425,7.5925505884556515,-4.634432145448045,5.595573997683914,-11.385996098493024,-1.1838615489155018
2.452,0.1990721129557187,2.626419119135562,-4.879464664778993,10.637454040919351,-2.7788768928884338,7.2325567273892375,-10.01231160863881,-2.6743099718066787
2.456,2.8139836905316997,3.6989170971899057,-4.040583018079474,11.377892639863717,-0.0018303688826790676,7.685474875728005,-8.129519212570585,-4.378381519414006
2.46,3.485947709316406,3.6031103499659594,-3.0846592434055538,9.290374819103022,3.0418189129707116,6.847197565264196,-6.083052402241492,-6.1269722464517145
2.464,2.3497185352997576,2.8131000267895843,-1.7247876205398143,4.878454509928588,5.597320385821263,5.2071046683074655,-4.08781945716828,-7.375819723891254
2.468,0.1959731950199739,2.0213636355364315,0.1496256274371035,-0.5011308310558888,7.095220062023486,3.586975358535483,-2.2402778386717728,-7.522508351316901
2.472,-1.9539351120059791,1.7620701936259593,2.3537279569661678,-5.204424343805613,7.342616511656388,2.7161288111035446,-0.6187439808800264,-6.315734647858335
2.476,-3.325548346260348,2.164801890683407,4.46917073197892,-7.992827095631128,6.549902837671993,2.8718688706933335,0.6292681868385444,-4.089319412451687
2.48,-3.673254167633104,2.96040091935447,6.0443084090835555,-8.513185843663905,5.199735540839697,3.7724921600085963,1.3065471832924231,-1.6575482144726266
2.484,-3.2670042595832456,3.694771723353597,6.798192856806054,-7.351673307372494,3.82618331892661,4.750671526529686,1.2950474359390682,0.0820291207774062
2.488,-2.63882128071225,3.992177548306927,6.716759871983527,-5.661216397450289,2.803277311353895,5.116646282683178,0.699258057464931,0.6064886144654338
2.492,-2.2464087245879227,3.7189887964827903,6.0102403993000735,-4.552254847105587,2.2289375776352927,4.529189872870347,-0.11536103706112044,0.016877906777608587
2.496,-2.261624380118292,2.9632962816601776,4.959702687351978,-4.571515873133876,1.923363500577011,3.1706538613016164,-0.663148152925487,-1.079160523582459
2.5,-2.557541239521697,1.8957205891229023,3.7671456267248686,-5.504717881992974,1.5395475321412277,1.6560451994421328,-0.6020275895675695,-1.9682473590205518
2.504,-2.865801654053371,0.6469078513491695,2.503976142670126,-6.576103141604335,0.7447898068523955,0.7238991373310455,0.03284186296491498,-2.2709661855487866
2.508,-2.9673163231531134,-0.697409682401485,1.170930983902167,-6.8993765240184075,-0.5930965594030795,0.8644759994608648,0.792158897952504,-2.1408460322797964
2.512,-2.7891667432680833,-1.993294359928882,-0.18707754529714293,-5.919514582926922,-2.289664524678642,2.0938219043925983,1.040307927918775,-2.1068601062384005
2.516,-2.396434360092485,-2.959589415577284,-1.426402253698825,-3.6515826878865028,-3.8761404447841414,3.9656373683726542,0.3222665311827768,-2.6855980657887812
2.52,-1.8999583579637829,-3.2259434904167392,-2.357518377203178,-0.6160443283245058,-4.7768321807775465,5.810313998204947,-1.3396871354193536,-4.005918167315031
2.524,-1.3480774933173052,-2.511131246524542,-2.858407151811207,2.4700310704552066,-4.5543358688419175,7.083697978267537,-3.386801839687678,-5.68052338265079
2.528,-0.7103625737639732,-0.8583376369954294,-2.980151195644112,5.031835025020428,-3.1292761258597466,7.6358771792783955,-4.970687264418984,-7.006510651376175
2.532,0.06721679902966571,1.2565432920298463,-2.9461907334896296,6.831402934828702,-0.849456919667432,7.73992911673713,-5.381526862519422,-7.373842904033154
2.536,0.9919033409921667,3.061830753792492,-3.022395013448431,7.9445771728228465,1.6420223001882732,7.879694750629824,-4.407952402838191,-6.619210768409175
2.54,1.97874316345019,3.8322870802821853,-3.3407861420336076,8.562822751641988,3.67437927226149,8.409179860168479,-2.428292781711889,-5.1283408521087495
2.544,2.88092502974564,3.2758471337239143,-3.781722250381449,8.785726797387952,4.834907452853599,9.279557256656517,-0.17485134084881793,-3.622970760610997
2.548,3.544709751570963,1.7117618228367064,-4.022624359197835,8.518854373206068,5.108658001521576,9.996383275771677,1.6662573208591311,-2.779506046585084
2.552,3.8432769888852363,-0.08601328490283322,-3.7473287826475143,7.532328041507753,4.799109648197941,9.845257158669483,2.7647464028291324,-2.9131515570823012
2.556,3.670688280494005,-1.3133751008302852,-2.8929758128440426,5.6364418205396305,4.28360919501074,8.27885306367034,3.2010405898647605,-3.8841972934403657
2.56,2.9286394227322035,-1.5821184394112606,-1.7653846705679825,2.866032233308033,3.760987108482709,5.264951777714032,3.2665344129877667,-5.250049953945108
2.564,1.5643789778353039,-1.1081304510115615,-0.9185014026082854,-0.42501776353105924,3.157733969647552,1.4131974835404435,3.1794386767378455,-6.525578007262993
2.568,-0.3402737607370909,-0.5288182539422905,-0.8503520145045513,-3.627479393226622,2.243953208290236,-2.204109515523669,2.9247870057431555,-7.382911195477391
2.572,-2.475175381762938,-0.45650987039653046,-1.6755549418253395,-6.070852168428928,0.8837707006082383,-4.463590073413798,2.32908914366476,-7.699566315161064
2.576,-4.282100370914577,-1.0434747453340378,-2.969849996448602,-7.248507379639705,-0.7403461313560911,-4.641132518609993,1.3113737443093214,-7.4631420753394195
2.58,-5.079011765510131,-1.847085350889074,-3.9173282838944488,-6.981173798031705,-2.107827632249837,-2.6934377981838225,0.10265041759475935,-6.656766971004345
2.584,-4.314664265428064,-2.0899250373031464,-3.7082005709005443,-5.457947577990353,-2.5865477106161734,0.754520050168594,-0.7567507551195831,-5.241957079386793
2.588,-1.8562427406736788,-1.1833996656098407,-2.0052887518857005,-3.160337156124797,-1.8156366676553262,4.677527246642967,-0.6992576228658436,-3.2688033684116817
2.592,1.8513523528181395,0.813428268439111,0.7745868016584154,-0.7060516367812397,-0.018134486995677435,8.02873152440543,0.4639686780633383,-1.0367969931617154
2.596,5.866865734060639,3.0864384503943256,3.534604073869332,1.320126768154978,1.9589838227717564,10.066732463667904,2.275200265585454,0.8400574597135346
2.6,9.074219320517841,4.406354389907165,4.92413237992173,2.4994540553748266,2.941990292256037,10.521201727613516,3.7094174774281328,1.5535278348183965
2.604,10.626476749080894,3.7630265878797218,3.94502125022791,2.6686138336285694,1.9663470637356113,9.580627801716219,3.633775967895872,0.407235210737781
2.608,10.296756015170331,0.9373098366115755,0.44678644742316465,1.9477175647907643,-1.2100703332794183,7.745136159332105,1.4320471809410265,-2.8230737255930762
2.612,8.569062160443991,-3.2993483796578857,-4.722512813809317,0.7094015194509211,-5.875407888851441,5.640945064619245,-2.5526622565771504,-7.672894506772536
2.616,6.424079248985663,-7.472340443985104,-9.987963638177234,-0.5064071894355493,-10.545799338598044,3.863969072558575,-7.012529348958651,-13.03859529290412
2.62,4.9301331893314,-10.032491360792392,-13.629454960564999,-1.1368523482678938,-13.506901480085162,2.858688378968054,-10.160727185407723,-17.512626668251414
2.624,4.817105321853887,-10.012011348622536,-14.428647979716288,-0.7844296213725102,-13.4878566278594,2.8098822303177258,-10.509407704547812,-19.88147570964611
2.628,6.222561513481196,-7.389074901520644,-12.117365282786523,0.6083458669668289,-10.1755832401318,3.56741747744627,-7.563051718735551,-19.57518993509302
2.632,8.697242131744588,-3.0168741911263623,-7.453310350522088,2.6700988272045834,-4.350979529125198,4.650137365848877,-2.0843246354706935,-16.874380285301413
2.636,11.440645889135567,1.8009626519419726,-1.9056149468112835,4.671340991135594,2.4006082569819682,5.365975840541978,4.199337489355912,-12.778678500555088
2.64,13.65045815262306,5.864015739456136,2.91948380207009,5.775765322946654,8.294306480462183,5.056484472812372,9.334161420366854,-8.579073700082063
2.644,14.81546361343294,8.500017975033643,5.879211878767364,5.389529638660861,12.01959247314744,3.40358193256543,12.003425845596212,-5.30795726893939
2.648,14.86117322538712,9.7059305094499,6.694674731387295,3.475786128420623,13.209459766452937,0.6620781095602979,12.114668688084748,-3.305023265766067
2.652,14.120480888243037,10.005263817680316,6.001706929228476,0.6626303085408836,12.51724011308579,-2.3315261133461718,10.825636898805897,-2.114931356572015
2.656,13.145179656434948,10.119978604500375,5.012133418740177,-1.965280203936345,11.251068815730605,-4.4279084680060805,9.96776858701196,-0.7895316575682045
2.66,12.455895397877384,10.616760164089328,4.9213087995419755,-3.336526540027535,10.717524449607026,-4.643257812193042,11.103653593210765,1.517632274763855
2.664,12.309254300640532,11.653670678976823,6.303250878092513,-2.939634328934517,11.552927733949446,-2.6649322052026037,14.628338657399581,4.9384368017204
2.668,12.56169060543266,12.890076740981385,8.75169795594934,-1.1774987148223772,13.335401027843318,0.8630321987070602,19.346412755380697,8.574506057627787
2.672,12.702935434889014,13.58791653632693,10.95514728543867,0.6995020073400156,14.687995827910527,4.456431215734483,22.784516864437137,10.693344993329447
2.676,12.056945198771018,12.874478002048818,11.214359428461876,1.1067234998081403,13.86868718536789,6.3160416926721155,22.178192257281808,9.42866152038232
2.68,10.09245314509576,10.097038801330882,8.220290621870618,-1.114070621904375,9.619600450299231,5.068657961672216,15.75457745648555,3.711829463754384
2.684,6.715925648071334,5.156602034947809,1.755134598851555,-6.045612064017405,1.896019490224262,0.4087307317035993,3.7459427983367277,-6.005096628070078
2.688,2.4311892366263237,-1.304430749616131,-7.019865092348709,-12.488815727362635,-7.877536443656254,-6.655596226803937,-11.368479429231229,-17.616786399098146
2.692,-1.7345645429011256,-7.967635292292925,-15.85466715548614,-18.343033775526692,-17.18353665931113,-14.093848549859104,-25.58926650000103,-27.951459832435376
2.696,-4.537976273115646,-13.178494109352187,-22.194404485161385,-21.432298066775274,-23.299996034828382,-19.58293808763483,-34.82788828646699,-33.873740713088864
2.7,-4.936540769210524,-15.453550796844638,-24.13270479497669,-20.388995170237195,-24.319035686036614,-21.378777746616834,-36.438267476825786,-33.43110512755493
2.704,-2.462382672336844,-13.976960021484729,-21.1218800283998,-15.190688031855188,-19.846472899939727,-18.958556967887034,-30.188117288610556,-26.551700243023788
2.708,2.595715479066712,-8.894786449248159,-14.127749467487092,-7.110023746216029,-11.079494940757968,-13.161954367474664,-18.232121006106354,-14.991137735834855
2.712,9.284895101194252,-1.2667448789713944,-5.162378080629651,1.8814291194989892,-0.23510757986673525,-5.784181388189609,-4.105810260809903,-1.5677835168271486
2.716,16.283166555383332,7.280535422388539,3.555527001626615,9.918365829585127,10.364505253921834,1.189225363687001,8.748547239435084,10.925868910053396
2.72,22.27145101749693,15.048917825572062,10.416886388203466,15.85058977588551,19.10439053654136,6.329552632694231,18.210712776855416,20.625669684171953
2.724,26.255770243322104,20.717210561281718,14.848450534291032,19.396384281099017,25.426239076050706,9.15626171959184,23.920797310570833,26.941583459190042
2.728,27.737678582451963,23.58482253913644,17.20401167789737,20.845130611136938,29.617504783148433,10.066417308340988,26.82829530444178,30.28938992815074
2.732,26.737084395374268,23.58814177365207,18.265410786981874,20.586581770101475,32.25805996476902,9.90511952467341,28.219576903401958,31.47551150137906
2.736,23.737150123816946,21.172183576704583,18.678667671240873,18.80749816495063,33.69245115287208,9.444977727099285,28.837680571153214,31.12799796736499
2.74,19.590031985728274,17.12050437057701,18.63991024472307,15.547223720098827,33.840044898736096,9.045806507165707,28.58704287718274,29.477103905017884
2.744,15.366942173130838,12.40015984273009,17.957806564839984,11.024760432753283,32.41692244066212,8.641764485544172,26.90212149787567,26.536599708297672
2.748,12.15012342310888,8.024868003569736,16.397238072394885,5.964664824444753,29.378099980899606,7.990992725860906,23.46734737251063,22.487534151528507
2.7520000000000002,10.762186291786293,4.88835787600442,14.035944653482147,1.6139335912239403,25.24628948666782,6.975173053078379,18.76657300365605,17.94496794645329
2.7560000000000002,11.496316316308366,3.5528318890178525,11.376193743602016,-0.6664273732949368,21.072505599501937,5.743467670428345,14.072484001779685,13.89692205704523
2.7600000000000002,13.949332459342486,4.043458871927669,9.122399378761202,-0.06483250402288832,17.998347986263298,4.614974991462077,10.852987027337804,11.309470982417224
2.7640000000000002,17.082109032356584,5.770671132182997,7.768994246725242,3.146525688674501,16.663100543883502,3.845241651278684,9.963364635516427,10.641307123374645
2.7680000000000002,19.553806193082664,7.6821756920005555,7.261591539999245,7.560182267821574,16.805342148408045,3.43857670597572,11.136313604860334,11.573448808127523
2.7720000000000002,20.220395527716164,8.633146870550263,6.957034717068609,11.162659125950995,17.311857459910925,3.1480118145645974,13.07854731712223,13.125757224524932
2.7760000000000002,18.59109328704062,7.83691734551212,5.93535141578559,12.222529825977745,16.718496072731796,2.67279167907418,14.129225423891057,14.119982172472191
2.7800000000000002,15.041905463841204,5.203411070091761,3.517298807782481,10.106672867038242,13.924875860568818,1.9155896562774615,13.11792250925555,13.752635459853991
2.7840000000000003,10.674013579378197,1.3987947546477244,-0.29602709071605204,5.594598469735956,8.76620300454033,1.1152757331601606,9.927932108901132,11.964700954767522
2.7880000000000003,6.853153676736156,-2.437279715616569,-4.733331255557232,0.5034708729522208,2.1330165732588284,0.7268165385703469,5.460863711130969,9.402695302022494
2.7920000000000003,4.653136687938513,-5.165708600253993,-8.566835944547165,-3.177530796928977,-4.4044713778075675,1.1180443310904593,1.0775003858848322,7.012441464419226
2.7960000000000003,4.459724608153238,-6.093979270757927,-10.678868735294827,-4.202850402426066,-9.270571489617396,2.2730731682013356,-2.1264348753870763,5.502359769953728
2.8000000000000003,5.912313237794933,-5.189068072474356,-10.58278932010694,-2.5769513917268796,-11.512771395438449,3.7030656766305583,-3.797104403281537,4.974302264153721
2.8040000000000003,8.1835303047028,-2.9715294745064966,-8.619300392422247,0.5775102272195909,-11.08574641294831,4.65961837068744,-4.307838023561999,4.932576492349199
2.8080000000000003,10.43560062447682,-0.18944511084282567,-5.738215031983827,3.6791576688801797,-8.701863302494075,4.539291371714171,-4.33785662751643,4.646751271942776
2.8120000000000003,12.203387991314685,2.5353401454690356,-2.98380758556641,5.494727955761618,-5.376988852822706,3.2484668626448183,-4.352646486881895,3.6388206905576226
2.816,13.518103037410128,4.910648650591611,-0.965673800929153,5.679502254472254,-1.93747213106235,1.3043998125754115,-4.324009586916418,2.0218057544398107
2.82,14.728705866723203,6.944916173752745,0.3863238398921567,4.801241645426444,1.2437410774700766,-0.4118780854960278,-3.8463701690520793,0.47950775322033223
2.824,16.141504525542587,8.749080171213336,1.6577601485125797,3.890825675459382,4.1871623798281234,-1.1280748035092074,-2.5404003663402364,-0.11206636366432576
2.828,17.703815369819722,10.324305605084874,3.4794884645846196,3.8126627721526347,7.010302916362662,-0.6146083800895212,-0.4656819817939777,0.7844771492814289
2.832,18.932257449943563,11.48781525548543,6.0368467854550545,4.81636834762071,9.619946116265055,0.6694194596384477,1.7454814581617484,2.9842580292483945
2.836,19.126810029650642,11.961304108346667,8.841641397579224,6.482093205217552,11.5942842412868,1.806791018218064,3.1194317385718477,5.574594286492811
2.84,17.74798006684614,11.548431214377615,10.910915317181889,8.032692901613927,12.32388203813116,1.9056010881449765,2.8024463082279,7.30234269714083
2.844,14.747371210884069,10.273197212604543,11.25860684474327,8.79109205775569,11.329788483204709,0.5825181641954487,0.4957326898197607,7.168369203664156
2.848,10.683928013800596,8.38689321705408,9.430766130557913,8.521416757962129,8.561850007011913,-1.808683838369916,-3.3738109584570566,4.92532817699805
2.852,6.538485815614422,6.231742374178339,5.7775475577448105,7.4707102686695634,4.485763459072587,-4.335906858324051,-7.828423518426689,1.2128093901551438
2.856,3.3142787677802517,4.047338567339352,1.290140689623513,6.125693424847441,-0.10992558672592168,-5.9405577321849705,-11.75521366430985,-2.729185845565553
2.86,1.6229970696940654,1.851676480527317,-2.9020374191993596,4.868732838006963,-4.487130291740186,-5.955695735274048,-14.34557394962303,-5.622767469705195
2.864,1.4493145271503636,-0.5372477226372894,-6.09607780730164,3.7416238711325605,-8.30403752928271,-4.427503519554875,-15.366950180357662,-6.706922529593612
2.868,2.208351883190744,-3.336084923269027,-8.303190406952808,2.4595103167225716,-11.712581446475383,-2.0922138590030954,-15.151623441811807,-5.998326495218862
2.872,3.0650572617271337,-6.565644808145521,-10.082543174921852,0.6608775063082248,-15.129815737903641,-0.034716320524921684,-14.35232439668448,-4.169359897067807
2.876,3.328984181484202,-9.907144451621889,-12.032726870571423,-1.7895921259719216,-18.807053949743704,0.801899755827435,-13.613326432505119,-2.1524230049490143
2.88,2.726065165123032,-12.734271021082805,-14.248115745689233,-4.6277253257417215,-22.43659287771004,0.024104134681238065,-13.299942505956324,-0.6849066641505033
2.884,1.4410240096375446,-14.310279208714064,-16.086098016700134,-7.248983857684834,-25.051348241674646,-2.068016116882063,-13.382656909330763,-0.03972943623307401
2.888,-0.07541433932169639,-14.089846031253728,-16.43082402207483,-8.987643356224453,-25.344345897641915,-4.639671302212264,-13.507724973714858,-0.05806329239112529
2.892,-1.3928737510346991,-11.970822077934827,-14.316902011053003,-9.449918516626667,-22.27997442843764,-6.703960890745293,-13.196713679073355,-0.39742678625520966
2.896,-2.293521501124019,-8.369646526681322,-9.564658378977583,-8.704326420388725,-15.699746513187733,-7.530188093563538,-12.081120275737021,-0.809543798698769
2.9,-2.7847991658377396,-4.0936726318667525,-3.0495411443034754,-7.233639350589328,-6.60232234895625,-6.92484888445847,-10.076795874280378,-1.2793817361502988
2.904,-2.9501885071491643,-0.05083156575540215,3.5900372724164527,-5.670040657475965,3.0951731314816016,-5.277805155484202,-7.43926476781462,-1.9652859424006692
2.908,-2.7617893802411118,3.062028371833094,8.655148335209105,-4.466012514751583,11.224100596935841,-3.357103502589098,-4.687189975609954,-3.018831444691159
2.912,-2.0161534589782377,4.959517512034154,11.130394236850293,-3.687806841866177,16.169356716407037,-1.9721949847753422,-2.415801126251381,-4.436092811592971
2.916,-0.4781182906842787,5.763224569036083,11.056404541348797,-3.057754488185765,17.420929652128507,-1.6496874224378644,-1.0899945333733285,-6.051410192446156
2.92,1.8460103761356095,5.813465241723748,9.343090593223906,-2.217336763776302,15.61185719880848,-2.46351201842117,-0.8957201530322436,-7.6753709176584834
2.924,4.501971522428448,5.414009634852505,7.167909966697607,-1.047520555338906,12.059939181551158,-4.062211596316274,-1.7048928498743408,-9.260406645204512
2.928,6.610672616467696,4.63225308585163,5.308460258263722,0.13453187997617988,8.054852102968539,-5.867728873637361,-3.1751312924936883,-10.958191708432196
2.932,7.178212432002738,3.27581931091197,3.8033692735577915,0.635060036491609,4.278459268714414,-7.348962573204744,-4.920441494309216,-13.003571392815275
2.936,5.586755677619749,1.0727743945258226,2.1246399930204234,-0.2943852025692877,0.654271600464881,-8.214104036017716,-6.651457252972023,-15.465383576324484
2.94,1.9749316667146104,-2.069943270155818,-0.3148452485240796,-3.05030852797438,-3.3557316036086604,-8.451571535086487,-8.236033682168454,-18.040558838350762
2.944,-2.6993715747524902,-5.862446398468933,-3.6493961835501523,-7.385197322773934,-8.210211433006066,-8.222829488389152,-9.6525217467929,-20.047509245878246
2.948,-7.020099198158164,-9.627397410428102,-7.373830735010756,-12.399466354075116,-13.838517318434924,-7.681250424403288,-10.8759778055487,-20.66289842092192
2.952,-9.745194730002936,-12.528280044802386,-10.600427185557464,-16.84340740555183,-19.538739026534017,-6.8457556980099525,-11.798854745864219,-19.317470249674216
2.956,-10.375125204042888,-13.924047916901031,-12.573028534310765,-19.5855848253766,-24.26224387189052,-5.605455097206004,-12.237314431622963,-16.04070557396085
2.96,-9.354125508043808,-13.670188361312967,-13.101024710504475,-20.033186766274753,-27.101369725350253,-3.8495200647637375,-12.03519326954381,-11.572119312414543
2.964,-7.76907214391872,-12.18706968860738,-12.626654161053978,-18.314440708508755,-27.67722779267973,-1.6429720466244362,-11.204172901482934,-7.162940395692885
2.968,-6.684738454935882,-10.23807423597134,-11.88099163319282,-15.144180242266316,-26.21580592871169,0.6864843865371313,-9.990519277751105,-4.132336035031358
2.972,-6.5068887326297045,-8.531608097912226,-11.353148127871577,-11.466176923841886,-23.29993436166984,2.6252711229226406,-8.804220284457642,-3.3708091176771404
2.976,-6.7466618103090354,-7.370959492488282,-10.937971465695512,-8.076061714788352,-19.495097127444353,3.69133297766507,-8.047050771005843,-5.021842945939397
2.98,-6.318603216458598,-6.534525909212107,-9.988803840745504,-5.38723056696017,-15.090051982796979,3.6793872418958244,-7.917677648850599,-8.465901038743596
2.984,-4.238491582805068,-5.465969161756107,-7.7608112563359555,-3.4280826871548697,-10.108925853420544,2.787898267818491,-8.29910788136658,-12.586372279494753
2.988,-0.3249343718588307,-3.6805731933746983,-3.9923770826107443,-2.0240958524632333,-4.5759806344889284,1.5488490978372056,-8.80531379169588,-16.184228219749684
2.992,4.525844998841137,-1.1444338489062034,0.7502205146475944,-1.0160986444236642,1.1823902126087091,0.5713430470293588,-8.97204313778741,-18.36253538557719
2.996,8.671708109567362,1.5906781405449237,5.195429822359927,-0.3812162209892449,6.424027531673232,0.23745275167459567,-8.502857836050907,-18.7408686584306
3.0,10.512621943842532,3.5888812776396435,7.91618076298937,-0.19933084231797693,10.175680774767159,0.5156680473271535,-7.445607382262324,-17.45991549810742
3.004,9.30894190355167,3.969134101566169,8.018492943484546,-0.5204492033185488,11.633663498912824,0.9999226349868877,-6.2006671291468365,-15.02694349428964
3.008,5.580877466337654,2.349673601098175,5.594949279855939,-1.2421627471022703,10.558077340558725,1.1543709999276643,-5.340306307409605,-12.083371981911796
