Timestamp,O1,Oz,O2,PO3,PO4,TP7,TP8,Fz
0.0,1.3642420526593924e-12,4.547473508864641e-13,-2.2737367544323206e-12,1.1368683772161603e-12,-1.0231815394945443e-12,2.1600499167107046e-12,-4.661160346586257e-12,-1.3642420526593924e-12
0.004,-1.2047864284933212,5.682512903538907,5.942233660622833,4.095802314392813,6.141946171459551,-14.14939888542358,-6.163637093780039,-19.064253090774173
0.008,-1.1586819084440663,10.107292281185721,10.226048243278,7.638537160473845,10.977909169126406,-24.89515483533603,-11.450145328568055,-34.38315172491832
0.012,0.654256630249904,12.61709129948565,11.948224793008308,10.234055131466334,13.579874627083882,-30.213270162543495,-15.302947837779584,-43.66261935846319
0.016,3.651869545393538,13.395823811507569,11.286163220855599,11.699101451148579,13.637495347019637,-30.19239338460227,-17.66145350461926,-46.80514270763604
0.02,6.359866254940755,13.223115598873164,9.24196518027128,11.993186372230753,11.48758281623401,-26.79255713146017,-18.90921926910761,-45.61875564036461
0.024,7.0963536634743605,12.9006865928028,6.977635677807996,11.102360886644135,7.916986850020635,-22.785536240971396,-19.62875178366363,-42.686533555528285
0.028,4.82742302076889,12.751735749249463,5.189925533124551,9.011630650836537,3.8540618953949206,-20.434212854386487,-20.2805221791628,-40.044614735959726
0.032,-0.2566385487650109,12.487443363938667,3.8830679771215273,5.807196216922421,0.06770094489445455,-20.582174573290672,-20.984269304061627,-38.37532624798109
0.036000000000000004,-6.742059380630508,11.505512111836367,2.624019464349999,1.8393899993675973,-3.0217945549197225,-22.55993982651546,-21.507139849049054,-37.07073656181353
0.04,-12.58305121148095,9.40670582863305,1.0471405412176296,-2.2056497858904436,-5.374053307852222,-24.85286768148478,-21.45644096732815,-35.00756626215957
0.044,-16.020153145058202,6.345560863728792,-0.806514419204575,-5.4699954583465455,-7.24536163907311,-26.083365409683324,-20.565395481476344,-31.482224218973215
0.048,-16.36220674735165,3.0023791042036123,-2.5290350606578045,-7.275641156040194,-9.019271196479963,-25.754169755847897,-18.909468545258903,-26.742285376700465
0.052000000000000005,-14.250880584532297,0.2051883030497379,-3.6995898074151228,-7.478051665475391,-11.012682221549284,-24.401614929022116,-16.941657583704853,-21.86326674673967
0.056,-11.260984058419524,-1.5248855089184303,-4.245973763038307,-6.571152909647537,-13.306405513920225,-23.163505016379872,-15.328446074728618,-18.121092154768803
0.06,-9.03829276741061,-2.192053238599698,-4.513426554736725,-5.426487253218113,-15.639583938655846,-23.06214149943537,-14.660145654391556,-16.283968580900023
0.064,-8.46356980896985,-2.2229242176779564,-5.009054116352388,-4.82187722147512,-17.46017583128352,-24.420595172409094,-15.196288476882785,-16.244212011670925
0.068,-9.271027179065982,-2.1174136132144667,-5.981920837524314,-5.016938999866738,-18.115097032116893,-26.714518127324823,-16.761912129907955,-17.171921231959004
0.07200000000000001,-10.31563506958014,-2.1137881446115045,-7.156297894919675,-5.641957892612254,-17.128972636463374,-28.907308329136356,-18.842718023116788,-18.064814078714164
0.076,-10.322965665264547,-2.093478584142588,-7.831637552203347,-5.985299777726311,-14.460610763008305,-30.036281819681903,-20.82024250854232,-18.34651242727375
0.08,-8.676800886182264,-1.7459277602180236,-7.296255143839346,-5.4950795774139465,-10.601632262271835,-29.704007270963643,-22.221807077714118,-18.163768608724126
0.084,-5.796202667831096,-0.8672500971558463,-5.310440668637682,-4.1870285355958,-6.473506082724072,-28.208255928779465,-22.872333700051286,-18.22699230816653
0.088,-2.8857964040139166,0.45299746824775866,-2.3136188096753756,-2.6804934862031473,-3.1179864229971486,-26.282824825678517,-22.88362026388529,-19.32866378896091
0.092,-1.2196587634302034,1.892241466227972,0.7938629391420022,-1.8235522574336755,-1.301232029187588,-24.65054835126466,-22.52168824861269,-21.84419144191571
0.096,-1.3883179160974635,3.1481385172056946,3.1703987225891694,-2.139150279689602,-1.207409474746271,-23.66790471010239,-22.039568116051385,-25.49297084626903
0.1,-2.963649702312239,4.1812250346753785,4.511769802545587,-3.457844913697272,-2.380963347278623,-23.250360664980235,-21.584228086917506,-29.473801428851743
0.10400000000000001,-4.788575466208414,5.227430821962287,5.157088323947789,-4.999472040714522,-3.9707115381912104,-23.056160128014824,-21.193469774257153,-32.82491388871614
0.108,-5.705741972546974,6.565063421461474,5.764480236569142,-5.865486006597422,-5.158330501757433,-22.786157623529107,-20.864118252141907,-34.81929674181589
0.112,-5.276342998752909,8.202349487350745,6.777544858624935,-5.637487844023099,-5.558026500676533,-22.401755811631745,-20.63851970932643,-35.22185484437534
0.116,-4.0635891507644715,9.715567785521102,8.039288810259308,-4.703478840944541,-5.387381318790659,-22.135799989250017,-20.639682494878343,-34.32579621729951
0.12,-3.3060578210384506,10.384611388323833,8.811361802517439,-4.09857553821044,-5.327896265597246,-22.314030995256303,-21.04431213225658,-32.79998351430271
0.124,-4.170228016059895,9.555952500403947,8.168265504784756,-4.9531016059591195,-6.176386799600891,-23.09566832164711,-22.001833042525675,-31.4112455504208
0.128,-7.026464019538423,7.024684399973495,5.535151482720295,-7.8649983273895145,-8.45185252667639,-24.30409672178905,-23.541974831316224,-30.730674631249656
0.132,-11.185380581752412,3.1898384451483253,1.0488715615996398,-12.561764032587917,-12.148708621155492,-25.472801621687267,-25.522393979742674,-30.927949631009426
0.136,-15.258269101979295,-1.1219840282224993,-4.456304740607379,-18.0331249207635,-16.740122051737956,-26.081783907432055,-27.63373466375066,-31.70456027004076
0.14,-17.915230195251354,-5.0422591424242285,-9.792714087364914,-23.027950690775242,-21.38860511398542,-25.841890731307558,-29.458536581325916,-32.39142440573289
0.14400000000000002,-18.577332548714082,-8.032729868751943,-13.903896441473705,-26.611845851863052,-25.25623621491252,-24.82980411554388,-30.560867843556935,-32.16778264934078
0.148,-17.66809937458271,-10.03361061992831,-16.220281241004017,-28.469374700756532,-27.757036679555256,-23.401170824521046,-30.592112825316917,-30.350516563191718
0.152,-16.288872405807865,-11.313855057062682,-16.72318392297774,-28.816427522464608,-28.64957165053559,-21.952030785305055,-29.39484717727487,-26.685600659013573
0.156,-15.523087093100742,-12.154618012523798,-15.75708456401361,-28.039973042518454,-27.978984318410994,-20.683022885048786,-27.083484481328014,-21.535898716108704
0.16,-15.816625172952286,-12.597448454841413,-13.755739516819403,-26.347583156544317,-25.94773116159618,-19.51964813541258,-24.068682422342647,-15.86547229262328
0.164,-16.791661134554772,-12.447112006433656,-11.08315470614167,-23.674404595557974,-22.832177080897168,-18.227267306847352,-20.99595453256171,-10.973775056005252
0.168,-17.560752783880787,-11.496908266897492,-8.029880823335816,-19.872169606511648,-18.96257973550763,-16.6483239546277,-18.584348571312887,-8.063174525531963
0.17200000000000001,-17.321553824168177,-9.79833876930428,-4.887018750707227,-15.019661002990233,-14.743036070152698,-14.917458406430796,-17.416226092265333,-7.8298324886784485
0.176,-15.862046187832163,-7.771759319854141,-1.990019638034255,-9.619124875093632,-10.654303049651048,-13.510215379070246,-17.7632003866147,-10.270897843887042
0.18,-13.649449185954893,-6.036286011457662,0.3439033722737008,-4.499343629840496,-7.175408228215758,-13.055284747308292,-19.50268367721253,-14.760697360075483
0.184,-11.475001950937326,-5.072766920929951,1.919112673115535,-0.4857599059558879,-4.6742793459234235,-13.980331737716483,-22.167221709883165,-20.314974720841633
0.188,-9.921675192496537,-4.935943572099063,2.727769619333685,1.9473356553002077,-3.321472451504178,-16.20478599390708,-25.117071010139057,-25.916449879374
0.192,-9.019260904697376,-5.208252155918785,2.920590568060959,2.83140571284423,-3.0736516980774695,-19.081330598661907,-27.77246377665449,-30.76726832980455
0.196,-8.297728601873416,-5.2368986585874495,2.6984377888860536,2.586540730920774,-3.7380242674541933,-21.637762338672815,-29.78977180003426,-34.38553534155267
0.2,-7.189378984749169,-4.515355892242724,2.1974108925949167,1.7247390144985957,-5.076625650069502,-23.002993694054,-31.111606814325,-36.553212256038705
0.20400000000000001,-5.52727237564028,-3.021163129329125,1.4066716487155304,0.5476117669245468,-6.925874810012999,-22.78710859469186,-31.893343158685298,-37.20211440351784
0.20800000000000002,-3.7720025935707326,-1.2840277266220141,0.18849412399896437,-0.9485986151709085,-9.241016569090505,-21.208030022743742,-32.349434151850005,-36.332425101119156
0.212,-2.7942044303219973,-0.12502537019850024,-1.6107995784520313,-2.9065462691653465,-12.043587155954981,-18.92006058180357,-32.61929223538846,-34.036140015838896
0.216,-3.3361198216188086,-0.21543320915469621,-4.030994972357973,-5.31230724968475,-15.308359596036553,-16.657788231484346,-32.706198240128174,-30.580921968755547
0.22,-5.482956495330711,-1.7001336704167898,-6.925991818773753,-7.795619101204352,-18.86866437737507,-14.901144558142732,-32.52433341604228,-26.47004943474269
0.224,-8.500560181430046,-4.111836767905686,-9.99599996257814,-9.701498882993405,-22.42439749850905,-13.719567789319399,-31.993319253627305,-22.37078353057177
0.228,-11.196665226892492,-6.624960241971223,-12.893646399067677,-10.426597357064452,-25.646963742306866,-12.880705991900186,-31.119192778752677,-18.921698854095098
0.232,-12.582145686059448,-8.477181954028993,-15.319415123657791,-9.799743551964752,-28.294488846960007,-12.112494817203924,-30.00356813216706,-16.503895709052813
0.23600000000000002,-12.446955597343617,-9.338002549330781,-17.078556356762874,-8.276364301713897,-30.271141589992965,-11.319433052522527,-28.784114654306336,-15.088370388105886
0.24,-11.48999434222344,-9.42154953809063,-18.088805071461138,-6.796231929539431,-31.58529913669463,-10.623010508119705,-27.559977019805956,-14.271695638426536
0.244,-10.900165682724719,-9.29389897240128,-18.362835679367777,-6.348493195936612,-32.22454913377521,-10.218952987050216,-26.34754338518917,-13.495273953169999
0.248,-11.630226443131278,-9.507642767353332,-18.000293998667985,-7.482148239254002,-32.04481527040235,-10.170103644348956,-25.104035824454286,-12.336471983657248
0.252,-13.779892845627046,-10.265744375330428,-17.184261094462727,-10.029467364881725,-30.770335531300816,-10.282531454175796,-23.79062206009644,-10.713383619104206
0.256,-16.478549351038964,-11.310206560448137,-16.163540873633337,-13.19521351228832,-28.137326541057064,-10.166982015362692,-22.425281819224097,-8.90052578743348
0.26,-18.33539488626991,-12.058711156799063,-15.164776745981726,-15.938244236097944,-24.09540361916561,-9.471291174142152,-21.070019370814975,-7.369862405768117
0.264,-18.17580439872927,-11.88771539715026,-14.26866555075037,-17.41772542733736,-18.95112722091858,-8.122699078373671,-19.77171136896527,-6.54312568270484
0.268,-15.650197813266914,-10.413781653320484,-13.329997402680988,-17.274094956352428,-13.362860296499207,-6.40543934202833,-18.49756752991243,-6.5718780273230095
0.272,-11.378771545513132,-7.648937250862673,-12.030853898916348,-15.637248453463485,-8.181949160512545,-4.8019291337100185,-17.13126401310751,-7.25607546217725
0.276,-6.554540252752986,-3.9616466586215893,-10.069038657204032,-12.90778977739285,-4.192597762087985,-3.697686883661163,-15.562426519039946,-8.139627406224918
0.28,-2.2833666110324202,0.10795288233634892,-7.3850913591422795,-9.489844017973155,-1.8676763192576118,-3.16111759915907,-13.833535886103164,-8.747201989827772
0.28400000000000003,0.9112378224128861,4.055731413992476,-4.298229929588842,-5.676495589383194,-1.25435672244339,-2.951095069924122,-12.24346255929936,-8.833969764219319
0.28800000000000003,3.1328021247875313,7.523828041285697,-1.4654099741518394,-1.7535415694203493,-2.0417289454019283,-2.7473849762411646,-11.322209972536712,-8.513975625757666
0.292,4.747978481643258,10.294807347020765,0.35099376872278754,1.8122765813978958,-3.7497012372153904,-2.4378765360720536,-11.630588222701135,-8.180682915216948
0.296,5.902381750994209,12.21394675051647,0.6110062127039555,4.295560705365915,-5.927364192310279,-2.2575883766394327,-13.462618547289594,-8.270189009145497
0.3,6.295195332422509,13.141655255521755,-0.7266871636114729,4.900048411062926,-8.25341902794355,-2.6679347344404505,-16.607614707478206,-9.010009787791887
0.304,5.415354967267945,12.99831140219203,-3.1351782645961066,3.1715397972363917,-10.515122146308158,-4.033915799962415,-20.31336698918244,-10.273417251969931
0.308,3.0884515062135733,11.866765355767598,-5.723698419261268,-0.6014522191599099,-12.533644854928184,-6.295753403047456,-23.515293761702424,-11.607209641013014
0.312,-0.0818992955187241,10.06064794800568,-7.628442621301474,-5.286802740159601,-14.127602974853403,-8.857442234248765,-25.24021938651481,-12.406815236798138
0.316,-2.7592517606001365,8.075524552158981,-8.401821920156408,-9.26666306638731,-15.163544952880216,-10.815780496076513,-25.00570567603563,-12.170494979038494
0.32,-3.473852164741402,6.43140415577966,-8.176738387598448,-11.118457999782322,-15.638492741860773,-11.438906446924193,-23.017110476385824,-10.726071209267957
0.324,-1.5033318845511303,5.45413976324005,-7.529545480103934,-10.295590835050234,-15.723570629984465,-10.62384594710852,-20.06653994442172,-8.324679116521338
0.328,2.503352037145305,5.1034388323112125,-7.138327636068993,-7.435148318421398,-15.714651817729987,-9.029892621624185,-17.180478866477642,-5.554463362437673
0.332,6.619685793720919,4.969388131116375,-7.4214411261118585,-4.083162713573984,-15.886045969552242,-7.762969033790796,-15.184517553541127,-3.0989212018744183
0.336,8.505867319890058,4.469849290400475,-8.33995931611048,-1.9355905236664057,-16.3234036372927,-7.7605027398660695,-14.383271673842046,-1.44301751730859
0.34,6.624229011037073,3.168121869309516,-9.44853910464326,-1.973312146052649,-16.839610480526858,-9.232320197492754,-14.491822647454228,-0.6902944667672273
0.34400000000000003,1.1396575391653414,1.0554959617645636,-10.142983548631037,-3.9531780908237124,-17.030889524850636,-11.494852619381163,-14.832213936369499,-0.5673489190176042
0.34800000000000003,-6.016459327473399,-1.3530414420039278,-9.95825346439517,-6.535348141769305,-16.463311413098666,-13.298873254220098,-14.678387580550293,-0.6022230373750972
0.352,-12.012161245048333,-3.18764070562122,-8.767187400933949,-7.992883430487495,-14.90474398815013,-13.481958358590191,-13.576316032082786,-0.37971572970309353
0.356,-14.476760827157932,-3.5959174888444068,-6.79703742955212,-7.122844273311557,-12.47315522472718,-11.596317004725051,-11.512274446892661,0.2482101940152006
0.36,-12.64594355020995,-2.1397373772983883,-4.480169928673149,-3.8733964083335195,-9.619942115300091,-8.182361176858876,-8.897614354942107,1.0716972496486505
0.364,-7.6658159897499445,0.9960805825580792,-2.2347071992826386,0.6504691873533375,-6.949029179526065,-4.5382865220467465,-6.3968772463545065,1.6000800690983397
0.368,-1.9171422156712197,5.076075456342664,-0.3105479882979125,4.783869845219442,-4.971207166110389,-2.108610106356082,-4.6756625908030855,1.288406772492408
0.372,2.2417963041069697,9.128482039130176,1.225210627685442,7.157918859504207,-3.9224095309381255,-1.8100914936144363,-4.156662270134575,-0.17771832760672623
0.376,3.6141033993017118,12.346921786976736,2.3925922673140576,7.342892923565387,-3.7187698953392783,-3.646059994253619,-4.866756834260514,-2.687644223121424
0.38,2.5947785536882293,14.386830743978862,3.1921487322090343,5.961330604726982,-4.042272328706531,-6.782219436186097,-6.425976944147806,-5.708734542107322
0.384,0.72314501502251,15.415237092306029,3.5609827295074865,4.250873556331953,-4.500002020226134,-9.995926655928088,-8.185101797961579,-8.488667020308412
0.388,-0.3277626676047021,15.905481893688943,3.4092576778340344,3.3439080944733632,-4.783571259077235,-12.235587596416508,-9.471479778552293,-10.36622401536738
0.392,0.2832761837164526,16.300470513685468,2.692179037495862,3.6754099137056073,-4.7773140035287724,-12.998063314366846,-9.861524306635147,-11.041073141789639
0.396,2.1688872871575313,16.731034113749615,1.455044431025044,4.819029745825219,-4.596231914237592,-12.387181642794303,-9.3654948107378,-10.682475628203065
0.4,4.0552411719877455,16.95501261126026,-0.16160455040471788,5.8186995587986985,-4.53361740684943,-10.909211721162137,-8.419373754577009,-9.827695916264702
0.404,4.618382835304601,16.5585995222566,-1.9426242603328774,5.8082090660802805,-4.926846317515242,-9.165066835822472,-7.650816674340149,-9.108614437810957
0.40800000000000003,3.2686741037598495,15.261551142360986,-3.6545657119354473,4.52402203965562,-6.007282465633125,-7.615458916934585,-7.5382012619129455,-8.945179751530759
0.41200000000000003,0.42758358469882296,13.12608855925339,-5.112225684693158,2.424536717092451,-7.785230948974572,-6.491373500612099,-8.128156867124062,-9.339791175354549
0.41600000000000004,-2.7990451545019823,10.552976325931581,-6.2190437464453225,0.3975195633997828,-9.99831915710115,-5.814933896359435,-8.985683693212195,-9.868985216034162
0.42,-5.30851668541959,8.078697774116677,-6.953956054104083,-0.740425083979062,-12.139865204179955,-5.4751758929605785,-9.41813358344507,-9.895668277256846
0.424,-6.605096547509675,6.106159657016519,-7.315951131298789,-0.6497872207801265,-13.56887609252749,-5.2939846239751205,-8.867868395046116,-8.901194648744422
0.428,-6.977482753045251,4.732476518653357,-7.2650060324479,0.43560736404401723,-13.685888792172364,-5.058896640547573,-7.25620257616356,-6.768584864557852
0.432,-7.170412013434998,3.7889834278958006,-6.6837997455274945,1.948668861905844,-12.11573610768778,-4.550142171734024,-5.053088277934876,-3.8589360771334213
0.436,-7.788349382130946,3.056615826779307,-5.398317296307141,3.3854296867145877,-8.846349832104352,-3.599528303940133,-3.038469636722539,-0.8604588652124221
0.44,-8.828726386148219,2.503102769900579,-3.2562530502252685,4.599256685477485,-4.260088226180528,-2.1845525950575393,-1.891259988741922,1.492648142420876
0.444,-9.651319822427467,2.3619300736722835,-0.24876887008304038,5.807464610724537,0.9441994459945136,-0.5092048936162428,-1.8542706882483344,2.68118245277401
0.448,-9.396549049670284,2.980219736382878,3.365485313696354,7.318336956439907,5.901695756092408,1.008682701357884,-2.6779785299434025,2.5323384118878494
0.452,-7.5822298758739635,4.525277758709535,7.012812628526262,9.173587293747232,9.765893691987799,1.8761845414396703,-3.856824958665584,1.1961221416249828
0.456,-4.504219947247975,6.756769203963131,9.904512681292317,10.95638762741828,11.893334357018603,1.735685325126724,-4.976623734196437,-0.9786547826511196
0.46,-1.1783548410403455,9.065156455287706,11.306172787721835,11.924948063190186,12.021361618626315,0.5363430311031152,-5.92806275100088,-3.5802742298292287
0.464,1.1596287825452691,10.792840975375157,10.87847115583213,11.412574938477974,10.385831417751433,-1.4237998018420512,-6.846356888098171,-6.211981022054715
0.468,1.715087685747676,11.65018654709911,8.907725714549542,9.251799022713612,7.709351953560713,-3.6067353513194575,-7.824569632319935,-8.49582826272217
0.47200000000000003,0.5892764453747077,11.953379503360111,6.2615560488411575,5.953591777586325,5.014635579732385,-5.429881193615529,-8.644205863462503,-10.057214447570004
0.47600000000000003,-1.2632031062266833,12.476285607215914,4.026134018863559,2.4990884448181987,3.268298988796573,-6.463513633691946,-8.779289054983565,-10.575088989568485
0.48,-2.5748489132108716,13.951731120508839,2.97906228186298,-0.16041214111987756,2.9712621186656634,-6.5645051180454175,-7.727626967199058,-9.927399961451101
0.484,-2.490673446237679,16.513772752557088,3.1790721087916154,-1.5963685678286765,3.894557681496508,-5.896547991672378,-5.468838132494739,-8.352073460783686
0.488,-1.0664150756219897,19.438642687735182,3.916818141218755,-2.092909359993655,5.126735915353493,-4.843544103578552,-2.7121540520886356,-6.48500416908837
0.492,0.7838302225125062,21.429483656979983,4.115654210254206,-2.386969224961831,5.495552264671915,-3.843005449536122,-0.666216123414415,-5.158023583577233
0.496,1.856810851809314,21.335285232768797,2.9999612560727655,-3.111157319391623,4.2018936238278,-3.2145108725680984,-0.37955843503846154,-5.008947514146712
0.5,1.415087820080089,18.920732659834243,0.6847541549509515,-4.275868055343608,1.3660614125241182,-3.0568975732408035,-2.022683472756171,-6.10580247743701
0.504,-0.3078785016916754,15.213335147760063,-1.6798251129453092,-5.133700558277496,-1.835105554489246,-3.25077317592104,-4.584878781135103,-7.825231790776343
0.508,-2.1761795065310707,12.143564737024121,-2.3667819593910053,-4.570757552137366,-3.5931544404347733,-3.5480401066424747,-6.252206069929116,-9.089353643235881
0.512,-2.7819018016248265,11.598970669581604,0.047018850930157896,-1.8361321388663328,-2.311086038534313,-3.7033807401940066,-5.329249760829498,-8.874590406794141
0.516,-1.2856639993283352,14.376160425600347,5.8234767744445435,2.8186233652936608,2.538658025724658,-3.58901460057632,-1.2259871579501578,-6.747563808308769
0.52,2.0282305310192896,19.638850783033263,13.725932569917404,8.014808659747814,10.01600661383145,-3.2527728004577057,5.084085819707525,-3.14052928423871
0.524,5.824416708164335,25.227068501870463,21.42438281261218,11.779696273969876,18.019081408387933,-2.8905195491238374,11.441615516773709,0.8047377346201756
0.528,8.398621844849231,28.68392096217997,26.468714151544077,12.495852097926445,24.166036805532258,-2.738222367601338,15.551461213416587,3.764611917311413
0.532,8.58638889627241,28.453220656271583,27.340261130256977,9.748406701258773,26.80261299840106,-2.9355842165675767,16.133766561183393,4.8560284732041055
0.536,6.377414137221649,24.60221622271581,24.049536965950438,4.576073803609461,25.61762068719281,-3.4384408953712864,13.528483818247196,4.020399320915658
0.54,2.9034867020010324,18.708512098129404,18.01602009084411,-1.03024075407302,21.581789486859066,-4.046066974605992,9.424041983055986,1.9579310892968351
0.544,-0.20734731331697276,12.985977931053412,11.324558856738804,-5.1386500843557315,16.275795894825933,-4.538807199704252,5.870345955840094,-0.3343451710741192
0.548,-1.7100771019565855,9.175935000144477,5.793519694644374,-6.830214207947847,11.03940083036025,-4.831741633213596,4.175685470763483,-2.102790092412988
0.552,-1.3408951989631532,7.820888335132622,2.332981493909301,-6.563239628733072,6.428485291452262,-5.038920666444483,4.322892276813718,-3.13389971497827
0.556,0.19020219384037773,8.28065171296248,0.861484677004114,-5.754269391455864,2.24898004782915,-5.393684510660023,5.19961843646729,-3.6551876648879897
0.56,1.7721963129525875,9.402602019110759,0.7237664747531198,-5.825719222086946,-1.9234374079071586,-6.06878254696403,5.455699865430233,-3.955109122086469
0.5640000000000001,2.637536712781184,10.371141884556437,1.263479270184689,-7.29387965509477,-6.144795375957187,-7.00807381449431,4.425108558639749,-4.017805313474128
0.5680000000000001,2.7852088678911286,11.171085240801858,2.155301520034641,-9.453566957466364,-9.874339868761808,-7.890063823396986,2.5225728240052376,-3.453742704491333
0.5720000000000001,2.832208627388468,12.405840855843508,3.336418204732013,-10.837116640298746,-12.275722954651997,-8.261917298510753,0.9048894008099069,-1.7836547922697719
0.5760000000000001,3.416539692720903,14.643089661412091,4.681630814620348,-10.154429144833784,-12.835633943474363,-7.769687815143243,0.663051419615158,1.128947689086317
0.58,4.590568316630197,17.788875859069435,5.761702181935675,-7.116862440118666,-11.844183401439068,-6.357287266514959,2.0865218910237218,4.809638223596494
0.584,5.625956631363124,20.94286077483366,5.935458285400159,-2.6550151529547747,-10.362446029165199,-4.310519619717979,4.477484444819993,8.298849661287022
0.588,5.4106968111768765,22.867391121555556,4.764518284471251,1.6032388140329203,-9.632546674265882,-2.0962897321387572,6.624518794282494,10.65463129003001
0.592,3.2034946259741446,22.778852223314516,2.4709433446906814,4.265416946514961,-10.27532043919689,-0.09613212320709863,7.614902669638923,11.542848949954987
0.596,-0.7470665401122005,20.927825290695637,0.07071940484240713,4.932220626475328,-11.798876499969538,1.5955711050851278,7.433784633907635,11.518962454613984
0.6,-5.143228843770544,18.56157114588393,-1.0002712508322702,4.322469854711926,-12.777701010407213,3.1556943802256683,6.945295938337949,11.738438054611834
0.604,-8.271879405215259,17.22003015216967,0.35723237913805406,3.6788803874787845,-11.672886426668128,4.782973765773249,7.240515196710703,13.196330078291112
0.608,-8.980750988728687,17.767694474184623,4.168429028335709,3.838460715688825,-7.849177504732097,6.376014352313632,8.751661997038354,15.917773871193504
0.612,-7.4152921258324795,19.75765115303227,9.125038490694578,4.568713457338163,-2.176148479733456,7.377244882511377,10.725789814315021,18.62984146297208
0.616,-5.069161679431318,21.53599863830391,13.019086571689513,4.589807449345358,3.1789240344080554,6.9311146318591454,11.435976503973507,19.196458781837464
0.62,-4.063052487724121,21.089835322048998,13.715035552337895,2.304629475902175,5.719003586354688,4.310503191515636,9.056344144276636,15.65342419444869
0.624,-6.000309162353915,17.204554940290222,10.192577255053152,-3.1602123385667937,3.862435122052716,-0.5958068038148667,2.7481841777605496,7.334179491808754
0.628,-11.01797478226581,10.28433460218605,3.120390718918202,-11.212381615716708,-2.1936868628474713,-7.003831027304386,-6.642638090625724,-4.505838412705089
0.632,-17.573965030925706,2.3449073103705587,-5.35580427968614,-19.817979736970187,-10.46930281534594,-13.362414575515231,-16.7112160071199,-16.956739184122398
0.636,-23.09309665940407,-3.8401977926030213,-12.511119712886398,-26.305050622658314,-18.052024295765023,-17.87491992177911,-24.41482814982487,-26.53852587446977
0.64,-25.13937551897277,-5.990852504467739,-16.16873505989372,-28.520801862240887,-22.34998576124451,-19.184690964098536,-27.33674767878756,-30.601494236420194
0.644,-22.528761339294647,-3.3334977614842956,-15.52363553366581,-25.7558822107344,-22.129926140209932,-16.905414313595656,-24.687387028510557,-28.378105341703986
0.648,-15.839894293916132,3.1106856990592178,-11.315222774443214,-18.993426979832634,-17.869931593441038,-11.751443455379786,-17.579951915517654,-21.194474106231155
0.652,-7.122521251257126,11.051107790707306,-5.352275293212642,-10.414582905710859,-11.352410040303596,-5.206535850109731,-8.484033889028183,-11.771961374971625
0.656,1.0030476125787118,17.96209386317696,0.32179715326446967,-2.4588425487575023,-4.788966899880904,1.0960861951969036,-0.16433937694250744,-3.002798783558319
0.66,6.4046489499869494,22.106205553728728,4.221322529509962,3.094068906458915,0.06679316867274565,5.974413614976584,5.383677019264155,3.1880039423854214
0.664,8.161515613874258,23.06721550521786,5.83042544905129,5.610988131156773,2.4150315681939674,9.01049563417996,7.529754661533161,6.376109441291419
0.668,6.691533471052708,21.62811832053012,5.54124791326899,5.537970333049202,2.3992434950781103,10.481384361792834,6.958058608506462,7.406751484378219
0.672,3.3408784071098125,19.168098370947746,4.2527959986385895,3.9399445808591054,0.7455186964526206,11.01337196479335,5.104481389204921,7.644238953842432
0.676,-0.29624258212970744,16.94531991840529,2.877049715249882,1.9402895367526298,-1.6777600014121958,11.169035931538474,3.4094181216330526,8.15044642831549
0.68,-2.9783042446364334,15.639877959289834,2.0065356352326376,0.3416886732251214,-4.130782455635142,11.182940788745782,2.7470977625899877,9.21718870871814
0.684,-4.134607527926846,15.297365279043163,1.834208092346671,-0.4877662788210273,-6.056329078963756,10.948850851591487,3.231644497079401,10.414664711373689
0.6880000000000001,-3.841170529083115,15.58914728974969,2.2726648666005644,-0.5252680863950445,-7.021021153411482,10.217008634609215,4.397191323967149,11.030489889149294
0.6920000000000001,-2.562298938083586,16.162900827904366,3.1548996145041315,0.06429349518089111,-6.6761219314605,8.863551895046953,5.590952924192607,10.600169084399568
0.6960000000000001,-0.8393050948653809,16.855401601784592,4.381046442429977,1.040035118026367,-4.829779833642647,7.065619385008517,6.35703084243687,9.213568705372381
0.7000000000000001,0.9275770646190722,17.67558415377971,5.947573520878564,2.140183012708917,-1.5858958339040896,5.285966090920283,6.637604213181589,7.456859942369647
0.704,2.533761013704577,18.618921759899308,7.86374535183603,3.106400381377398,2.5626427803718457,4.072243617081995,6.733221820331551,6.067211528351322
0.708,3.9053476665144444,19.494713848444633,10.02511691587074,3.7254572515905693,6.791846615335089,3.785688418329187,7.086138831450739,5.53409595251901
0.712,4.994310260286568,19.910761410006273,12.12278927685935,3.888702779936011,10.165673203446033,4.409302083106354,8.009293739318196,5.884010331511263
0.716,5.71105228883107,19.448052698677657,13.656016998708367,3.6264135010026166,11.931866793859456,5.538837287362185,9.50014939467519,6.740641017327903
0.72,5.934081610679129,17.933023109104965,14.072902881675077,3.08945558202538,11.768244962766175,6.558042089116725,11.209710718925976,7.566330158009123
0.724,5.607290099918771,15.651920097626316,13.009860033545579,2.497509916162926,9.884218934546197,6.923796511706769,12.583110463284925,7.940869463805143
0.728,4.841521655110796,13.336416716072847,10.513838750255957,2.069410421077464,6.923036411440535,6.420193743836535,13.104970437546513,7.712078500598636
0.732,3.9418104104177587,11.881569571174225,7.122828347080713,1.970412032302761,3.721311363442396,5.2657271411397915,12.534122289612696,6.971457768513119
0.736,3.3198041468755264,11.907593421950253,3.724080936249493,2.289397437800176,1.0166626670439314,4.0155868861817225,11.01702558079819,5.921349715262636
0.74,3.3038503740529563,13.373263972984773,1.2196105751771142,3.0264579945043124,-0.786879276402658,3.288433196224105,9.024642885406251,4.729048402269996
0.744,3.9327015568262027,15.451302847242687,0.1349627707660943,4.0651742819354695,-1.715411682051922,3.44399953931611,7.1390918664783385,3.4604633834295555
0.748,4.876228425006673,16.77896279285585,0.3681915545703873,5.149186810981064,-2.155268918849231,4.373796247896735,5.7887041664671415,2.116711668743733
0.752,5.5607799452092195,16.00773528420916,1.2307756958502978,5.903849200816921,-2.6447674834128065,5.523036110790827,5.073276898419181,0.736151910011472
0.756,5.4472114381772485,12.396053138507511,1.7755028600409446,5.934240617157343,-3.6172274261231223,6.1510264664267424,4.771489470470442,-0.5239458296314297
0.76,4.328572587739416,6.170790960368265,1.2695010530705986,4.998817266832702,-5.190801025258679,5.699685949593004,4.517797459724761,-1.402094432583226
0.764,2.4771463050761326,-1.5248877774686207,-0.4276579134004237,3.1791669522444863,-7.09304826785376,4.08141029886508,4.046070452885829,-1.6448436866305656
0.768,0.5285374089432935,-9.092804027138584,-2.7882810682185664,0.9329359667997323,-8.768592242462091,1.7358194663718223,3.3606192901628447,-1.1540396067878191
0.772,-0.853627131914493,-15.134947128908664,-4.893360223833554,-1.0436343585602117,-9.626973843113603,-0.5724833294181053,2.7298737908221256,-0.079087497147043
0.776,-1.3404002476215737,-18.98658602032731,-5.912896860819899,-2.114648796069332,-9.315277181361012,-2.119771121420058,2.4976471162108282,1.2026215535547635
0.78,-1.1080979149872974,-20.875357405772434,-5.512650270949791,-2.016770106491151,-7.874827417770746,-2.5689045629623024,2.8215534475225468,2.209012233389899
0.784,-0.715395929177248,-21.665537017150314,-3.967473967672902,-1.0148743575763888,-5.704259981165535,-2.109718375562352,3.520494474728139,2.528179029260741
0.788,-0.7501516041106697,-22.356939205584695,-1.9407502007749144,0.1976747358239095,-3.3489604774665054,-1.3237006650233525,4.130960167466583,1.967478722652345
0.792,-1.4522712478187145,-23.61621153920845,-0.08116902038915441,0.8215814290629737,-1.2334112320518784,-0.8520748982947453,4.157018728558228,0.6205289670343745
0.796,-2.5795364300763026,-25.597835570196935,1.2887468520909238,0.3175088612721879,0.48935547361514864,-1.0519100936330688,3.3736492457481972,-1.1784105100731495
0.8,-3.596693522105454,-28.086655358954772,2.224211583957299,-1.3559023249198958,1.9046878607681492,-1.8251626134881462,2.0010817574453768,-2.985057979299768
0.804,-4.083172633336801,-30.824189043073773,2.9253768570978878,-3.761989544557764,3.1353097388691253,-2.7178359810556003,0.6094568646183234,-4.422550550627079
0.808,-4.101381287278173,-33.77559556688385,3.407156929989924,-6.2389491102599095,4.108863325406844,-3.2209747158065056,-0.20410484945557528,-5.333843353608131
0.812,-4.260838944661316,-37.159159187785065,3.317045950795034,-8.220078770339398,4.463499362751918,-3.0849049646570847,-0.19150769516613764,-5.848283029933555
0.8160000000000001,-5.411873813753573,-41.2346087787173,2.05331311254821,-9.454672386369282,3.6707084515479664,-2.4674827372534764,0.34316195054066156,-6.327382817209923
0.8200000000000001,-8.121368366925026,-46.00718701110611,-0.8572305475182702,-10.03240822131977,1.3277652121628307,-1.8412128345138399,0.6528444258546529,-7.216912838073995
0.8240000000000001,-12.223827196144612,-51.06271169768792,-5.357031800961295,-10.236132493661728,-2.545603189188938,-1.7191209325548016,-0.0686488177643696,-8.859340332109014
0.8280000000000001,-16.731733973099608,-55.66370733694936,-10.700322537742636,-10.34228437932859,-7.392272921201112,-2.3595738461930296,-2.227495632238856,-11.327583031600966
0.8320000000000001,-20.203219861743605,-59.06550769688596,-15.679174515996351,-10.501196365020348,-12.275040560372474,-3.6191732423640133,-5.5499940509543535,-14.345344105068193
0.836,-21.388196361373957,-60.8590509701188,-19.13421766094376,-10.736780743573945,-16.237926749906137,-5.026163875910015,-9.140352637146066,-17.322578842913686
0.84,-19.831593925269146,-61.13887937138793,-20.48306306496272,-11.029282862079867,-18.690570721623033,-6.039174435677296,-11.878919972898245,-19.53136619013037
0.844,-16.120128555581516,-60.40329288104954,-19.972079342941015,-11.383146009721486,-19.609993020749812,-6.335844191010551,-12.953746463370294,-20.362415715492943
0.848,-11.633969920216202,-59.245865233827885,-18.5007230266678,-11.805064092195153,-19.452430413457733,-5.96420874380965,-12.235585913215232,-19.554262192574924
0.852,-7.937758607889805,-58.03169584511619,-17.12809925418736,-12.228282806469053,-18.842157340199265,-5.279120949936328,-10.313181707134731,-17.303855649876937
0.856,-6.129084748161972,-56.76446681344797,-16.555322331868183,-12.473710476868291,-18.240460565760486,-4.714191003002384,-8.192111765626407,-14.208025500099893
0.86,-6.423156836579608,-55.17638267360374,-16.835650985946984,-12.281136495689623,-17.751909038947247,-4.5154688162078855,-6.8122120051363595,-11.048993693401485
0.864,-8.146181269599936,-52.95111872364649,-17.44231105571805,-11.412215810771158,-17.146052905504803,-4.588178345777237,-6.627822440600596,-8.49458927030446
0.868,-10.104257253730623,-49.92871384492989,-17.629124932329688,-9.77534816220782,-16.062582429327534,-4.554246433056619,-7.45731740524559,-6.860882491005327
0.872,-11.123224027241974,-46.17191167842927,-16.849673781413884,-7.484817581289235,-14.246597067533884,-3.976605973462938,-8.646600227734496,-6.030125212177325
0.876,-10.531009853271684,-41.89625436222059,-15.015855240567163,-4.8298372348131124,-11.684032835764242,-2.6322567126508716,-9.433800776469809,-5.555819177223668
0.88,-8.386613745899268,-37.345887093434385,-12.479022602093153,-2.173068203445041,-8.583272681258194,-0.6870786186976261,-9.315363779270854,-4.908652937614988
0.884,-5.401065899277626,-32.72634625438451,-9.798494680833358,0.1498946677299955,-5.2463056069263985,1.3222454202272615,-8.237713693375895,-3.747553371106335
0.888,-2.631627391156627,-28.24456418473781,-7.4645131399244065,1.8683069989253909,-1.9374189172166894,2.6884929904038017,-6.548241508862873,-2.0817226567995135
0.892,-1.0685139600748528,-24.187210239742058,-5.734194238508451,2.769413058073326,1.1648085183188925,2.834068263578274,-4.783589593077238,-0.2556746092093931
0.896,-1.2573604785859516,-20.92790258222948,-4.634020971896064,2.7142375427339402,3.9284329239564784,1.5802804274972004,-3.412735651589344,1.237489487526318
0.9,-3.096406513041188,-18.808423381045827,-4.06615498738438,1.7167134619656395,6.200221573483304,-0.7415651336145856,-2.661562460987682,2.0113287654547776
0.904,-5.876131037987307,-17.93457285599402,-3.9058440969849926,0.0678474863568681,7.791217625580941,-3.382271890833181,-2.47755277039505,1.9813552655300555
0.908,-8.555722006438941,-18.028598102665228,-4.024126422315021,-1.60417452736624,8.540135738648814,-5.436135569805856,-2.6246191093350717,1.3902865873851624
0.912,-10.18344687614831,-18.48102125552157,-4.252124059384755,-2.457342067658999,8.409140904451647,-6.162844599622417,-2.8246000937139115,0.6651459928746135
0.916,-10.296314066526975,-18.62831506935015,-4.376920987956851,-1.7694243925516275,7.528277308446661,-5.247832510777243,-2.877458657462739,0.19213920718448207
0.92,-9.111153119278754,-18.10732469355537,-4.214202354606073,0.6607456633992115,6.154184565699609,-2.9041107737496077,-2.7146153837898055,0.12976446717811996
0.924,-7.400882247064658,-17.076684915101964,-3.7369271971548415,4.2727541433795295,4.562077440635562,0.2151018923286756,-2.380205698643067,0.36072585759984577
0.928,-6.1023609440634345,-16.16218781223853,-3.1772542486789916,7.852993288891753,2.9320520016863156,3.2487948358548238,-1.9886278520154974,0.5896936308815839
0.932,-5.827253741438199,-16.11826943694649,-2.9874227748061912,10.018132718732886,1.3179036092847127,5.424596650461808,-1.6690963559316288,0.5310933715531974
0.936,-6.5269933736921075,-17.38752044423086,-3.639027496034487,9.862220599014222,-0.2910948777818021,6.318568190197425,-1.519263724190182,0.09112351539033625
0.9400000000000001,-7.49511765157763,-19.801985764217704,-5.328276956118657,7.435150488670615,-1.8531781068546707,5.9784190659638625,-1.5703446202456917,-0.5590045802896384
0.9440000000000001,-7.7347799040436485,-22.61155847175678,-7.763614771778123,3.772087554685868,-3.1995686144093725,4.86232638753836,-1.7721552909447382,-1.0594281785315616
0.9480000000000001,-6.495896416234473,-24.82005291551866,-10.177878306931689,0.4302717581605293,-4.065652337538381,3.625147902737581,-2.0027206785352973,-1.0446169413589814
0.9520000000000001,-3.689908705289554,-25.64090653376161,-11.601022818131014,-1.2467031443588894,-4.21909980268191,2.833883586363754,-2.107745936561173,-0.33788776427286393
0.9560000000000001,0.06309396647634458,-24.821067069973424,-11.283868043672783,-0.7377051141543234,-3.6039195928906906,2.746807757519491,-1.9538778121529958,0.9593828568745266
0.96,3.750135097893576,-22.698130113392153,-9.080322584340706,1.4737285058631642,-2.42097203838091,3.2423162634254368,-1.5056408589773582,2.4978724392449294
0.964,6.470833962508891,-19.977708666685658,-5.560358991975818,4.231926545974261,-1.064367109236855,3.9224462206120734,-0.8744495560270025,3.818453271522685
0.968,7.8474790810344075,-17.387445931605725,-1.784502870470078,6.344451307439044,0.05304851440519087,4.335006262728484,-0.3075333899828365,4.53341957829025
0.972,8.111840082175377,-15.410301639486306,1.152263869336366,7.154132260797496,0.6811276213643396,4.204770954304877,-0.10932734134712518,4.468576183439836
0.976,7.850531792636502,-14.207156371254655,2.586048720541612,6.746921377878607,0.8216977945835424,3.565010043927032,-0.5094657899394406,3.7283324200161587
0.98,7.5869289715788,-13.696234919334074,2.546625836348994,5.730928030978021,0.6876771002770283,2.7184528906393552,-1.5131739836920133,2.6628365747869793
0.984,7.491744568459808,-13.6678018627465,1.704696354099724,4.792143578325749,0.5769322786317161,2.0588977898642042,-2.8070283280776493,1.7646031512329046
0.988,7.381361212233742,-13.857552668275275,1.0262831143237463,4.306072422127727,0.7235144633889377,1.8460814761824622,-3.8111733944010666,1.5136856073961553
0.992,6.9755675471431005,-13.961230703607384,1.3185932416328114,4.225529190360703,1.2065595327932215,2.0594283377733973,-3.876710380956638,2.2160981296119644
0.996,6.208299980868219,-13.663845216167374,2.8645469116829645,4.2529597339221255,1.9348614784598794,2.416715550850313,-2.576548975899641,3.89423339570385
1.0,5.354291718990112,-12.746232874151701,5.29635782942114,4.131428640874674,2.6871534356073425,2.547097728780045,0.02962540379348866,6.261511636467503
1.004,4.865599408894013,-11.25288283091163,7.741346851820822,3.831722345669732,3.1660399617767325,2.2129789994794464,3.2867104647934866,8.793584343584826
1.008,5.025996682661571,-9.598500430204695,9.173393018054412,3.521373983200874,3.057417160279442,1.462468344006993,6.105785466450698,10.897175212016919
1.012,5.670226558044078,-8.49410846283854,8.801806611795087,3.3658379245150627,2.0898207611743373,0.6155368291483683,7.350137299523794,12.110358698424534
1.016,6.1933961724027995,-8.648986896339125,6.359084542179744,3.343844826590157,0.12231532668943146,0.097077555582473,6.313716614988152,12.27084295644363
1.02,5.883058433833185,-10.36325904864293,2.2006314885538814,3.2295151357579925,-2.744172781660154,0.20368814269158975,3.0833226287247726,11.575868506139159
1.024,4.391683994257619,-13.241583217538619,-2.8015561428046567,2.762645334530589,-6.091676279519561,0.9354213872893524,-1.4088522715383078,10.4932415750568
1.028,2.0436112613751902,-16.241445371737882,-7.523221563185416,1.8836101551762567,-9.22403389774695,1.985388512753616,-5.691895009208565,9.555250511994018
1.032,-0.25180708261859763,-18.09508415615187,-10.924879606926652,0.8428627272055564,-11.357747527441006,2.8927612757124734,-8.32099249300336,9.12645779649074
1.036,-1.4614289048456612,-17.91852318056044,-12.362651138323145,0.0849538689842575,-11.914969652311811,3.275107715158356,-8.457713670462454,9.26254800397146
1.04,-1.002453916759805,-15.681828113000847,-11.763534350594455,-0.024502341284687645,-10.77951011578989,3.0190051085169216,-6.194859722215824,9.728108656203858
1.044,0.9310388859073555,-12.24778299587092,-9.597890738662954,0.557685771356546,-8.368142108356096,2.339974769109176,-2.467443422221095,10.159273144096915
1.048,3.4633655775460284,-8.941166769936899,-6.66068493859575,1.493164108709152,-5.453978896543049,1.6727606152380758,1.3964583590213806,10.280869711998093
1.052,5.502135171738246,-6.8775278524021815,-3.7572641937988465,2.2307082498182353,-2.821701665870478,1.445109354483975,4.258288780390103,10.05594682937135
1.056,6.31286925401173,-6.4253934115058655,-1.433300919491785,2.301773980644157,-0.9385060850006539,1.8656009069954962,5.599773641358297,9.685559933632703
1.06,5.856286069329144,-7.100828562954348,0.14861084695894533,1.5568282355443444,0.19043457504380967,2.8245543205302965,5.621822657515622,9.467801070957194
1.064,4.692201646458443,-7.956960708559109,1.1200715603465596,0.19092338428527,0.8851043273111827,3.947072443001616,4.9717768297541625,9.585584739851583
1.068,3.567744017818768,-8.186150455711868,1.706699713382477,-1.4068766449622672,1.4930893153125453,4.775291284252944,4.305426445748708,9.961319268129046
1.072,2.9502921085356775,-7.573479051532786,2.0334833603701554,-2.868306199890867,2.127495646209354,4.9837691913903654,3.9485962531302903,10.267767879662642
1.076,2.806273545658769,-6.534583812741403,2.04623639033548,-3.9732885884864118,2.6037523559398323,4.537714604164194,3.8240011630605295,10.102754623848341
1.08,2.7480804108352004,-5.732306498032813,1.6010275463127073,-4.619798422434542,2.6254379500260256,3.714880144847484,3.647345042127654,9.230652368883966
1.084,2.401781828439198,-5.550492140604092,0.6350782754936972,-4.713461078978526,2.0737346146847813,2.9722081628178785,3.2214165399736885,7.7376702157534964
1.088,1.7369847150594069,-5.76826979049747,-0.6922269027322727,-4.090059697635752,1.1984319298223909,2.724550483290386,2.6283033988424904,6.021414274520339
1.092,1.1312608488001388,-5.662574423681917,-2.0028032910709044,-2.5682188497648895,0.5523261709224698,3.128662463672299,2.178095127952929,4.605299396589089
1.096,1.1085414859121556,-4.494993427913641,-2.8824660690490873,-0.13831884281307794,0.6636373450924111,3.971455119822167,2.1592507346895218,3.860155780803325
1.1,1.9460864008278804,-2.0607204670920964,-3.1252610253052353,2.8646050064185147,1.6623212315037108,4.73145063357515,2.5744412924086646,3.794860658266316
1.104,3.4231186035626706,1.0616728493532719,-2.8776421073355323,5.76560626623268,3.123932820500613,4.801138114958576,3.07322292695153,4.042235399919264
1.108,4.864944601266188,3.7202279987361635,-2.583546511354598,7.767547447461766,4.243210248062951,3.767591112532955,3.140228585278237,4.03561154334875
1.112,5.476036465170182,4.761014043668638,-2.7288230333065258,8.295293726462205,4.279805747775754,1.6364175922526556,2.447613164465565,3.3027965791511633
1.116,4.7597219291619695,3.6225729383852467,-3.540279067734673,7.26999090555546,3.013879739976801,-1.104839542238551,1.1368883530412859,1.7300225687204147
1.12,2.793939425419012,0.6322733792987947,-4.803548616018588,5.161054400670309,0.9382058144080929,-3.637132486581322,-0.16210511499093627,-0.33783843354558485
1.124,0.19153268782247324,-3.1819165437436823,-5.949250583882531,2.756942244478978,-0.9820360814389915,-5.134443791213926,-0.6547302241951911,-2.2453433872724418
1.1280000000000001,-2.1939145545434258,-6.615586698787411,-6.34125282855689,0.8102516282788201,-1.8308895984571336,-5.111174501813366,0.1556116099909559,-3.3178312829704737
1.1320000000000001,-3.6595430963243416,-8.867918222364779,-5.649833718169248,-0.27111171813749024,-1.2736144094963038,-3.6510656152449883,2.1037699422518017,-3.1852213494985335
1.1360000000000001,-3.9294125944620646,-9.858529120354433,-4.094204199687738,-0.5222380570503447,0.21816029986212016,-1.4021486687561264,4.341608187916336,-1.9670024871602436
1.1400000000000001,-3.211753119667719,-10.139072470542942,-2.4071775574193452,-0.28712226616653425,1.5991120377914285,0.6806530938565629,5.716267875402082,-0.2158579676424779
1.1440000000000001,-2.0435819147232905,-10.486552865507292,-1.527699361870873,0.03725830722760293,1.8178823277567062,1.7321828070525953,5.359478776448668,1.3395146183956967
1.1480000000000001,-1.0268196616248133,-11.420569096852887,-2.1640242853618474,0.22728514628715857,0.40941208678486873,1.3371998997645278,3.164363691149447,2.1169328511959975
1.1520000000000001,-0.581250158945295,-12.901270835784544,-4.43423804766644,0.31792380912793305,-2.21093762708324,-0.30133266834309325,-0.10816137680603788,1.9158033599005648
1.156,-0.785007104703709,-14.338538846988286,-7.761530493613918,0.5390211673816339,-4.911545316323554,-2.4555416743933165,-3.1604254637659324,0.9671357157776583
1.16,-1.3378020594368536,-14.879710556240752,-11.075750421417979,1.1785310396094246,-6.372397956347868,-4.195117031615155,-4.763848531885742,-0.21072301912863622
1.164,-1.6790097958751176,-13.832112636537659,-13.239196693357826,2.443619031497292,-5.710656271978678,-4.793513829252333,-4.338424861018211,-1.0754811508140847
1.168,-1.2186253516292709,-11.01115107249916,-13.492674271700253,4.38220451507641,-2.8779484982865142,-4.03672038014065,-2.2092077474944745,-1.295527273735388
1.172,0.37828576632637123,-6.875890051258466,-11.733168865591324,6.858340831064197,1.3514177442116306,-2.3093095966914916,0.5757769047968395,-0.8459187074276997
1.176,2.9468489016790045,-2.414016806618747,-8.525794750260957,9.543157582270396,5.741705216726132,-0.41938255824152293,2.750110091593342,0.0498306118461187
1.18,5.770270556257856,1.1897228575176086,-4.847434685537337,11.940297494880724,9.110808891085071,0.7619272033780362,3.395404442317158,1.0814310746691262
1.184,7.821787189838233,2.987404454145235,-1.6740626671826249,13.486071973690741,10.754495819308886,0.6905988045346021,2.312289118078297,2.0175427275062248
1.188,8.218597718975161,2.6258773140766607,0.39520393382281327,13.71495477314238,10.595432851396254,-0.6107002950702736,0.037057930099763325,2.7674825697558845
1.192,6.686949183304478,0.48389639866627476,1.3141324921684827,12.45097046052615,9.045033304838853,-2.5693366338527994,-2.4744513808736883,3.316061644411093
1.196,3.792687271763043,-2.4689116998943064,1.5102183549884103,9.937855689796379,6.711317501175927,-4.316900363422064,-4.302804315501817,3.6227687769360273
1.2,0.7305130891686531,-5.079701899805059,1.583652633741167,6.780321959668072,4.1019672274505865,-5.0873314670589025,-4.949480592012151,3.5545562663464807
1.204,-1.26382445308127,-6.515604196143613,1.9424612477705523,3.6932546555235604,1.4668638335106152,-4.575326132673581,-4.490224635376762,2.928904575464003
1.208,-1.5736142603959706,-6.623945812874808,2.5696803512096267,1.1662832939409782,-1.1735531547133178,-3.099306118903769,-3.467972053485937,1.6389874158112434
1.212,-0.5434043187665338,-5.952805650002574,3.0595828696918943,-0.7558228083216818,-3.853895008213385,-1.47458293854379,-2.5928590735938997,-0.2026317613426727
1.216,0.733964530348203,-5.405937283096591,2.9005030849584728,-2.426874024507015,-6.463601299006314,-0.6357861235746896,-2.3890733298730993,-2.1947434150633853
1.22,1.0973507837979923,-5.701099963894649,1.8526405995471578,-4.287478304388969,-8.630365149129375,-1.1748459696955251,-2.949527051593577,-3.7137117959555326
1.224,0.08517759230608135,-6.919399412664006,0.2174532323110725,-6.453588857230898,-9.752271665978697,-3.0121693336514,-3.8877754126679065,-4.11065389727446
1.228,-1.704216199910661,-8.419362605897732,-1.196060854233565,-8.47775375031415,-9.20047941056555,-5.371977561286258,-4.516922213814723,-2.962889268887011
1.232,-2.9227004523272626,-9.184455574560161,-1.4247848228542352,-9.471844438208791,-6.611831155528307,-7.095896097252989,-4.178693304582339,-0.26283224993403564
1.236,-2.3072552264347905,-8.417964274510268,0.13526010064788352,-8.568732546820684,-2.149200333745739,-7.169130852706985,-2.5951810231063064,3.532783027591904
1.24,0.46152515656740434,-6.043837996462571,3.324147254791569,-5.468269036315178,3.4066813526819715,-5.211023655492681,-0.08318999524726678,7.619092855273266
1.244,4.4196733233548,-2.8032436705916552,7.173357927695633,-0.7337334387120791,8.825496955295876,-1.6871330853109612,2.4986810747877826,11.081203100029597
1.248,7.766488715469677,0.1381582135086319,10.291192368859356,4.378715228819601,12.836491033212951,2.270059727486114,4.0783982850998655,13.178103637179447
1.252,8.887564066655614,1.852420669611547,11.511066590438531,8.505117026023981,14.627979735013923,5.362576570623787,3.857620369905817,13.581405909374553
1.256,7.348163391539856,2.180547997434587,10.465762930847177,10.845693770567777,14.199907845432335,6.711436139076795,1.7421519360077582,12.485943171235704
1.26,4.223717159095031,1.7907429476067591,7.765360107850029,11.520116957816754,12.362448355527249,6.2357717338709335,-1.534865045728111,10.543324912322532
1.264,1.528387128920258,1.7081009580424507,4.6622425289288,11.376034394155795,10.329799950735833,4.62895877475421,-4.701865846162946,8.61584465453052
1.268,1.0350223695586465,2.5775128443588073,2.3567826126532054,11.346036111865942,9.065847201477027,2.941761942660378,-6.567982502308951,7.402318646203639
1.272,3.148829953503082,4.098864642619446,1.3005348152528313,11.72428950307949,8.692619177139477,1.979962874082048,-6.701710834216101,7.052955008683057
1.276,6.514799560746724,4.998399724112005,0.8785757638720497,11.807013213003302,8.28372680755865,1.8422553265809256,-5.81042939791314,6.959613744316812
1.28,8.640597144638377,3.6124409725507576,-0.31817034005143796,10.167293276382225,6.218191174307776,1.8572879688617832,-5.5582848337462565,5.876006700305879
1.284,7.21281693876881,-1.2051554280483288,-3.749019812366896,5.455013777793283,0.9790423090707918,0.9588305945762841,-7.841414885023369,2.3998405928141437
1.288,1.3818944674958402,-9.3450654200592,-10.073790250781713,-2.7052275175965406,-7.966282945967578,-1.6977203512833512,-13.826928198241148,-4.339010887071709
1.292,-7.676042283935203,-19.267251503748412,-18.61850151888393,-13.212482061745504,-19.63215715600154,-6.1968164473382785,-23.190239477589785,-14.056052071347949
1.296,-17.222862101256396,-28.50235068801703,-27.45134840767878,-23.701343944860128,-31.63746548616018,-11.682526383779987,-33.95800677403713,-25.071190659606145
1.3,-24.200464524944437,-34.59410428465981,-34.056769962414364,-31.400622486155044,-40.97879354106408,-16.64650979601356,-43.098702972502906,-34.64934642616936
1.304,-26.56187000488262,-36.01643501597846,-36.297667162991274,-34.212256141174294,-45.12141976607154,-19.53795357830495,-47.619342045889425,-39.86212651608548
1.308,-24.015519220934948,-32.63991394807363,-33.2213618049027,-31.481111494603283,-42.91459834905481,-19.392388077532814,-45.68714801414535,-38.647546596315806
1.312,-17.90015320159,-25.604032573677614,-25.38502870138018,-24.126683809721726,-34.951403990749895,-16.19414722451984,-37.3091138619784,-30.641484104426127
1.316,-10.374039966864984,-16.753929286998755,-14.60928635774053,-14.133899264148567,-23.257567016627945,-10.817490356237613,-24.28461820758548,-17.396199343804255
1.32,-3.424260276473433,-7.965264697359089,-3.312569827063271,-3.7120297190258498,-10.493647715638872,-4.618093003584363,-9.502229640487712,-1.876003539251542
1.324,1.7930701424902509,-0.6484356255359671,6.2739581099322095,5.446941512263038,0.9430766642262824,1.0945529230157263,4.080752467014463,12.562145355932444
1.328,5.026106351275303,4.410778866499641,12.68816084998707,12.483333629526896,9.521167160193727,5.434903265409957,14.313609783474021,23.23897969729478
1.332,6.576712537444109,6.978110718720018,15.48358941575134,17.24983822437025,14.738867724812735,8.045312480018765,20.290073139018205,28.859171578733367
1.336,6.875050272484259,7.2364172847856025,15.14305771567524,19.9561833606258,16.910972741253318,8.972129809686521,22.280171908092598,29.632744059776087
1.34,6.263295641750119,5.698386465643125,12.767055840781723,20.860424490288096,16.788266045595265,8.459357935471417,21.304229874507655,26.848183086016434
1.344,5.056778416417728,3.170548462001534,9.689728718638435,20.196111278364697,15.24269629002356,6.826090615020803,18.635548890755672,22.209243607499957
1.348,3.710610511347113,0.6634836391240242,7.117370639482033,18.296964074755124,13.095801612846117,4.468199312042998,15.417035999565996,17.23857672673512
1.352,2.8495502476771435,-0.8354642429776504,5.856037564063627,15.737043307373824,11.062150383136213,1.9159238789015944,12.471307133360824,12.960163225492579
1.356,3.032170958666029,-0.7139692118653329,6.147958140687479,13.278766898359208,9.691971357613511,-0.17449206432138453,10.259135633408732,9.88514691486489
1.36,4.367512722541505,0.9445630126119795,7.641835861661093,11.578456677549184,9.241664590913388,-1.1746841014355596,8.888720755569011,8.14137920246867
1.364,6.264658902100564,3.295592230058901,9.52602790655692,10.80419773671565,9.535276836859339,-0.7409037659035675,8.146756872634796,7.6016553837071115
1.368,7.564881617611718,5.045690839728195,10.824042741690391,10.432593474091846,9.960168205869195,0.9744961272099317,7.57706331578629,7.945181245526328
1.372,7.068970953432654,5.040554612265623,10.762907684316815,9.413054981545429,9.677443776703512,3.308547333905153,6.631982696204432,8.68101118829145
1.3760000000000001,4.204651228794319,2.853351637087144,9.071591066573092,6.679221592396061,8.006418701486837,5.3306200252554845,4.8952403026487445,9.23434317000465
1.3800000000000001,-0.5498834171703493,-0.9352474559818802,6.077974059681765,1.7705865743555478,4.809889018402828,6.2438024809271155,2.2896530741272727,9.123813592785154
1.3840000000000001,-5.769895271317182,-4.944160482164989,2.556383955374258,-4.772757730126614,0.6648385058188069,5.742688361578985,-0.8421315681807755,8.172585918075129
1.3880000000000001,-9.69939206034178,-7.603700693589417,-0.6052106521347014,-11.48045780828761,-3.3032955782873614,4.1378588465522625,-3.8517935983290954,6.6241586385294795
1.3920000000000001,-11.06599668844683,-7.860845868706747,-2.749810140266163,-16.4890498107452,-5.867582101919652,2.1761066369799664,-6.054756346049544,5.052292048749223
1.3960000000000001,-9.651031422364213,-5.618408488975547,-3.642772909593077,-18.300579610513523,-6.2117317332840685,0.6666681597998831,-7.0217972120608465,4.087562950868232
1.4000000000000001,-6.293162224929802,-1.6823178871864002,-3.4288256464478764,-16.380618753541057,-4.242188924805305,0.1180851456374512,-6.74087097166921,4.0992800446529145
1.4040000000000001,-2.364120925685711,2.7122643036327645,-2.43152789040505,-11.325951689441354,-0.5664041729633027,0.5650386778561369,-5.580310649311286,5.004589097763528
1.408,0.9734884123627126,6.516720352803532,-0.9360815844047465,-4.541083750895268,3.8263049053402938,1.6493271731669665,-4.091981345378372,6.312010438516154
1.412,3.309242352320325,9.293467825654261,0.9166700165451402,2.3964361129765166,7.99792388885362,2.875202847055334,-2.766294280118018,7.388533822620957
1.416,5.027991574583211,11.226644659207523,3.06410002181201,8.342404452929259,11.363688747002925,3.875910736835067,-1.8825521798444242,7.801452680321745
1.42,6.877574917482889,12.77055219090471,5.3647796132390795,12.886887231106812,13.738495147070353,4.5520768058158865,-1.5135474159997102,7.536555675051204
1.424,9.341534357652563,14.191211106230185,7.491267797679939,16.246464205396478,15.168415206204372,5.0365858794721134,-1.6259087420039577,6.982734058407004
1.428,12.229915219671966,15.309566165990873,8.97831715059965,18.88160235700707,15.706620461955026,5.55079638521056,-2.1791413209721213,6.698834112059558
1.432,14.732558041465381,15.607414680806869,9.418013509306547,21.077112436931202,15.296928790391576,6.254326739855969,-3.1537451465010236,7.0901070509044075
1.436,15.858501762685592,14.599681318279181,8.673910412702753,22.692066394865833,13.818064318254073,7.170322033924094,-4.506173115754791,8.16866356090759
1.44,14.993331472885075,12.236451801552903,6.985786626955814,23.193028638119358,11.241175196525546,8.20263293989592,-6.086340523357649,9.522287585696176
1.444,12.233047891059869,9.053274477419109,4.87386056784635,21.908164072487125,7.757225912944705,9.186294007220567,-7.6127169614374,10.492946113170547
1.448,8.297298278666858,5.951031190824324,2.8822812887046894,18.34744493217113,3.766064721056864,9.92437116113615,-8.750741327748983,10.451401126041674
1.452,4.116655293118129,3.7420284803838513,1.3311050423253619,12.454014867302249,-0.25346742270448885,10.199864933254503,-9.238295731862308,9.048596399241433
1.456,0.3778749082630384,2.733485197446498,0.21611820779799018,4.701466209655337,-3.9033567725673493,9.795769583417496,-8.981422866019784,6.347612989557092
1.46,-2.7001635423157495,2.599304030401072,-0.6964554377400418,-3.9655482203415886,-6.950036640914732,8.56313760647754,-8.073477507781718,2.7992706588465808
1.464,-5.258920376427341,2.608689274215976,-1.6571018242566424,-12.313056908675208,-9.28749498552861,6.525763957979507,-6.74168768898744,-0.9115137924636656
1.468,-7.475267685160361,2.07815209234559,-2.7391976691760647,-19.066822711722125,-10.82496005028861,3.956790422238555,-5.271201167999607,-4.09396769324303
1.472,-9.275971765267968,0.776161564668655,-3.777950028437772,-23.181446958631568,-11.408098562903433,1.3571116634411737,-3.9604484189403593,-6.282530745251279
1.476,-10.289133609605415,-0.9485290716384043,-4.477599057514453,-24.076553558692467,-10.858995985689035,-0.6823851129120158,-3.117865277079545,-7.3829825211087154
1.48,-10.06053291351418,-2.372254344896646,-4.60648247154586,-21.787187270656432,-9.12157837718587,-1.6917136384163314,-3.056800466558343,-7.68671985700712
1.484,-8.394862085115165,-2.811398770599226,-4.152970458999334,-16.985064022719598,-6.424413013510275,-1.5128031101849047,-4.038154386733368,-7.754320464242483
1.488,-5.577714191847917,-1.9970207825090256,-3.3467913179820243,-10.82714764715638,-3.33455074813628,-0.3697497242028476,-6.146243022461931,-8.198255417764813
1.492,-2.3308404861909366,-0.19245433208925533,-2.5314149220566833,-4.651584214669128,-0.6220804620388662,1.2160327840138052,-9.138122722521075,-9.42559514192908
1.496,0.46515202626324026,1.974793955900168,-1.987377978409313,0.377765755278233,1.0092845243334523,2.6204942830190703,-12.385833246336915,-11.450744499969005
1.5,2.118214084124702,3.8452913575856655,-1.8094926664207378,3.5588608361977094,1.193168525006513,3.326053949109337,-14.994843690821654,-13.863364682332758
1.504,2.36125001225264,5.029602021522805,-1.891091974441224,4.772689382165481,0.033508629531752376,3.0580032278558065,-16.095729240520086,-15.982224893155944
1.508,1.3681122081343347,5.518946561871417,-2.0037312547246984,4.405115376443064,-1.9689689251426898,1.8161058866644453,-15.188589641642466,-17.13399908879728
1.512,-0.4122155016029865,5.576143025775309,-1.915708401500524,3.1207456795455073,-4.156094754897822,-0.17538158165916684,-12.38269157141076,-16.937284016214107
1.516,-2.4788701809502527,5.502489448665983,-1.4910052900631854,1.5849728448120004,-5.994986750655698,-2.5449961148478906,-8.392685184737275,-15.443926216878026
1.52,-4.43602340133657,5.435123118544652,-0.7494483984628459,0.2392065728599846,-7.277632541289677,-4.8481193614898075,-4.280657483552204,-13.096365923047415
1.524,-6.037352424096753,5.286670133398729,0.11116977818710438,-0.8046095831159619,-8.156800809811102,-6.636895110608748,-1.0579339179785165,-10.52957299186528
1.528,-7.182804115795079,4.834369808602787,0.725180023273424,-1.7437414647811238,-9.022287333516033,-7.555489320366178,0.6650839614085271,-8.323731449017941
1.532,-7.920793057695846,3.893107143137968,0.6223036274095648,-2.961993858572896,-10.287753436545245,-7.449074974414543,0.8275372424668603,-6.837090273973445
1.536,-8.452394755768182,2.4699320697309304,-0.621852871050578,-4.842212791334532,-12.180192269614054,-6.432889854295354,-0.16929570742649958,-6.17235081187755
1.54,-9.09059769252417,0.8130321429362084,-3.1737312203531474,-7.575090352420375,-14.61704078623552,-4.872824419253448,-1.7238741490327811,-6.270943639090547
1.544,-10.13188119559345,-0.6610478648017306,-6.7464307454956725,-11.01881212479202,-17.196776624438826,-3.2471159694250673,-3.3219666447312193,-7.034134168203309
1.548,-11.648810480957764,-1.5112672994364402,-10.533855818310258,-14.648065106688591,-19.282905687298808,-1.940304914405715,-4.697875196692621,-8.363856426891289
1.552,-13.324530170595608,-1.4263380210013565,-13.377929961965492,-17.637539672674393,-20.165529500198318,-1.0857712829056254,-5.819738127618621,-10.116507719805668
1.556,-14.47318440500203,-0.33612317679217085,-14.172850050148554,-19.090028490238183,-19.270880240950646,-0.5412815689269337,-6.748676799259556,-12.023244414951478
1.56,-14.29906834607209,1.5639669937500003,-12.338602468682438,-18.334862116002114,-16.34047235927028,-0.02282706740879803,-7.455312384399804,-13.645919654481986
1.564,-12.306828477070667,3.873878430305922,-8.148489867957323,-15.194976481139747,-11.536292608132499,0.6735046052308462,-7.721884736871289,-14.456781185275759
1.568,-8.660019340719373,6.1071579018735065,-2.7122956386610895,-10.104025625851136,-5.426590074088381,1.4963525285747892,-7.188448621502175,-14.034971517157828
1.572,-4.237276463412854,7.8495982321474,2.4456103819011332,-3.9964113162532158,1.1721501092742983,2.127036240119196,-5.50472801504111,-12.284594598433614
1.576,-0.312017331692914,8.888987875167004,6.015612359991792,1.9805757449921657,7.423271491174091,2.142610951887036,-2.5308194356221065,-9.553290267387638
1.58,2.002997102945301,9.264508078995277,7.4410060674345,6.821820838211352,12.680876734057165,1.2582118889986305,1.5092872756904399,-6.554186444824154
1.584,2.263443586141875,9.208169248715421,7.088841158680225,9.933637835165428,16.58939211350662,-0.497291833115014,5.999485560023459,-4.111087653924187
1.588,0.8796707721758139,9.011003027002516,5.9757682444869715,11.225747943693932,19.053014404751593,-2.7724251283652848,10.07332285557277,-2.8312018761134823
1.592,-1.1401584252744215,8.876517334380878,5.199215045684468,11.014358961505422,20.116897885821345,-5.058141570492808,12.879811040304048,-2.871136916179239
1.596,-2.7545224675618556,8.818058206969454,5.367695955926592,9.800573108885146,19.84316927948703,-6.910850420134011,13.875986958593785,-3.915904507628511
1.6,-3.416871890211951,8.673886955441958,6.347799561957345,8.064345369325565,18.29416191716382,-8.086247806717438,13.048593584326227,-5.358246703946861
1.604,-3.2860889749053968,8.220137495954987,7.433723104623823,6.148144015061916,15.623723446657095,-8.52487296263098,10.93973337693933,-6.596764401749169
1.608,-3.024241636323495,7.306693985530728,7.8089079201781715,4.230927741329651,12.193357890279003,-8.241132705701602,8.439578399880702,-7.318653317139251
1.612,-3.301509701412215,5.96121764243253,7.049505362974742,2.383791658539849,8.626978377566047,-7.212822105146188,6.440460567893751,-7.607768386544194
1.616,-4.3418263395196846,4.378067103654757,5.359062965068006,0.6154067066545394,5.695489854664629,-5.386196665465832,5.485197542719106,-7.85217939967697
1.62,-5.800369238195344,2.7963314449516474,3.417396238386573,-1.1244689335835574,4.037031744732303,-2.8034990189225937,5.556102920352714,-8.511205085174879
1.624,-7.034732871990855,1.3539859168704425,1.9574966696454794,-2.9527761505523813,3.842977039505058,0.24562298116870807,6.101535269543092,-9.869033901450166
1.6280000000000001,-7.570392195844761,0.021691924155675224,1.3433576322440786,-5.0140144156212045,4.70772806612149,3.1835399924893863,6.299858824128023,-11.892268409996177
1.6320000000000001,-7.450970085119479,-1.3334100413812848,1.400821853958405,-7.365113029722124,5.761948346047575,5.294203695437318,5.432212571082346,-14.251747638609231
1.6360000000000001,-7.247610962174804,-2.798740602336693,1.5863729614593467,-9.835017819676068,6.063477865678578,6.015567963702779,3.2082913239937625,-16.466967364038283
1.6400000000000001,-7.690695601315383,-4.271141961538888,1.3861762405213085,-11.942560843037427,5.080162697729975,5.215540903289366,-0.10146639427330229,-18.094281654121005
1.6440000000000001,-9.143891871250162,-5.407268139337248,0.7110768890688632,-12.952959029369595,3.027897949999897,3.2846076800633455,-3.7527771662535088,-18.848634133129963
1.6480000000000001,-11.271175054256673,-5.739129677876917,0.02661298110797361,-12.118609814298907,0.8547194981729263,0.9489743648955482,-6.790103856325004,-18.637028185097734
1.6520000000000001,-13.093924044018422,-4.885208568928647,0.14858115020251716,-9.008812669550025,-0.14122607886565675,-1.092282864075969,-8.357419132033101,-17.516919168141612
1.6560000000000001,-13.453883872538427,-2.756984979826484,1.7972620258296956,-3.793701041922759,1.0873671450144684,-2.5159995533285837,-7.958664802818021,-15.631676111304841
1.6600000000000001,-11.626287882892939,0.3631627410231886,5.1595563924620365,2.680204608992426,4.8012223592922965,-3.5177411132171983,-5.600491195891664,-13.187052241257334
1.6640000000000001,-7.72050980666063,3.9434922924046987,9.719030148164165,9.115159461602161,10.28763686439288,-4.63828200009084,-1.7753465210662398,-10.444495650364843
1.668,-2.6509011747584736,7.443117018472549,14.430524774277728,14.204709891106177,16.100691526384253,-6.372534128408006,2.6662065792152134,-7.710773695813259
1.672,2.3069217896882037,10.551942582505944,18.16217936771318,17.113174032316238,20.628660749003757,-8.789553940419864,6.733701467524952,-5.297141306939011
1.676,6.086359661991082,13.264878580772347,20.151938075248836,17.74232150967873,22.707428753971726,-11.400903617854055,9.55996372879963,-3.4519445046098554
1.68,8.205580670548443,15.74481426093007,20.256770251255148,16.64494058614946,21.99794934653437,-13.366551442166383,10.651741212494017,-2.304000886531867
1.684,8.787737120852398,18.076369221073946,18.889560679892384,14.64111908315499,18.98887999681301,-13.923317006934667,10.038966959824393,-1.8494339223834686
1.688,8.248017979078213,20.0602765540998,16.714898013482525,12.324910715658916,14.665223009283181,-12.808016810558911,8.28099351063429,-2.0031138660760917
1.692,6.899970731514259,21.20661901744188,14.303836723138375,9.741641954176885,10.046561604887756,-10.437900184679165,6.259748239288456,-2.694019798655063
1.696,4.791244363086662,20.97970028134023,11.953241430212074,6.4474684728411376,5.844941084584207,-7.727295979246264,4.826504779191964,-3.920518103219365
1.7,1.8597092728905409,19.159900429237496,9.739325106930664,1.9279592217717436,2.381996959391472,-5.63039870290595,4.465995658800239,-5.699944308013073
1.704,-1.7158671871620754,16.1160553509053,7.719022766058515,-3.8515111883243662,-0.25760170464855037,-4.650957417339669,5.112711992303957,-7.924267764377873
1.708,-5.257906773475042,12.788778912290582,6.097835721910087,-10.100319992456207,-2.002652350733115,-4.592084420488391,6.226676537422463,-10.213947533191458
1.712,-7.675046568954713,10.349196935266264,5.227067147858179,-15.302425951847908,-2.6679290346792186,-4.696144617610116,7.1094166748807766,-11.889187031407346
1.716,-7.925100549991839,9.678544583295661,5.404308267714441,-17.780335782083057,-2.019714241577276,-4.103381496610382,7.277634265752567,-12.137665466580074
1.72,-5.619480598883456,10.927111828859779,6.603351522613593,-16.474317863849137,0.01173335054772906,-2.3915818765581207,6.695072645545224,-10.351546764286468
1.724,-1.3728096527702291,13.428042101104438,8.360766289564708,-11.512802922059564,3.1649292127176523,0.1086716923637141,5.753012764613231,-6.465899834847733
1.728,3.3663544174960407,16.030462398230156,9.933821956293286,-4.2395567030216625,6.863580464894767,2.4119831176849402,5.025241254166758,-1.1011242006425164
1.732,6.976649926053142,17.69335379526092,10.683333067435342,3.356939680284995,10.442719226594818,3.3407148514670553,4.945527735226278,4.579408431698539
1.736,8.493975563223103,18.036998902337473,10.479416128855519,9.547453384451728,13.479270051399908,2.1235109002500394,5.608090563902806,9.284228087832162
1.74,8.14493488509288,17.54073626808986,9.868433665827979,13.62846468636235,16.013668898681317,-1.184505562796403,6.7988301878122,12.089212062839579
1.744,7.215237121357859,17.2517767804693,9.839988123154399,16.11997074871033,18.492292978849036,-5.686058458442858,8.188572660834325,12.770743207951455
1.748,7.312977013367345,18.160375379315155,11.28283596147321,18.297106580799664,21.430610579245695,-10.037960537421895,9.545264390491866,11.828722322587055
1.752,9.437362753108573,20.597572656352895,14.431718331229604,21.328290449137057,24.985822198725145,-13.053293906403269,10.820676116101822,10.198749671799305
1.756,13.36525787748269,23.97999763788539,18.606954098296228,25.49457611728394,28.676334212793336,-14.197138106481361,12.045810463163434,8.813175507957567
1.76,17.7181977730952,27.047465284350437,22.420701791315878,29.931131382842068,31.43911928073976,-13.729974397963815,13.143143270781366,8.233790508609673
1.764,20.68825176302107,28.479160363802293,24.387439662412362,33.0467723673064,32.06059192342673,-12.44765781924798,13.83319558396579,8.533895534967087
1.768,21.016585988080806,27.55747047454861,23.624751208292764,33.38362241789946,29.77743373839894,-11.169864546665849,13.745378076959241,9.450679046272853
1.772,18.63809323685018,24.50281290101975,20.266074334126642,30.406984764038498,24.72448939838614,-10.29375031334348,12.675417433523762,10.634838436446444
1.776,14.633125998566356,20.319422319486875,15.37892444488898,24.788718428277207,18.000460704068246,-9.647083962710894,10.82867942179655,11.839160026695026
1.78,10.555472550893683,16.270182915906844,10.457887036950524,18.053404359485285,11.301131018562955,-8.686060853826348,8.863030622140286,12.96606246327974
1.784,7.54884411207513,13.279995812712514,6.768411520106383,11.810044468467822,6.2831254914162855,-6.892250705166589,7.638584313335741,13.98443482251605
1.788,5.771536228028708,11.574132535741228,4.872197779838643,7.019009857162018,3.9484107324533397,-4.126793134926629,7.782470564288815,14.81242591220871
1.792,4.486200224407185,10.738472999933037,4.55971125677479,3.7190230278774834,4.330028235084683,-0.7426158554408175,9.300214343256812,15.260421853481603
1.796,2.722254584089569,10.119386578975536,5.167339433222878,1.3250646528704237,6.602891358378656,2.5913683646904246,11.49345741189245,15.081968701080768
1.8,0.06662281805802195,9.285462907306282,6.04527090888223,-0.7385121220995643,9.528806833030103,5.235279081951376,13.278513366114566,14.110760395187754
1.804,-2.9233258244821627,8.276072110038513,6.884121441491516,-2.496995666764633,11.989992332762085,6.873092262470891,13.731954666172896,12.36845205892314
1.808,-4.971123623213316,7.5019535722567525,7.7379060353168825,-3.3361610172578366,13.356482504276755,7.593446252751164,12.565409679074946,10.074447463739489
1.812,-4.841098961291209,7.406344013177659,8.794610468569772,-2.4032897148026677,13.565103735915727,7.743149713362072,10.254130714947678,7.561582977152284
1.816,-2.1340672169808386,8.129515303565313,10.099325051683081,0.767130092754087,12.951827847100503,7.679842448278578,7.747444795040792,5.168600365672319
1.82,2.370514516393996,9.382503278886361,11.422917886650794,5.797737644326844,11.962531739171936,7.582360632497512,5.926055635593002,3.1677383994210686
1.824,7.058713343364616,10.614542507375518,12.36831057053314,11.487624409448472,10.916617750484875,7.426624645748234,5.126635773413,1.7427621135684603
1.828,10.30287464250614,11.331932522777606,12.610813449182388,16.29665149227003,9.904316214912797,7.104449887403462,4.996845274341467,0.987102099799813
1.832,11.280725330851055,11.372812720324873,12.112290066233982,19.028011351774694,8.836089444238496,6.568773579541812,4.776304172908567,0.8950692366124713
1.836,10.332074779601498,10.976907055013726,11.166353977625477,19.33465020374115,7.573703269513317,5.893971922054334,3.831965823104838,1.3388675963069545
1.84,8.642918460045621,10.595116992406474,10.230589845939903,17.762526582359897,6.034812860696547,5.204512641304973,2.112895980293615,2.0499274622470693
1.844,7.48093998454442,10.59247424300247,9.678386646170111,15.355308510200302,4.248789754140489,4.538627190266197,0.2650236109038815,2.677476514058071
1.848,7.454206130493731,11.03099796094375,9.627543749157667,13.077208554980643,2.3560923108580027,3.766491770555149,-0.6708889525725681,2.93601749381196
1.852,8.228336172626769,11.66877468117309,9.950859293536269,11.384578792434695,0.584146030148986,2.637156052320279,0.1835860721039353,2.7616226578338683
1.856,8.844426938764627,12.159689361553319,10.442830223122655,10.15798047854696,-0.7806771248706355,0.9478064221566456,3.04254676326309,2.3797904254442983
1.86,8.41671187056636,12.30726425370267,11.00640073111299,8.975475020819431,-1.4302814382062934,-1.263061619734799,7.300917673823278,2.2226108710601693
1.864,6.766651630100569,12.213075347842278,11.73602001519157,7.517662539529738,-1.0907814884676554,-3.6287290453965397,11.80886386603197,2.7171682955886354
1.868,4.585577096882844,12.20739220062842,12.821845946384201,5.826586439164203,0.3785849412670359,-5.542136892203416,15.411652996304838,4.054597956668658
1.872,3.037309525033379,12.616596549300994,14.355085464148033,4.281396265298099,2.8844549540581284,-6.385997104203852,17.461434212447784,6.070883628179217
1.8760000000000001,3.0555031185458574,13.523612980253347,16.178125709253436,3.344726515671937,6.054633898177599,-5.784782800683388,18.042209524204736,8.322829429622288
1.8800000000000001,4.750197510787075,14.658946821152313,17.879127393678573,3.2594481979858756,9.283809176670275,-3.747868749407644,17.800076881109817,10.311901091412437
1.8840000000000001,7.2972801901605635,15.518422975273097,18.962214077083445,3.907879080942621,11.894432802990195,-0.6373548991286953,17.520829047161897,11.729167651223179
1.8880000000000001,9.373699094344374,15.62608740586802,19.078824230110513,4.902143377476023,13.336359628925038,2.994804055939312,17.697178301552412,12.561450329074432
1.8920000000000001,9.883877152831701,14.790394101367383,18.18752653019328,5.833282710702406,13.34887298411104,6.603416710790043,18.311754234492582,12.995121184820164
1.8960000000000001,8.556642778558853,13.213237025565832,16.549698433131198,6.514711568564053,12.02238189269201,9.785220778192524,18.946428284873946,13.214616558869238
1.9000000000000001,6.090621687417297,11.398917745003928,14.5784500953323,7.070051549069831,9.738546833166765,12.301783322525807,19.129521901548287,13.251992733486986
1.9040000000000001,3.778129998474469,9.919185909307998,12.629824879597436,7.813955887312659,7.018032945206869,14.028091662841689,18.660238908442807,12.98681523182313
1.9080000000000001,2.8072077655124303,9.141132019160068,10.846033173499563,8.994967846858344,4.3351700377334055,14.888230174467026,17.70923786171079,12.294224526223843
1.9120000000000001,3.6549368071282515,9.082181778328504,9.155349635105267,10.583451945112756,1.9981225392316446,14.83896170213302,16.66169668647308,11.21552102698297
1.9160000000000001,5.8800379637687,9.444897005896564,7.399173790389796,12.22780774237981,0.12128964458179325,13.908369905220752,15.799793247209891,9.99617576879973
1.92,8.402884040716344,9.792015795932457,5.494355283261029,13.406050189518282,-1.3196741448050489,12.25913768022292,15.048386134415523,8.953063090646538
1.924,10.118832417233534,9.789919971756717,3.5554933827334025,13.70626237390934,-2.3673556693170212,10.230539663463787,14.007239901353387,8.275345733181894
1.928,10.485478989900912,9.38109163524723,1.9097075970339574,13.06751846922998,-2.967119944269143,8.31422045556792,12.284276072435205,7.923922003275948
1.932,9.786800230142035,8.81770219864029,1.0156230598618095,11.851028596161086,-2.90550059181669,7.040880015058974,9.928469841443984,7.725062910178167
1.936,8.948442562757009,8.540729407572144,1.317017082728853,10.684665500195479,-1.8481169756842064,6.804963222635706,7.658158345850097,7.595483437715302
1.94,9.010858777100111,8.949693444593322,3.0700958301717947,10.143509939161959,0.5153583761634764,7.696119651396657,6.67858602027809,7.72173941571873
1.944,10.546615078846571,10.175206338521093,6.194411817148193,10.42553893776585,4.267443293082124,9.400428437372284,8.089619124277306,8.500189318297089
1.948,13.29021377501158,11.929671826851973,10.168004107692923,11.166343193774992,9.054374830530833,11.218245155075238,12.136023351054064,10.188739163830178
1.952,16.175100808746265,13.53675869309518,14.045741801181066,11.52301902862564,14.010716359620346,12.237158306454148,17.75095114604028,12.477455660180567
1.956,17.747718158341286,14.142788830151403,16.63729977994899,10.51226413036784,17.897266396392297,11.630861058978553,22.7178749601826,14.311177396793937
1.96,16.776095851605533,13.040213584344201,16.83951631949776,7.461359056618676,19.450674805167182,8.988639862069249,24.48137262934415,14.190618469696346
1.964,12.780231541899411,9.97841127224001,14.045706098803294,2.366440876939123,17.84621254838021,4.554277222667224,21.2837269534175,10.890840273054891
1.968,6.305098890699355,5.346877076060082,8.492217999375498,-3.9858483090274603,13.106447434989605,-0.7333903626613392,13.105654424512977,4.275390951148438
1.972,-1.1725558540297243,0.13887866482582467,1.3703934071718322,-10.199957412515687,6.269918925819638,-5.465610467418628,1.919878811907438,-4.276703329895099
1.976,-7.696127177103335,-4.3318194114381185,-5.430822625641213,-14.714288710245455,-0.8218766859108655,-8.21179061866951,-8.940138622426275,-12.182103578554234
1.98,-11.451606155748777,-6.858517182753076,-9.909487518689275,-16.320588472805866,-6.086405965037102,-8.014705537827467,-16.030685061482473,-16.642147066655525
1.984,-11.352506040640492,-6.748797703806304,-10.655988095461908,-14.556139520777833,-7.912838371978978,-4.736515228460121,-17.11945104883125,-15.867017123129699
1.988,-7.409081989946117,-4.071467051023774,-7.409726108781797,-9.83204588092758,-5.7539569346554345,0.8995514028129037,-11.992947082169849,-9.903861702478025
1.992,-0.7416785763293774,0.3674884453826053,-1.1965443852777753,-3.2550635240013435,-0.3299594893142057,7.592770092032879,-2.3960694336337838,-0.6249677013584005
1.996,6.7777654243409415,5.307472505604892,6.029641963210452,3.7567207792462796,6.651247405763115,13.942322954835618,8.802521463357152,9.120873703159305
2.0,13.142438549574763,9.453217882290119,12.100091342720589,9.901312595158743,13.140315608224682,18.904662242177437,18.778298850195824,16.755204543851505
2.004,16.880641024661145,11.89174746887602,15.425090138074665,14.320454038042044,17.511021892934878,22.046021374639167,25.731184326674338,20.987524880079036
2.008,17.537858331835196,12.344511561907439,15.522881880795012,16.734480629900645,19.112681914350105,23.522497565863887,29.281952135510437,22.124101855544723
2.012,15.788511811314038,11.187067737406778,13.089167807811918,17.390097544270247,18.394301710556647,23.846961695720893,30.20727313622956,21.57827591462592
2.016,13.13116333852713,9.259846056866536,9.620415376576602,16.880434050519398,16.588646004940983,23.59204809019502,29.773588514313815,20.934644631106494
2.02,11.274854656528078,7.53817590581275,6.780959569639435,15.906667483811361,15.114629441949091,23.175667927508584,29.071380102388503,21.10480570872187
2.024,11.443979199106707,6.776461968345302,5.785523818831734,15.047840603838722,14.974583799852098,22.793863162980415,28.64174121718679,22.003761758222936
2.028,13.893133836964353,7.234056450754906,7.014568545307611,14.58643875741518,16.388046518041392,22.465725608741195,28.467844340886586,22.82001742252396
2.032,17.838041357724705,8.588874139841664,9.995857310916108,14.444869580657269,18.810508095764817,22.105290268297722,28.24462633386611,22.63948125107163
2.036,21.823176093932034,10.08054280507622,13.706471477604737,14.261066918846609,21.29257304176099,21.560933032585126,27.708516776113356,21.02967768482904
2.04,24.363106972929927,10.83078089570381,17.01883285436361,13.585175780230657,22.970837890103212,20.625038435020542,26.835312849081674,18.26585556682403
2.044,24.58224362051442,10.240502412671503,19.121899835620752,12.14687277967596,23.466556987026706,19.076829710047605,25.857366215315324,15.157618901223032
2.048,22.575828332875062,8.30230409403066,19.76673811888486,10.079557598562133,23.011870083526446,16.80005793616874,25.141831116443427,12.655104089358247
2.052,19.309346408606416,5.656357548948563,19.249032378286756,7.9522918659072275,22.248382162690405,13.917135840376432,25.003506279534122,11.453630016836541
2.056,16.131586312113996,3.3556022140237474,18.188667604238617,6.576146628326569,21.840953901861212,10.862826836906606,25.577613709969683,11.798355015015659
2.06,14.13476664622931,2.3982103156713492,17.195531625355216,6.636340493064836,22.09087752877258,8.30680079652393,26.77469487753706,13.500934714452342
2.064,13.664110734554015,3.2311502093416493,16.569682911644577,8.31838102549409,22.74291248322743,6.910146455314134,28.30189356837309,16.074653660974036
2.068,14.216714380339909,5.473871954521201,16.161252346030324,11.13638550074802,23.08240567932262,7.0210099584783165,29.732624037398637,18.886084560462223
2.072,14.768649942590855,8.032963977188501,15.455080883495384,14.0889256204282,22.28148249882952,8.48093594425336,30.618194708122246,21.27553625098244
2.076,14.345806691958387,9.579543415580929,13.83861637059863,16.083706778781107,19.81541342896162,10.662194947360149,30.596944135738795,22.662360743725003
2.08,12.547402187490206,9.170538481493395,10.923828621098892,16.43007390275079,15.738871295206991,12.751348224838694,29.477710550132088,22.666332032236824
2.084,9.73910352198709,6.7092637104917685,6.778692707357095,15.134546163020332,10.69065085760576,14.131909242306392,27.284073069181886,21.216031818388274
2.088,6.815865543421296,3.0003055279362343,1.9501239974592863,12.831834963231358,5.618919841953129,14.646694971215311,24.237538290188695,18.582923336553904
2.092,4.663399512949354,-0.6452035010183863,-2.7360045279565384,10.387887600471004,1.3699017183535034,14.576961729727373,20.68769480927631,15.28073396963373
2.096,3.6394383331746667,-3.0357312103299137,-6.476848728835648,8.41886610457368,-1.6309572047093752,14.362818789184075,17.041759302693663,11.854044148760295
2.1,3.374408699159403,-3.6342201907359595,-8.747242276328961,7.005986024362301,-3.4451763475453845,14.242680284244216,13.726214042606443,8.67038532354809
2.104,3.0026381163668248,-2.73322219161696,-9.39795153655109,5.75317767053366,-4.420503413142569,14.031690502900346,11.159445336570116,5.829201707573702
2.108,1.7135908288078099,-1.1971467061200656,-8.579203092671378,4.147852772475744,-4.855577846108645,13.213976235638711,9.725346528508908,3.2609770391864004
2.112,-0.6831581608360011,0.07083915538510155,-6.5669978008479575,1.9941821828215325,-4.725389243682912,11.313597059698623,9.70434338306768,0.9554799436045869
2.116,-3.51863710041016,0.6203653193229002,-3.6373260222178487,-0.3736650057649058,-3.6603016179597034,8.305450692731938,11.144849457021337,-0.8809779664779853
2.12,-5.527279445080239,0.6218631058350184,-0.0721950552774615,-2.2407306159634572,-1.2111647228255151,4.801453771023716,13.740564157912104,-1.8711064259823615
2.124,-5.494759615109388,0.645199331471531,3.739908581808095,-2.9327506785743935,2.75004637703114,1.860286573182293,16.799472237801638,-1.7264636982413322
2.128,-2.941963632576517,1.211669666997068,7.218618461713277,-2.240370735369652,7.728692638804205,0.49835791984560274,19.371928111474062,-0.5629305825041229
2.132,1.531026382234586,2.4063422625540625,9.654910408086607,-0.5611199536265303,12.622530807004978,1.1617277316017862,20.54875210660839,0.9716315612681683
2.136,6.451209951367218,3.7916176391800036,10.452379433856777,1.333801885681396,16.084274396906267,3.452691571428659,19.806412825915686,1.8997402092736593
2.14,10.14325782516039,4.6538044301594255,9.42138985937072,2.7652292522245716,17.055713841383294,6.277041514834764,17.210578246068508,1.3864162330473846
2.144,11.519301804525412,4.430455607112663,6.953881512162297,3.5577128323834586,15.22664140147117,8.348179526806234,13.394344725240899,-0.7577195715166454
2.148,10.560322637225909,3.0364366516841983,3.909233679097497,4.107348579560721,11.15792434111836,8.778950498880931,9.291720562312094,-3.8786864897274427
2.152,8.263361321748107,0.9169086788240293,1.243432077837042,5.067701751858749,6.0255065842227395,7.4568882618596035,5.761060357349834,-6.74548912935461
2.156,6.0767581355626135,-1.2058967390801172,-0.4525523827201141,6.826895905276388,1.1048089798298406,5.007837980113436,3.287341969895351,-8.186453880354748
2.16,5.138170654399801,-2.7367056548471282,-1.2585160333351268,9.103255952114978,-2.7515046675604253,2.399548005088036,1.8808541409775899,-7.752730451428761
2.164,5.718008861465023,-3.5221340348539343,-1.888729906852177,10.921858175608577,-5.391359394550136,0.41689798966399394,1.1818445751493982,-6.0313947388413
2.168,7.159161234311796,-3.8859099105670794,-3.28781013218736,11.033158464383405,-7.264979495848365,-0.6953873332622607,0.7187000982612517,-4.365693682012534
2.172,8.298457706914178,-4.393478209656905,-6.073671383120654,8.545308394886888,-9.046275359012725,-1.2593354154250846,0.1439502426899253,-4.131403732331364
2.176,8.110053831730283,-5.506923114659912,-10.146872500928112,3.417196587606213,-11.208270374898234,-1.877754102630206,-0.6651428437862705,-5.965675995554193
2.18,6.222654979773779,-7.3306803388261415,-14.680550654307126,-3.460052739915227,-13.77403662749623,-3.024726029093017,-1.6322501593563175,-9.364141176385147
2.184,3.061171685043746,-9.573666795016152,-18.507751010228844,-10.639251761827836,-16.351396711876305,-4.7538603834543665,-2.590908002277274,-12.90573021022874
2.188,-0.4252106172684762,-11.73160414789345,-20.707480799546943,-16.736898992107854,-18.39983872232392,-6.66616632100795,-3.390765306863841,-14.981433290540053
2.192,-3.2484801444188633,-13.344191695430027,-21.05479689383185,-20.948265833684445,-19.54047423402426,-8.129989349598873,-3.952687811362921,-14.633885400780628
2.196,-4.793433039223942,-14.164318855586089,-20.084418594726003,-23.19937059736708,-19.720780343513752,-8.60984894379817,-4.262743024210067,-12.039546227875235
2.2,-4.982197249173851,-14.178023288507575,-18.756493504198033,-23.913039075615416,-19.17088920395372,-7.921571468697039,-4.355557143999704,-8.37736628093262
2.204,-4.1505864129889005,-13.482315194827947,-17.904287643550674,-23.55804824250481,-18.186290032456327,-6.286963043239211,-4.291009460933083,-5.164432247431705
2.208,-2.7682536575500762,-12.137612539747124,-17.77685910245441,-22.284483711672692,-16.892273638008078,-4.194431270364248,-4.125524867617969,-3.431035582673303
2.212,-1.1863517833613741,-10.109945828253103,-17.92857935840766,-19.862027982223026,-15.153385593652274,-2.1639425751916406,-3.871141113162139,-3.2029790175286053
2.216,0.4388620084307604,-7.359931027156335,-17.528370354132335,-15.957776717924844,-12.71128451825507,-0.5549243405894231,-3.4715845600319426,-3.5888734356935856
2.22,2.0401657090121716,-4.0261953341482695,-15.913920185317465,-10.571537306365371,-9.480767697872011,0.49252089427727697,-2.8353593935894423,-3.404939917923457
2.224,3.494739777127279,-0.5473078030263423,-13.053337824603886,-4.326486804744945,-5.798488717588043,0.9974963109832515,-1.9199629021416058,-1.9592248712192486
2.228,4.582025169233702,2.3991432834732223,-9.636711468691033,1.6009503789218797,-2.434516211845562,1.0447768067965626,-0.8208204912373276,0.4848165334576606
2.232,5.073825469043754,4.133053622067337,-6.756084933865623,5.902121089385673,-0.31661340155517337,0.7278645196147409,0.17804047970912507,2.827443418965686
2.236,4.894957827569328,4.284069043850764,-5.3430723438222,7.6946201155740255,-0.08604115887862918,0.14752004020351706,0.6592201655353165,3.7702185431144244
2.24,4.238360891486764,3.018185545004826,-5.6708881052678635,6.928661732382352,-1.7157920827679618,-0.549910998274072,0.2637892702166482,2.6057768182713517
2.244,3.5146341985001754,1.0325627153582673,-7.2042461718622235,4.4103339091666385,-4.415284219119258,-1.1556631827891124,-1.0615020066488796,-0.29084856200233844
2.248,3.145005007809459,-0.7108246790110115,-8.883706310219168,1.4165133855694876,-6.920061792483011,-1.451801518252978,-2.9089720304095863,-3.5552188351005043
2.2520000000000002,3.280536133282567,-1.4299356456388068,-9.719452350306824,-0.9345255846965301,-8.080441745020778,-1.3358962844777125,-4.520303490256083,-5.511952053519963
2.2560000000000002,3.6374948183397464,-0.9125518045103149,-9.350295113050322,-2.209850874319045,-7.439806171435691,-0.9273692536590943,-5.13621721299819,-5.044470157830801
2.2600000000000002,3.5703535891724982,0.34903231540079105,-8.26628615154641,-2.811480929780373,-5.495522811760111,-0.5713573351137029,-4.432665670527285,-2.1842967447705632
2.2640000000000002,2.3988398590224733,1.4006925311259124,-7.533859263168438,-3.6440944585827992,-3.452719529174203,-0.6968287903558803,-2.76809109894225,1.9253192261551249
2.2680000000000002,-0.17536057125323623,1.3227274994875984,-8.174721945870203,-5.495036698921012,-2.596226185975013,-1.5823668277743081,-1.0584430416849955,5.647310082133799
2.2720000000000002,-3.7899426054044625,-0.26808745659127453,-10.544328392676562,-8.477055725500804,-3.605830176571203,-3.1592974562689733,-0.32100147460005246,7.693683909529
2.2760000000000002,-7.449529331232782,-2.9589604579738307,-14.033292396543288,-11.832789503753133,-6.16733276169532,-4.966207052213576,-1.0915552271105753,7.752325233055558
2.2800000000000002,-9.8799302717498,-5.683793944940646,-17.28121109369289,-14.233348083475676,-9.11395624990439,-6.313667665283788,-3.0663166850040398,6.544793374002211
2.2840000000000003,-10.082464899657111,-7.2265711090254285,-18.823873831882906,-14.449476775509368,-11.042332085202872,-6.602543220197276,-5.213227375154133,5.291768663488597
2.2880000000000003,-7.824825712426843,-6.846105041783858,-17.855811691680287,-12.047456239965982,-11.085260892170822,-5.641669239601697,-6.333003859867176,4.921878438755357
2.2920000000000003,-3.818039239495647,-4.694432216455425,-14.701383029915974,-7.721216703730079,-9.41076792513087,-3.785189477010931,-5.760136443854321,5.486577532963224
2.2960000000000003,0.5317899387817988,-1.7777448765207282,-10.716314938518963,-3.0512190731690225,-7.149588369855849,-1.790699209866375,-3.788295060690814,6.14282082853606
2.3000000000000003,3.7061505197250426,0.5317165532857473,-7.656516788104085,0.20489417409095267,-5.786838951698741,-0.4606141358975151,-1.562192434961787,5.699244157276098
2.3040000000000003,4.716595353378068,1.1930583077265453,-6.8195096726236955,0.94027502626966,-6.3312779549966365,-0.23974218447335716,-0.44717146269283603,3.4122762496015184
2.308,3.484347375029472,0.014921756335240843,-8.41190059167144,-0.8010383336449536,-8.74389007766274,-1.0004585267666926,-1.2536805238515285,-0.45900344722065256
2.312,0.8107481149912701,-2.2595957019817092,-11.445147199262067,-3.889791050872361,-11.928850308887718,-2.132496730676394,-3.768873198294898,-4.680810263324247
2.316,-2.046123456335465,-4.354030695180768,-14.216674833084312,-6.713280400848248,-14.29923110365354,-2.8928482012812538,-6.8570541427477565,-7.665599574620387
2.32,-3.988029032039151,-5.158417940998106,-15.16142501997632,-8.008970954349707,-14.645408220626905,-2.8328511520427355,-9.118922690640034,-8.366605472967422
2.324,-4.545246471605481,-4.307392343695824,-13.606024314225692,-7.455920410583246,-12.795288902050174,-2.0488233540082774,-9.695874706625773,-6.908028419650577
2.328,-3.988685841267511,-2.333855001817824,-10.057513953495743,-5.731353912769521,-9.713504260724164,-1.1074960614337215,-8.733377712698825,-4.568350708080516
2.332,-3.062483853159847,-0.3296955834325672,-5.904497003822371,-4.0398945670103785,-6.99546857096027,-0.6883933997286249,-7.254980911830103,-3.1074951885037763
2.336,-2.489577047182877,0.7034454730863331,-2.677946840299171,-3.3856678168580174,-6.004549731674274,-1.1477924632931717,-6.498473612946668,-3.774936106752193
2.34,-2.562582607233935,0.4099422167720377,-1.300960630699592,-4.020232131892044,-7.15112951858066,-2.2640004462675734,-7.1421964339458555,-6.559090134194321
2.344,-3.0252142601995615,-0.7575665711025863,-1.7053666585918563,-5.352709434857388,-9.688128015299924,-3.324298562289414,-8.89116286568651,-10.11059669556596
2.348,-3.2960766411018767,-1.8693731041614683,-3.0063148222328095,-6.357562201504379,-12.142825174215318,-3.5179050244802283,-10.696344807446053,-12.421393026508554
2.352,-2.897352885077737,-2.1356037079047496,-4.091095429845609,-6.218142889817159,-13.13131793252063,-2.4161093331233587,-11.44702043361599,-11.89726492831096
2.356,-1.8129893522518614,-1.4263984889095696,-4.2755757598829405,-4.81163255407273,-12.105979322737028,-0.2530782080885956,-10.70645166282975,-8.23471811491163
2.36,-0.5678792823624121,-0.38915321017816495,-3.6646735380912787,-2.770705931173552,-9.639485522569032,2.153319233493903,-9.03235136040496,-2.628439721633754
2.364,0.017257496082720536,-0.08892288015454142,-3.026100419448369,-1.1138356197071744,-7.1009939980338,3.8058768299654275,-7.671463198416291,2.8138938735223746
2.368,-0.7320981961313464,-1.378265421174433,-3.2710734763957703,-0.6764160694419843,-5.9140830840747185,4.035859662924395,-7.789220461295486,6.139082993864577
2.372,-2.961194997013763,-4.3688895129348,-4.860061047798126,-1.6830862892961704,-6.802424028995063,2.8208726209780934,-9.699146255623418,6.509817954328128
2.376,-6.1621543277059345,-8.302890471505009,-7.47973513505741,-3.6831061993120784,-9.418192169478345,0.7534083194825598,-12.583092344515421,4.552879207016872
2.38,-9.385169615610835,-11.915492045923997,-10.189552407715723,-5.8663277933382005,-12.557475963420018,-1.3149825660732404,-14.920841329842233,1.905089092948856
2.384,-11.67188354224379,-14.070269625938636,-11.935439533717044,-7.5466205757904845,-14.810207544898788,-2.742941741084678,-15.383109438375413,0.23166553223791198
2.388,-12.487259603117764,-14.311583060635485,-12.13233234212538,-8.516417196753082,-15.279835316829349,-3.4076786417549556,-13.667857986720378,0.2940293803651457
2.392,-11.937593038551995,-13.034347528407295,-10.981387253080754,-9.07953276091007,-13.992411888499532,-3.689051325862465,-10.778058693096455,1.5725305910320913
2.396,-10.659968913445482,-11.177737811967916,-9.318870718725066,-9.750520896150988,-11.767332054239773,-4.151744076501245,-8.51913659447007,2.668237561463229
2.4,-9.47299627704706,-9.65921218699009,-8.109720329906906,-10.83553783342586,-9.674149035436358,-5.134567449598762,-8.494460239134582,2.222017994464295
2.404,-8.962866172370923,-8.870697288296071,-7.87968966863383,-12.142506354016973,-8.389718861084475,-6.502113222862818,-11.153323152146754,-0.19328034119666881
2.408,-9.223199989395425,-8.53559892915041,-8.43582558348237,-13.011670627065314,-7.849902507054537,-7.696623355020847,-15.470487908778068,-3.7523268259678844
2.412,-9.840414645021042,-7.9564198234812125,-8.999286583806793,-12.61929887796191,-7.354902148626479,-8.043507018972377,-19.431118479209317,-6.790601713366868
2.416,-10.102248172840405,-6.465992462776626,-8.656679573875408,-10.375994811501414,-6.035980271525091,-7.120594739873013,-21.071782086588314,-7.704383170139863
2.42,-9.34267286699344,-3.8244449523623416,-6.871572496102544,-6.228760735461606,-3.4128522778627826,-4.980314303707246,-19.503730140120183,-5.8243653454810556
2.424,-7.254682344417688,-0.3360078527892938,-3.7590420884819196,-0.7273361256787894,0.287821923104957,-2.1229338276928047,-15.358167217144228,-1.7786549280253894
2.428,-4.049511161417058,3.3391352448791167,0.0018123958593605494,5.147066440765116,4.216477455071697,0.7432582806422943,-10.413680092427171,2.856557216781539
2.432,-0.42111943099200744,6.509088171878034,3.514416197162859,10.284905349955125,7.306779193567991,2.9920292033264104,-6.663737865879739,6.38459614324529
2.436,2.6658127756010117,8.703304067145154,6.0421206865986505,13.752155127796414,8.759095978165305,4.268900491250179,-5.360457194716332,7.816969536595252
2.44,4.285140919687137,9.719341640024709,7.2038525933403434,14.993887590882423,8.32941201094468,4.509597763677448,-6.54307949102747,7.250612430632373
2.444,3.8461266727282464,9.485104618954665,6.920756654406091,13.906909288116026,6.289090345018849,3.8187285168628478,-9.277550751363833,5.609069525600717
2.448,1.302467609175551,7.913221895486345,5.246035336092291,10.827216550710432,3.154079686229352,2.3401816001405678,-12.36465962995112,3.9785291623770718
2.452,-2.8124804230668587,4.89563377112006,2.2620368130948236,6.449579140137075,-0.6021174135319143,0.21673664569698303,-15.032926902903,2.9635094409140947
2.456,-7.524899260189272,0.4895956512830253,-1.8386277698224376,1.7024005577050048,-4.648185666568452,-2.3517022639275638,-17.19624179086918,2.449607352758221
2.46,-11.716505396968614,-4.855327267819803,-6.571848674653097,-2.447795481776893,-8.700150770423988,-5.036841843941147,-19.192012903710975,1.857888797394935
2.464,-14.47459750247856,-10.209962643708764,-11.052311501765985,-5.232943657449823,-12.343957724450775,-7.390757399527274,-21.218634664384354,0.6814446682010384
2.468,-15.392370123276805,-14.377990789408841,-14.153857731564472,-6.3161432484441775,-14.997779260066523,-8.979491394479965,-22.943280993322333,-1.0828357716484334
2.472,-14.685617078097835,-16.357773683840946,-14.94511697295161,-5.905563238959985,-16.108358153308927,-9.572468830732305,-23.58125778327826,-2.883351972801165
2.476,-13.068830126113312,-15.823563756192812,-13.202003580905398,-4.670605822469497,-15.504133129336196,-9.278600769386912,-22.432721550497945,-3.9829031457766177
2.48,-11.44933010588261,-13.349017768947988,-9.673822545694861,-3.467247871951713,-13.664558627372003,-8.531017539050708,-19.50876069589117,-3.979427229214707
2.484,-10.559397242539035,-10.205790441799081,-5.889847665701836,-2.9772008387917595,-11.673808326016683,-7.900969404834541,-15.792318222088852,-3.1288950528030455
2.488,-10.666981707590935,-7.780758142005311,-3.5066933077347358,-3.411619090170234,-10.786717938086554,-7.827701040911052,-12.871233105514875,-2.2410881244770735
2.492,-11.508352840688758,-6.913894985466527,-3.5168701447639705,-4.4403011911556405,-11.807559691538586,-8.423490451814814,-12.119710467287405,-2.2238975865907378
2.496,-12.480477667898185,-7.514789953013292,-5.756253822130589,-5.394159338591862,-14.6313945439706,-9.4628360185161,-13.916630853962715,-3.5572570363531213
2.5,-12.962611630354104,-8.64534849700749,-8.96583518106172,-5.612952584695677,-18.210490383580577,-10.546084461609325,-17.342409311932215,-5.993614791974551
2.504,-12.623383929982197,-9.045040884120795,-11.41432723132175,-4.771929907006324,-21.013907996633066,-11.333855456457968,-20.587772467118384,-8.669845295006098
2.508,-11.55562438179902,-7.817257701199765,-11.755821572768127,-3.0180737803650572,-21.761611881663157,-11.703720824781385,-21.874097456692652,-10.539910122706715
2.512,-10.17926839476786,-4.909330189347543,-9.663941561216461,-0.8558392918957907,-20.040277623625343,-11.739965836464762,-20.37389554307788,-10.867401836293311
2.516,-8.970701432211854,-1.1265862949042003,-5.909937202376227,1.1360575422354486,-16.460622670955217,-11.57559386725302,-16.584709519210946,-9.498372979363012
2.52,-8.18729989487349,2.295529447548688,-1.8888329627054645,2.5853118198358516,-12.295303258316267,-11.210861696822121,-11.978641067930312,-6.787741176184909
2.524,-7.721834764852929,4.329727115897754,1.1183719849572071,3.455131799891433,-8.808976144172334,-10.446523327249679,-8.167108001634233,-3.2983084022332605
2.528,-7.181216463922624,4.645973840784791,2.522636905608124,3.9519156515798386,-6.667269284986105,-8.991962178663925,-6.066158725254354,0.5037057877059397
2.532,-6.146194891798132,3.7001779875406555,2.551920217921406,4.279870990648078,-5.737608131661773,-6.701657456418843,-5.5358962441955555,4.360090481507996
2.536,-4.4633467327040535,2.3988618613201425,1.9037742930950117,4.406476897969924,-5.3577245977305665,-3.786225218140089,-5.667510671475156,8.108414839612578
2.54,-2.4004696260591345,1.5511238967347936,1.194226523878342,3.994987253425279,-4.868110294733697,-0.8365011964619953,-5.482488735401148,11.483547404234741
2.544,-0.5631583543129182,1.4301080213006117,0.5586631463760341,2.5575149901674195,-4.069582540891361,1.388847227264705,-4.586463155025513,14.002623792356417
2.548,0.4131935869042991,1.6975089993248957,-0.34488241151143484,-0.23054955602242444,-3.323051860294072,2.3269571019784507,-3.367591186396112,15.078639667368861
2.552,0.20787504871009332,1.6831923645152074,-2.001015427835455,-4.25193356146724,-3.2875518855039445,1.9189806059875991,-2.6794888277938753,14.285404876079383
2.556,-0.9689325782296692,0.8673396998607359,-4.585421591389036,-8.841968059375631,-4.45275205478697,0.6928077350598869,-3.2201417834808126,11.628220281186032
2.56,-2.4107627230077924,-0.7251512955685939,-7.697088735554416,-12.935258675782734,-6.755792474715349,-0.45443469081601506,-5.010264704033034,7.646123023073642
2.564,-3.199720702593595,-2.4425909228588125,-10.447681041567307,-15.419526399923825,-9.504204179022281,-0.686330625712344,-7.300492142285293,3.2602189153108156
2.568,-2.616799909133533,-3.288367761990912,-11.849136176817979,-15.54839560061987,-11.631994122950687,0.35852060268371133,-8.939318744295633,-0.5439027068709947
2.572,-0.48486304445668793,-2.4225551444922075,-11.282220553438947,-13.242047547761558,-12.149352027586247,2.38688420899598,-8.97512671388472,-3.054110340389343
2.576,2.7277852293627802,0.3868448188918592,-8.781576212138134,-9.144581375017424,-10.547655409569415,4.60479342486633,-7.135860281056466,-4.035327487230916
2.58,6.105961752071153,4.605876702084515,-4.993057052040513,-4.403260342315889,-6.9729336877010155,6.137195297100334,-3.9160924605355376,-3.711924470397662
2.584,8.66574542260696,9.119815190756754,-0.8852903131678431,-0.28771984377908666,-2.1600679557066087,6.477779556298174,-0.3047323914258868,-2.6205993395988116
2.588,9.732282083237351,12.65724424689688,2.610435989514599,2.195823945745815,2.797993637944842,5.723705388673352,2.6538074952100033,-1.4243071560704266
2.592,9.160155221733703,14.269035617410282,4.874646392810746,2.578295617119238,6.759456696513666,4.477166257109275,4.24683715259971,-0.735418237167778
2.596,7.3227028204066755,13.663949008792088,5.707588782459425,1.018353674596483,8.839444422621568,3.4817130981759874,4.276308211736705,-0.9649143816227479
2.6,4.9110400450604175,11.273422604051802,5.294770872485287,-1.7908668868446966,8.6551485252686,3.2093694661662084,3.0331129313738074,-2.1755781078704786
2.604,2.6560808895562786,8.051819538139625,4.103365847206078,-4.849908700455217,6.460439772891959,3.628407873298329,1.144777965319463,-3.982849024242114
2.608,1.0932549786014079,5.102776588060806,2.742605581117232,-7.151740694881028,3.106502144291426,4.284982946573564,-0.6069237927883933,-5.575035503443814
2.612,0.4659051670384997,3.3002124202710093,1.8175162884897418,-7.952955556257848,-0.19575290815760127,4.635604191646507,-1.4523125053315198,-5.915301995083155
2.616,0.75600625791526,3.0275745337219178,1.752288470700023,-6.965540616866974,-2.2929079384819033,4.411033399977441,-0.8390336678785388,-4.142998019832248
2.62,1.7318461638387816,4.054423007866035,2.5620382708953002,-4.473009420348944,-2.600751169482919,3.759546088153911,1.2883900824854209,-0.09144482092324324
2.624,2.992427206586399,5.6073124818740325,3.7016364400381008,-1.3047056252776201,-1.4605720285669577,3.0763769054401564,4.253635870145899,5.344853826317831
2.628,4.000536786384373,6.604956061181838,4.117278541223413,1.3482057116389115,-0.12920647897817616,2.6294840249902336,6.636766795165386,10.267520539192446
2.632,4.121711194828549,5.980444602963644,2.547858614356528,2.252433555583366,-0.34298868629707613,2.2315904442425563,6.595751352883326,12.33719890011389
2.636,2.7474520828202458,3.0350201326266415,-1.9595236058439696,0.5347291615430549,-3.5723204545643057,1.2076213154709876,2.5158589480815863,9.685780496283314
2.64,-0.47608925648205513,-2.2750362520591807,-9.515723636919347,-3.9528020557529544,-10.281811904899314,-1.2571102863926171,-6.221897029716729,1.816324427523341
2.644,-5.39800986133605,-9.214404204027687,-19.091842779445187,-10.446999435145699,-19.545116158356223,-5.5492575768926145,-18.701679818850153,-9.939416000775054
2.648,-11.213120324140164,-16.369331644205886,-28.64787924223083,-17.371909463753354,-29.228201632420223,-11.16083622326778,-32.46831947315923,-22.671854478032856
2.652,-16.536668624087497,-21.98246027717005,-35.69684482828825,-22.739311400142014,-36.69728663602791,-16.640656026136185,-44.163742306778204,-32.81925287473496
2.656,-19.75793407756146,-24.44341808940635,-38.108668833386446,-24.758524800894065,-39.75772190653288,-20.07909927978426,-50.59247861088397,-37.4197264422437
2.66,-19.603840633354366,-22.812060162081707,-34.865035868795985,-22.46592148527452,-37.44968208050932,-19.94178934575666,-49.80528593644431,-35.18720128241921
2.664,-15.681650303277138,-17.163337742179692,-26.437738437538883,-16.106789552678947,-30.347930869919537,-15.830136685211983,-41.76293269652251,-26.939417491310905
2.668,-8.746026034252282,-8.621863539717879,-14.65737762785534,-7.105816885186869,-20.28374621500666,-8.76342106547736,-28.328171772203405,-15.211580470284844
2.672,-0.5263737311893237,0.9541510201499932,-2.1208287295321497,2.399401101379226,-9.63155998396428,-0.7983913649709393,-12.600129144909715,-3.235911111484711
2.676,6.868843031778852,9.556449278549053,8.641159178194812,10.308454168757635,-0.46848425270036387,5.857616217481336,2.1243378158765154,6.282279970643231
2.68,11.729750551213556,15.646099022099406,15.90360005042703,15.273971136465207,6.0339028155676715,9.79518240533207,13.330097512681277,12.069871562427124
2.684,13.367507589134902,18.585331212109622,19.15829193755667,17.087946166489473,9.791377978435776,10.927039472134311,19.869117727238518,14.51319678417758
2.688,12.281947628491935,18.7028393299247,19.067495011260917,16.56910478009104,11.54395146202387,10.338135621678703,22.00541294912955,15.169834450875896
2.692,9.805259585686372,16.99161518951746,17.023979180056585,15.025511187782286,12.323576670091597,9.564841586923194,20.99196211210483,15.843179909169066
2.696,7.385688154549143,14.58235507337372,14.511220548134133,13.54478513976892,12.898498503993551,9.70428193580301,18.399485254802585,17.646865108759812
2.7,5.876920561948282,12.242460679415444,12.523882195506758,12.475844920206782,13.43897455860565,10.84675607103145,15.496920433217383,20.511530658504853
2.704,5.214571431187778,10.155310604262013,11.288217781228923,11.374714725478952,13.547922390515396,12.125563156173484,12.908868012279981,23.339756610169843
2.708,4.642531398152414,8.068048509750497,10.374365654472513,9.438732211833667,12.612446159592537,12.338547981715692,10.63775758650354,24.69870555549369
2.712,3.3382416541969633,5.69564829693627,9.119921065083872,6.173659662340924,10.289883465745106,10.76022254788495,8.390734983740458,23.676955344344606
2.716,1.06026820377906,3.1159462077723674,7.120401431581513,1.8886517744886078,6.860728965071758,7.665502351086161,5.9819875492048595,20.437452485436552
2.72,-1.5878930927819965,0.8802091662887506,4.5190420027302025,-2.2963169476433904,3.2324448320771353,4.260236105935746,3.589103526837789,16.169482678147233
2.724,-3.4520119370909015,-0.24606578807538426,1.957032032729785,-4.966694096466654,0.5700141077961689,2.050964615246812,1.7305750158584488,12.463681038489085
2.728,-3.5252256683975247,0.21515311577604734,0.2030033043192816,-5.19372529781549,-0.2852309478744246,2.0222144545414267,0.9599524043546808,10.449813577414261
2.732,-1.6456039465517733,2.0009726836083246,-0.33930635432602685,-3.144406308389989,0.6851629141383455,4.080731296626254,1.4426858210172213,10.163587804797316
2.736,1.2732236460244621,4.043582573406184,0.08168049963910562,-0.11661070039076549,2.583624859128122,7.08793029905064,2.714285854165155,10.528713608186536
2.74,3.6544443399782267,4.9000668916360155,0.674612383155818,2.0702289694199862,4.002617399834435,9.468454547623878,3.8001985600421904,9.993788981689704
2.744,4.1090373559313775,3.4976556322026227,0.5813718985414198,2.017258441093645,3.7538964528050656,10.039793624850518,3.6720901573580704,7.459545509615964
2.748,2.2541192127955583,-0.20478395130157878,-0.5496738323945465,-0.4864784032326952,1.540591839158651,8.609432557656874,1.8377173649419092,2.9864010978521947
2.7520000000000002,-1.0116128798324553,-5.043789523163923,-2.25343006905905,-4.33322836635989,-1.823469835060905,6.007560890077912,-1.2805774751946046,-2.156999177083435
2.7560000000000002,-3.9676603091536435,-9.122833263048733,-3.4242942471721562,-7.709832065587307,-4.807461054737814,3.55488031025061,-4.445904289036207,-6.1620949865355215
2.7600000000000002,-5.021624570706081,-10.72726732297815,-2.923153085682088,-9.111751068962803,-5.981770792185216,2.2932329674690664,-6.177305039555449,-7.695254799632494
2.7640000000000002,-3.624345611722447,-9.214571808259961,-0.30190666975704517,-8.197267715717317,-4.824697182085856,2.4143052123727102,-5.528570179110375,-6.686913723394355
2.7680000000000002,-0.6091188907696505,-5.389117962764658,3.7818546620908364,-5.979878001450743,-2.050431388187235,3.203241917620744,-2.650393784730113,-4.426239242961856
2.7720000000000002,2.270156874561735,-1.112894093165778,7.7706507530110684,-4.213359196196052,0.7773199983996619,3.526968840501013,1.2351061875397136,-2.8602460192173567
2.7760000000000002,3.3291212570520656,1.6436588329249844,9.94571358617236,-4.343300749550963,2.126979380265311,2.554939897795066,4.438334918631426,-3.4987666668043857
2.7800000000000002,1.8991297741688413,1.7927713102653797,9.305380610836664,-6.643051067603665,1.3669989233503657,0.28378456945938524,5.66754456671697,-6.550788395393738
2.7840000000000003,-1.3025919547008016,-0.34534099499728654,6.113136335719901,-10.028504310047538,-0.8626832430613831,-2.438757407958292,4.6983146136331015,-10.778381279011683
2.7880000000000003,-4.616087093597571,-3.2970744138690407,1.7579859132745241,-12.694884538515225,-3.0375369732939816,-4.404869760053316,2.42903348436721,-14.187987096223424
2.7920000000000003,-6.42473422015496,-5.308474157891624,-2.0030779998246544,-13.200659474283157,-3.676019276003899,-4.7646190763171035,0.29900108754281973,-15.166697386020132
2.7960000000000003,-6.084712264706695,-5.315106897524174,-3.9692306666718196,-11.336728652000147,-2.2309009590248934,-3.5304546591082726,-0.5458469360332856,-13.382011690963282
2.8000000000000003,-4.270984754627307,-3.491076862545924,-4.089550949307295,-8.272735437224128,0.5617732981397694,-1.581157274267298,0.12187530798473745,-9.952568432767293
2.8040000000000003,-2.536363724081184,-1.0701300286584683,-3.369394761666399,-5.8710106866346905,3.1119655756649536,-0.1646005094744396,1.5660832253834087,-6.784612507613474
2.8080000000000003,-2.365224487856949,0.40638733943410443,-3.174423993901655,-5.58918253096499,3.9195916238982136,-0.1838366374358884,2.62091298195719,-5.479583984882993
2.8120000000000003,-4.2903648052576955,-0.04300183586838102,-4.356053614364328,-7.62271493166395,2.4674978653963535,-1.6962483995525872,2.451827449650409,-6.460097672161282
2.816,-7.5721591448304935,-2.339778390972924,-6.711481817197637,-10.784464452552811,-0.4568665555455027,-3.9065824405224703,1.0716441078052412,-8.802274807826507
2.82,-10.604723914614624,-5.474855479168809,-9.11069603119904,-13.189974767221429,-3.2067931723443053,-5.638663265294781,-0.7044529808108564,-10.854647488040428
2.824,-11.785240510574567,-8.127338209953223,-10.186268284032622,-13.325747690065555,-4.205942055163177,-6.000327880660279,-1.8110063834492394,-11.253004258710007
2.828,-10.341024533888685,-9.380258997146257,-9.165842546492058,-10.87818021546309,-2.8175460255787357,-4.860177570268206,-1.6351623278117131,-9.735701437306489
2.832,-6.662135984592169,-9.109754023520281,-6.3405449530196165,-6.849040488420769,0.35391959560581654,-2.870928178687791,-0.4085523129795092,-7.294184829208916
2.836,-2.0182188226806375,-7.8707264876723,-2.911859267802811,-2.9409590136572206,3.8600487742020277,-1.0564233396598866,0.9240135271900272,-5.611284661818445
2.84,2.133288343732147,-6.41484989753485,-0.31463024185541144,-0.6038179727413535,6.238892118295325,-0.22428641640271962,1.269487792913651,-6.126221995768901
2.844,4.807667470516662,-5.200157728357851,0.5579433415625772,-0.3331753415325238,6.76213428898302,-0.5677738597638609,0.013639126324846984,-9.274194000264288
2.848,5.764850847453886,-4.217708280213287,-0.24621547364688467,-1.6116781369175897,5.666290837305212,-1.6776410167532276,-2.6900725181523057,-14.300803197294726
2.852,5.345940180690604,-3.1922061425930224,-1.9075661139254407,-3.4454319109388507,3.805184671547977,-2.905613079289651,-6.108651777900377,-19.69292666159481
2.856,4.068367413527767,-1.9624263976246539,-3.415649372625012,-5.0872059280045505,2.0225812347792953,-3.809529339241635,-9.39110374493066,-23.914659482161824
2.86,2.292060423996645,-0.7479280882230341,-4.191855189614216,-6.466991351250044,0.6647454818823917,-4.387533875249346,-11.998229709180123,-26.028763426513706
2.864,0.16196467313079665,-0.08130066085414,-4.358068697811177,-8.073035331239907,-0.46199246319133636,-4.9645376471482905,-13.828910209651895,-25.91257747999589
2.868,-2.2137992530435895,-0.45957796657273775,-4.524864587610523,-10.417052605700746,-1.7298810290927804,-5.829765024671815,-15.012876470878837,-24.058360499568607
2.872,-4.543417210080861,-1.9566297197923177,-5.278400477871401,-13.486999848103096,-3.23971386329913,-6.929859966280219,-15.589497809777868,-21.18428301222275
2.876,-6.3114113849454725,-4.0843135753571005,-6.724078712288929,-16.58564353433667,-4.633351052326589,-7.825363416497794,-15.354626426181994,-17.921499446229518
2.88,-6.976300701978857,-6.021187280251752,-8.379292325578831,-18.672923525219176,-5.321619766714889,-7.971424896999224,-14.011591265929383,-14.723316902724036
2.884,-6.290581818113651,-7.073175327091803,-9.457456240616807,-18.992252497433583,-4.955992221835913,-7.12464556766281,-11.506078388728156,-11.941593640577139
2.888,-4.5279636434183885,-7.094460166876161,-9.364412759038714,-17.572361131764637,-3.8089601354073466,-5.597743979003553,-8.281691197927557,-9.906607693360911
2.892,-2.428058638788116,-6.58981918282791,-8.074580857417232,-15.25974707439218,-2.7598440667105706,-4.157548092391835,-5.215970308769101,-8.879308341932074
2.896,-0.8562867155327467,-6.407597802555529,-6.146366920326727,-13.240257033189891,-2.822184880031614,-3.5945481971373283,-3.2047356350205973,-8.872923762937717
2.9,-0.3808349595639129,-7.222768234765795,-4.402891571065425,-12.356095244090511,-4.498592484251958,-4.22152726526997,-2.660699456069324,-9.502161206270557
2.904,-0.9911936127643912,-9.103691932351467,-3.467463560102601,-12.623227249422143,-7.357602470093298,-5.62423159275113,-3.238297785750774,-10.03225873744691
2.908,-2.1319514745576953,-11.435614373073804,-3.4533847647620632,-13.257642527609278,-10.141682899797956,-6.845369750303462,-4.006377667724337,-9.681538756334476
2.912,-3.0180995185064603,-13.238257930174541,-3.962546959409906,-13.184503398209245,-11.376580551160032,-6.922318281100615,-3.9882832654284357,-8.042419164599778
2.916,-3.0488922975650894,-13.692115673809667,-4.359325607720052,-11.715982195210017,-10.14917807657207,-5.462342255764952,-2.7441611402082344,-5.38095003410649
2.92,-2.096337707234511,-12.579375157523259,-4.144992918648086,-8.99267507267973,-6.631599884797879,-2.914678451219743,-0.6480696005719437,-2.623398612874553
2.924,-0.5104561449500125,-10.371674399475864,-3.183476956532104,-5.915061289408982,-2.027718275830239,-0.3677959150327297,1.3273284474607863,-0.9839913323503424
2.928,1.1125755561223514,-7.964200629601123,-1.7040792101491888,-3.6394244430480285,2.00559986841904,1.0173676932645321,2.170703686784009,-1.4061195041720111
2.932,2.274551846868917,-6.197368956320361,-0.09618403368676809,-2.9217886503847694,4.165321046668055,0.6268922916533484,1.4244561066930146,-4.085967502768426
2.936,2.8497652234325415,-5.425639398056319,1.3576281525702143,-3.686302001062586,4.105185205242378,-1.2914984584770082,-0.5544340215269585,-8.332551278425854
2.94,3.1207702026853212,-5.392318263277957,2.6116824995976913,-5.07940175996896,2.5008070127577184,-3.7868156261909007,-2.820473030918265,-12.84763282867334
2.944,3.608406007094004,-5.41619125491593,3.8356677299349258,-5.932408811793493,0.6129113612010428,-5.714967627397527,-4.369823363065052,-16.252380587269272
2.948,4.7814841215724755,-4.790363362997937,5.258514248029087,-5.385931747967902,-0.41091039872230795,-6.3153495582705546,-4.662641452257617,-17.636214365950536
2.952,6.803080653671486,-3.169604914482875,6.982822343299858,-3.338512876516347,-0.12081986392007593,-5.546117659084302,-3.857717121000519,-16.897182570964105
2.956,9.423203984711108,-0.7508684519744975,8.895147676292254,-0.4947429775559158,1.0686949811640716,-4.0188304308233,-2.644631267004115,-14.729264511812971
2.96,12.049662425185943,1.806439343529803,10.689926367905514,1.9752481115475575,2.1624563138032613,-2.6174716172267836,-1.8094940042801682,-12.300423031977061
2.964,13.970821676685773,3.677780425826029,11.995526902680638,2.9874234229553167,2.1512247497021235,-2.038478730895349,-1.8004395535646154,-10.767399368099404
2.968,14.619491612082015,4.220113329450555,12.511079013721428,2.0194092217068373,0.5329858961576974,-2.505766053741354,-2.5461856222717643,-10.84124197989297
2.972,13.772024409223036,3.2156310218362023,12.108665330421957,-0.706390716683245,-2.45401622076713,-3.7794649009628074,-3.565061162390748,-12.560000058149399
2.976,11.608084155496158,0.9255005477286318,10.865309637452356,-4.383332976327097,-5.967591611325929,-5.3910579767180025,-4.268844524063184,-15.32383406033091
2.98,8.62137848401892,-2.0401309642066963,9.034994207601073,-7.998313615542543,-8.949871010757704,-6.931246018612569,-4.244017734952877,-18.14751226205135
2.984,5.429391981110712,-4.962493314584208,6.965818279142752,-10.732809016977853,-10.566901193752699,-8.22720532110975,-3.3903359375788114,-20.048833911952443
2.988,2.5622020623592903,-7.264514103633985,4.987213232410113,-12.21160570773975,-10.50267258754144,-9.333928293268286,-1.8909057644551694,-20.42681788711593
2.992,0.3254617523471097,-8.668912259084152,3.3162211608423604,-12.513301786925695,-8.998878929196508,-10.393917548996342,-0.08636922561004212,-19.283721787965078
2.996,-1.2066948970564226,-9.213053102715662,2.0079691385436718,-11.9899718605202,-6.6749317091001785,-11.482598212569314,1.6426969531297573,-17.204739558893152
3.0,-2.107938838648124,-9.164574840835712,0.9597769794136752,-11.035493367623758,-4.268139564204205,-12.537693002956644,2.934103901947992,-15.104487555981109
