Timestamp,O1,Oz,O2,PO3,PO4,TP7,TP8,Fz
0.0,-2.8563817977556027e-12,2.5366375666635577e-12,-4.227729277772596e-12,-1.2079226507921703e-12,-1.3216094885137863e-12,1.4210854715202004e-13,5.826450433232822e-13,-3.694822225952521e-12
0.004,-13.009048354751869,-27.231634548985838,-22.7727756588908,-16.17852243944067,-24.90166791758083,4.530616476974359,-5.118876719939692,3.217260497450823
0.008,-22.973788239968776,-47.34919975712898,-40.01877458583332,-28.342315596442077,-43.68947269345561,7.863535577467616,-9.312950865886535,5.376155034128345
0.012,-28.09908744689342,-56.244488052389904,-48.461899919620706,-34.13658663378506,-52.77782888914511,9.422043293687125,-11.997941765347122,6.050551619286068
0.016,-28.499625808229894,-54.352765340081135,-48.23676212617055,-33.725654483940794,-52.41027976891202,9.498763017452674,-13.09575393714502,5.684134746577541
0.02,-25.945560279863145,-45.97773944909067,-42.41230561172566,-29.44935920359393,-46.10168192045113,8.992050372763728,-12.954238252607986,5.285710153822663
0.024,-22.877865259591616,-36.879787274018746,-35.22899222674283,-24.520607372378244,-38.61932338548287,8.807865342437424,-12.075630474932574,5.796920234279966
0.028,-21.21974552146274,-31.45006122264377,-30.02308201376768,-21.471115969161666,-33.61357244409203,9.318152618437054,-10.80644282965244,7.530324340414424
0.032,-21.603304078452616,-30.96932615736253,-27.954859507607036,-21.166545080388147,-32.1655820044634,10.208379388905428,-9.179282011356221,10.036577008245011
0.036000000000000004,-23.367466101267492,-33.73508048380651,-28.099507760066132,-22.827191768275476,-32.909486066694456,10.78327812103553,-7.008165416841052,12.45450929429461
0.04,-25.20905197657948,-36.69581273539268,-28.60021978506506,-24.87432003714072,-33.421387261148595,10.505426571853477,-4.15623685541906,14.068319728446419
0.044,-26.078733246793252,-37.51170255681219,-28.077732547553538,-26.031806053510458,-31.951612445519157,9.382630747948127,-0.8128073400757359,14.684539766523422
0.048,-25.772705469867347,-35.79600332141093,-26.41408939491917,-26.003975792355256,-28.44548716644501,7.955989120170493,2.416962918810647,14.617093849469548
0.052000000000000005,-24.923839420647077,-32.97106470566102,-24.561587154112328,-25.410129700413073,-24.381411143479646,6.9290379043128,4.70950702576193,14.349569098599623
0.056,-24.476166306767304,-31.059113291526057,-23.667961075791684,-25.139701527427206,-21.69661493176736,6.7122178598747055,5.417651134586471,14.172120525381175
0.06,-24.99123984520984,-31.246735162174026,-24.156159828115964,-25.59282220986524,-21.518915609759496,7.1891209831879195,4.4549954851269575,14.067889187268314
0.064,-26.23320123301153,-33.15025986527865,-25.39054626586403,-26.3130571402909,-23.501054742439827,7.853456846576968,2.4238980579795353,13.895941780515642
0.068,-27.26924211585132,-35.145223877389455,-26.096045526847654,-26.227852680213182,-26.08601104704105,8.202473023462254,0.37395204396372606,13.683130900620995
0.07200000000000001,-27.027365197231013,-35.48497188026468,-25.245790951274813,-24.35296764414492,-27.499859308587787,8.101166674529573,-0.7021681788903251,13.763875019080047
0.076,-24.967165093504654,-33.464688661448605,-22.837882491552573,-20.51028978239262,-26.842243922326382,7.876422724811512,-0.37076446297083265,14.623347253595618
0.08,-21.44084877378553,-29.856850343050326,-20.0154418252843,-15.585316119510807,-24.582046258123366,8.085593186332325,1.035607041465731,16.534083961055174
0.084,-17.53072629518243,-26.383047482916474,-18.440253903256668,-11.147087783205002,-22.199282789866583,9.11369170140781,2.647989536230277,19.252862428220148
0.088,-14.459886841523105,-24.578794093896967,-19.282473670145624,-8.630273453449753,-21.215161719710636,10.875058242095818,3.6042865355024247,22.037981163099737
0.092,-12.94223545579305,-24.82201415215233,-22.474776806144998,-8.5720148105028,-22.260290442541695,12.827522463846968,3.5797943326659194,24.019353741560664
0.096,-12.868864012969699,-26.16178116994157,-26.70527775611714,-10.35238121050443,-24.7607450722988,14.281406585932274,2.9786091555293055,24.69347307057817
0.1,-13.488801809154886,-26.984816650698814,-30.11724515439833,-12.557697423566601,-27.346301594623434,14.793003111894727,2.661041357516801,24.206050900182987
0.10400000000000001,-13.948180590854761,-26.074812114452985,-31.294678883820392,-13.745311303054478,-28.691971077743553,14.387934266449228,3.3694482400648553,23.20350617284153
0.108,-13.824201638853715,-23.363257056756098,-29.943961445040433,-13.156967961493109,-28.237747322073066,13.484911613397621,5.21398631684729,22.353761265771418
0.112,-13.338851834027455,-19.954081213869298,-26.94216216873602,-11.027521153498814,-26.40797328994896,12.597096982377288,7.544638614033154,21.87000385633663
0.116,-13.14863539739624,-17.462333484006123,-23.799321177832105,-8.375498087166427,-24.273764017453335,12.021697164769265,9.298623624828984,21.387442516075403
0.12,-13.851279817395383,-17.056555101294705,-21.84470106289651,-6.418344315631963,-22.87088734148203,11.707831141792582,9.63262755225341,20.28764772491084
0.124,-15.533593056024607,-18.79533785316419,-21.609299048611987,-5.9579032270540395,-22.608048101104522,11.35298822066332,8.450448951001363,18.24951569730382
0.128,-17.653524747011286,-21.61178325762618,-22.688581822702755,-7.052737063433359,-23.081520503891298,10.630728263311632,6.489565343939461,15.62983180181531
0.132,-19.343306726743535,-23.951115193230144,-24.12338951504995,-9.119517009834706,-23.395670824165396,9.393957355708494,4.892824514200356,13.376840174539531
0.136,-19.941966314902544,-24.667095823131774,-25.023364199903092,-11.341616529725055,-22.768223717812795,7.748013888374928,4.5345808621204355,12.514649913574846
0.14,-19.397990055344078,-23.603079503983324,-25.01663532054278,-13.084801906605215,-21.00186056606665,5.985515265390518,5.514037009936505,13.510961957077932
0.14400000000000002,-18.296164788609474,-21.562422907002254,-24.30971530306409,-14.094662927732845,-18.567668187119633,4.445948910642528,7.112297258809836,15.925566463279711
0.148,-17.473206438393994,-19.71741039123713,-23.37324106517349,-14.400369247992476,-16.26789123159608,3.4072635172459798,8.245322803002708,18.59615997193877
0.152,-17.485081221825983,-18.898167330855227,-22.551149943630744,-14.091694176138635,-14.760647099059376,3.0550919741379943,8.117371752194547,20.272374589671255
0.156,-18.273464973026186,-19.22782968564385,-21.896528504605307,-13.185871422689413,-14.28522076401608,3.4887657528805036,6.651542684553537,20.307317570522216
0.16,-19.222469507822925,-20.240591431601757,-21.28880953831274,-11.665756745073441,-14.700730202158246,4.71043039608875,4.457798491785937,18.99140174825372
0.164,-19.56326500836133,-21.335647799016822,-20.701197497418676,-9.642065319265036,-15.765245082783363,6.566234737708019,2.3788720506042864,17.32917692019422
0.168,-18.84290808136558,-22.182638470066436,-20.343265788978808,-7.458641495430616,-17.382965748255522,8.7002814005645,0.9573949141193481,16.428089677581944
0.17200000000000001,-17.166808384162707,-22.82957054400774,-20.56032920308199,-5.6259288007656885,-19.650042284385453,10.605829185651949,0.16906576899814496,16.896212903010547
0.176,-15.09016911596521,-23.502797194722877,-21.55788776523005,-4.604660784621451,-22.68746481508919,11.80075067664253,-0.4218858533530856,18.601047621291993
0.18,-13.233948355603584,-24.248520112561447,-23.107623238568344,-4.545966847731481,-26.346563311011934,12.055364859594729,-1.2107540561804697,20.882149913394095
0.184,-11.904537295051039,-24.732739793343505,-24.488985806343152,-5.185396652349482,-30.03988897437057,11.516149201393183,-2.1529692513378365,22.99086007420159
0.188,-10.970526267503317,-24.375033512689463,-24.766386689567348,-5.989405639542527,-32.85416535366939,10.619825037541169,-2.7115064591751405,24.441247342009504
0.192,-10.067403372177147,-22.774394110891944,-23.308347206521496,-6.494067287265841,-33.94660461135594,9.84316311452963,-2.204535466893688,25.08698422616782
0.196,-8.97416022127676,-20.146964368749572,-20.250082797551492,-6.629524281364093,-33.008282164837254,9.429632758827115,-0.3134265391881037,24.958916218048522
0.2,-7.851089802041201,-17.37598130407882,-16.535713435021428,-6.765002333595035,-30.43697984877042,9.27380278972408,2.635042828676788,24.08554369475818
0.20400000000000001,-7.169573496251321,-15.58648126783451,-13.46792782279942,-7.428334683802085,-27.097668408843674,9.025525423513393,5.806386384191157,22.459131964722538
0.20800000000000002,-7.364025136563024,-15.455602963421969,-11.98576241196138,-8.859112451507867,-23.79338925772059,8.355849623639124,8.336477076228563,20.182311756446907
0.212,-8.45958420240032,-16.730517622056368,-12.127837691973944,-10.714431703919193,-20.8212566819694,7.211548505174484,9.828095607746492,17.64906125332989
0.216,-9.986632091138267,-18.348999502426533,-13.074181246516723,-12.191306331988882,-17.964074653020205,5.869265978325675,10.488820203507608,15.522776976104343
0.22,-11.280010331719552,-19.122708057929586,-13.755347342348632,-12.539275416303923,-14.927945269961988,4.724985687659004,10.789358456465614,14.397032615694982
0.224,-11.967620306231671,-18.586029036439484,-13.676300569456874,-11.652556121340647,-11.942643369832933,3.9395473490484356,10.848430252817714,14.301652023853832
0.228,-12.317469308650443,-17.45637505948691,-13.4171816170843,-10.343704516428884,-10.071465497705672,3.194635325313847,10.016279787859226,14.40188320322621
0.232,-13.174652449350575,-17.365933405876063,-14.440559450563832,-10.061691106751281,-10.922856492134578,1.763611187866461,7.0163595494939575,13.188694678612757
0.23600000000000002,-15.440201523387273,-19.92559684118099,-18.232827463796337,-12.117602358821486,-15.803913493922666,-1.092330937049331,0.6601323749951771,9.180875852640064
0.24,-19.390831122624828,-25.637299499613995,-25.239714058441702,-16.835687453614902,-24.75317827456572,-5.610241400105206,-9.233913496494656,1.8119168531301266
0.244,-24.279776969929323,-33.34575346813034,-34.25869531459789,-23.152856535122616,-36.07846099933501,-11.181418100539025,-21.260047447647977,-7.971093192846038
0.248,-28.49222166435975,-40.574570724076,-42.69297681924523,-28.935838630346886,-46.747391164189594,-16.40698545214957,-32.601886211127024,-17.788207028239164
0.252,-30.227508838844553,-44.60787631144779,-47.59708754512091,-31.89603344878136,-53.52085538237763,-19.58718265973727,-39.98387813107811,-24.63731839695472
0.256,-28.38760059738007,-43.79050281843183,-47.037705294552644,-30.66666330513867,-54.33417678415583,-19.423774674982074,-40.98138814249688,-26.088677744093953
0.26,-23.183113157376205,-38.35502456037632,-41.05394862939423,-25.47727112638315,-49.2242123459133,-15.585085911475407,-35.0464440056857,-21.281235334008123
0.264,-16.13264821264074,-30.350464771179002,-31.721089575423207,-18.07806304727565,-40.33280760843026,-8.869715153999913,-23.75625514452822,-11.256977920592947
0.268,-9.44082163606734,-22.687536758638604,-22.238690915290086,-10.939962418113335,-30.93822230897711,-0.9096042421016044,-10.181496231043718,1.4812396336770632
0.272,-5.055405065056986,-17.783613379627308,-15.477545481251742,-6.126892746127999,-23.973901641243785,6.436774864462748,2.3186797218164266,13.936325173209067
0.276,-3.8682426329747166,-16.514808486817458,-12.727924804159656,-4.413587610991986,-20.781910776989132,11.726507567715455,11.30412379946137,23.64489300203104
0.28,-5.44350375412488,-17.99510567562546,-13.27820308575072,-5.085792229777023,-20.71279190576725,14.349746611644743,15.949645227132944,29.348528278881645
0.28400000000000003,-8.358900701887602,-20.23864657469811,-14.99688245185129,-6.476016795465225,-21.727909370258352,14.594145273996315,16.99387551372067,31.101802914868372
0.28800000000000003,-10.917983945981813,-21.238502667963793,-15.505218769084095,-6.877485193083421,-21.575739118658298,13.376258697229577,16.10064828801487,29.89839172998024
0.292,-11.873653011508537,-19.87464077793217,-13.310781537871126,-5.349844849979908,-18.90394383087853,11.785023147774263,14.996290468921863,27.06854157252897
0.296,-10.868696429212378,-16.264834114711974,-8.381815690804434,-2.058278901479877,-13.803202798623419,10.636999478806004,14.776325574268823,23.73785775765135
0.3,-8.453588195676943,-11.500050972321143,-1.9778063731669762,1.9498109875444465,-7.620293555670495,10.218053172631686,15.61537766617302,20.540004691317236
0.304,-5.746756234103651,-7.028292831690426,4.05588552186445,5.3330034836583335,-2.2546771996273485,10.290212614689942,16.902320880305982,17.614971647437056
0.308,-3.903123474979264,-4.0044639879881965,8.146565137354827,7.106012350673734,0.6938542626452513,10.320688231362176,17.671244250374645,14.81295125255821
0.312,-3.5981046525271827,-2.865270303778571,9.624575784731267,7.064801481609527,0.56345396594471,9.8202916104436,17.122082005832063,11.972014399312698
0.316,-4.733110151697456,-3.2802705709693227,8.864683124163255,5.809280216032679,-2.1999599602178215,8.639769308357018,15.020063639787224,9.132848223104862
0.32,-6.474758397320888,-4.431194884253545,6.9547654076169145,4.395349325753383,-6.346336314007944,7.089661916985371,11.825991577275385,6.616041873110014
0.324,-7.61932885709226,-5.456175239043361,5.1025697230914755,3.7945962219286393,-10.411294369362313,5.824744903991922,8.515472066950174,4.940387347145057
0.328,-7.166374109289207,-5.848084924178932,4.087905175648613,4.413902809652427,-13.309992608460107,5.521489675698423,6.161410444584715,4.580912893429502
0.332,-4.861308201015895,-5.646062625624232,3.99234434218848,5.890014488449779,-14.700625976239346,6.49732970034246,5.442219251496829,5.660961849191493
0.336,-1.4316246906410885,-5.363404699144867,4.2829067385886095,7.254169204880213,-15.00424302275865,8.484496216609331,6.306102440525693,7.758315355860908
0.34,1.6391896949170857,-5.703439053364845,4.155820882081828,7.38622460180504,-15.119782236651133,10.705008914467115,7.958709082374593,9.973136166603402
0.34400000000000003,2.7579102529682444,-7.194462158631592,2.9464921840680027,5.56029637127137,-15.98227062463482,12.232883501791548,9.208535592771826,11.282768045546465
0.34800000000000003,1.0226382617293328,-9.862590567405409,0.46869833740934164,1.8575716295503084,-18.10662432531237,12.455485300589515,9.057734643727386,11.039867317939407
0.352,-3.214465002480431,-13.079996573487346,-2.8362692488775174,-2.7438777609782976,-21.28655812456079,11.385612705543474,7.238025751164694,9.36387806801978
0.356,-8.383381150699716,-15.739920827661148,-6.04896784123677,-6.710114609442279,-24.63518883778196,9.622917900824786,4.388887913567341,7.152512516703531
0.36,-12.386487801387581,-16.733039469620486,-8.167774519390221,-8.603455299060434,-26.976880627949512,7.989062152391928,1.768916849781105,5.657747381134854
0.364,-13.629297962454265,-15.527359599616387,-8.584145458334952,-7.754841999452689,-27.424670596071785,7.048948600528858,0.6266194616506642,5.826189280908302
0.368,-11.849272120597906,-12.520083108139957,-7.38451740764372,-4.609069310548547,-25.827587191732885,6.785590650346492,1.554247426883563,7.739197389223463
0.372,-8.259848791688482,-8.912126058508768,-5.296362311319795,-0.5307155671785599,-22.81429064669104,6.635859761536464,4.173342236485975,10.480090291242304
0.376,-4.903869866802125,-6.138525858742707,-3.2986942939516597,2.8442326049094993,-19.410727865767477,5.867458903815548,7.324679946905964,12.53712489493788
0.38,-3.5546783531720214,-5.15140212914854,-2.109303934521588,4.380454348247995,-16.45966281208169,4.075599533940725,9.65525630090944,12.562826051856751
0.384,-4.777588552416782,-5.9751738841747475,-1.863486287491285,3.9277478647291098,-14.211464249212698,1.500646413142571,10.25904838490254,10.083535061938047
0.388,-7.671861285155796,-7.763474561717599,-2.133049219731494,2.2821551185927085,-12.312540943944047,-1.0448966611756916,9.04693826700634,5.758794204313804
0.392,-10.436764677895377,-9.320290864071891,-2.2572734218244506,0.6704665023696492,-10.183841840570942,-2.609925933282933,6.667721200553293,1.0383309637282014
0.396,-11.442219353718324,-9.813592261233282,-1.8185278198174242,0.050174664968400506,-7.572543138087802,-2.643234066687622,4.065213923727572,-2.5897853415077288
0.4,-10.161417069262493,-9.247601651380354,-0.9561587080003662,0.6310531448341301,-4.904665441086227,-1.3034534050740372,1.9856522177750202,-4.3148282400336235
0.404,-7.444505767726678,-8.43227437314198,-0.32594779492468007,1.8592490618132338,-3.191353283343261,0.6331648230027749,0.6968031361998659,-4.289139471149804
0.40800000000000003,-4.973257295850429,-8.441404376441199,-0.689936832939539,2.8613101714235185,-3.475075946652707,2.2087734335122526,0.05347025886309975,-3.357568358984904
0.41200000000000003,-4.2242644289920275,-9.87510354219927,-2.374956036670989,3.058155535871099,-6.128900920357552,2.788191111762967,-0.21123387931130466,-2.448891034244039
0.41600000000000004,-5.573334309286081,-12.391744054964981,-4.942250418225761,2.5562160142081494,-10.45263471109438,2.345708780062104,-0.21410658543652694,-1.998329106847835
0.42,-8.07779067856535,-14.827438260426382,-7.323010398058617,2.0641409329836717,-14.880959628439765,1.3828904431127098,0.12411039530544432,-1.7535958904966855
0.424,-10.075873951191527,-15.877823420661631,-8.407475591315903,2.3734134492418986,-17.763984798088547,0.5545244978873538,0.8621567996784041,-1.0685553172668154
0.428,-10.225548608726763,-14.917478230833822,-7.739042577709494,3.748763336484762,-18.266580613313344,0.24009812942509612,1.7502169306737092,0.5216172147612794
0.432,-8.32824217407252,-12.429735654707974,-5.867942902563392,5.650012565527692,-16.837158684886624,0.3264396740097535,2.1379596631284565,2.8299015491756907
0.436,-5.446018550371566,-9.776516895330758,-4.125616798692171,6.98023100423956,-14.951996550168012,0.32173911898568486,1.218964725162357,4.971617381727777
0.44,-3.253162717414285,-8.437020857882855,-3.923303725734484,6.721754302404031,-14.267793748223689,-0.295491331005981,-1.4967499707789562,5.797217342129644
0.444,-3.0387141861454166,-9.188559969417405,-5.979435504864522,4.564586534116222,-15.691254294839752,-1.720868615950922,-5.773689887582359,4.544359812900498
0.448,-4.945618325219612,-11.674374128190466,-9.880549445349532,1.158960234058755,-18.85903489849119,-3.677987957754961,-10.577952670903148,1.3323368521217231
0.452,-7.881151993900852,-14.580412980381777,-14.218130232540815,-2.1680692512329816,-22.302418010695163,-5.559370102976356,-14.448086150729674,-2.8010535745764535
0.456,-10.162425087246953,-16.337991032660355,-17.264745993610664,-4.1070440747477495,-24.222102108781154,-6.758468530902164,-16.168117681187425,-6.37510798710367
0.46,-10.489296916097317,-15.933970201119523,-17.814035401336703,-4.062422193077605,-23.41676304575174,-6.972735863955124,-15.372644189727994,-8.179664589804592
0.464,-8.667902510496951,-13.394905748197617,-15.753710025435424,-2.463805874505865,-19.872328733829786,-6.307546768532317,-12.749141229862142,-7.851732306068218
0.468,-5.666803986741255,-9.670635915962167,-12.041230159128633,-0.500536420328392,-14.691288435209819,-5.149449963487324,-9.697197433677797,-6.014139953058347
0.47200000000000003,-3.0128055699347778,-6.031191591481539,-8.114639147117968,0.5652043921235483,-9.45274529257042,-3.9235251830915,-7.622831756996357,-3.925850784796766
0.47600000000000003,-1.9094409473099077,-3.3869815301082657,-5.1194911315687985,0.09250884083203026,-5.429713736641306,-2.8956266363413303,-7.26816116235468,-2.8535839888367622
0.48,-2.608877954906016,-1.9395226915525523,-3.4010167493999592,-1.638779488839184,-3.1222352053618874,-2.124650303931949,-8.433763687414915,-3.479610910609982
0.484,-4.392749498255698,-1.338533172571669,-2.5350069222902807,-3.6876631467215955,-2.325078183512037,-1.5499468209405105,-10.221631211759552,-5.640650123453572
0.488,-6.132316297587117,-1.1714810705499321,-1.8302012631514373,-5.094506511047877,-2.5874806292473327,-1.13489507829388,-11.644686073068637,-8.507131901535416
0.492,-7.024427805891797,-1.3888105549982832,-0.933740663285576,-5.4874496334027825,-3.6756531563001342,-0.9511822525703326,-12.226133598220049,-11.068862395019135
0.496,-7.0303077957957765,-2.354263174865313,-0.13831921393775026,-5.2758051756305235,-5.707689500834142,-1.1345256365254595,-12.220311449597027,-12.643257602517963
0.5,-6.754743201201313,-4.4864590565062805,-0.1944063982450004,-5.320133848107482,-8.896323616114511,-1.7430206924308993,-12.332563593945574,-13.138706196060948
0.504,-6.899091518655361,-7.774018651804058,-1.7749571302724068,-6.310294779003932,-13.13774631512922,-2.632323941281407,-13.143528467142936,-12.95773484984913
0.508,-7.6703749050490835,-11.50596168417953,-4.918732920508375,-8.238240218489468,-17.76142175679179,-3.451461279914441,-14.6179125692941,-12.63457065501149
0.512,-8.540053574405006,-14.442972186234922,-8.807874727705233,-10.29842970547596,-21.657526593815966,-3.780730015735982,-16.026301442113848,-12.450754159018711
0.516,-8.546509920909099,-15.402991988093596,-12.066978658038224,-11.315936761152933,-23.76792352064768,-3.356522780184666,-16.36298895565231,-12.257731894211418
0.52,-6.947092619350441,-13.920253411379417,-13.427527068821167,-10.438075688241119,-23.64249089771761,-2.2411315963133003,-14.996037863351637,-11.576155325923498
0.524,-3.8010450245108887,-10.586718533677267,-12.396702580229768,-7.680620489681572,-21.715944383891113,-0.8199391349318275,-12.142107372609132,-9.903676640933895
0.528,-0.09484124808961525,-6.822400073256608,-9.529645192157366,-3.984207247283533,-19.097449990013015,0.3720534805147846,-8.845294381453185,-7.072094221385234
0.532,2.7178962750790134,-4.148100952896646,-6.122676699037746,-0.7141599591329859,-16.947099904277245,0.9059701284435577,-6.425581957184338,-3.4459307583261944
0.536,3.4973170045756925,-3.3870000653281744,-3.5183106839257547,1.090265998595477,-15.820294077398952,0.6640809255014704,-5.708002558337465,0.1507656435921101
0.54,2.0803098318835174,-4.249003520396816,-2.420649906295183,1.2855059091860714,-15.37038159405937,-0.10960221562290462,-6.494075270705182,2.7598834883111576
0.544,-0.5859742074732484,-5.557494428726907,-2.613115663577532,0.6638843058241948,-14.598935202229445,-0.9380735949057979,-7.616698660166063,3.7229178014912514
0.548,-2.9292776988433236,-5.975980832243194,-3.2025959667639743,0.436371287745982,-12.49714131024733,-1.3553524299217594,-7.589707414242766,2.988833443166037
0.552,-3.5627216816452387,-4.782281122558947,-3.1941572963525333,1.488410237075581,-8.67849273579239,-1.1405102909207432,-5.479430301796641,1.1611738807133514
0.556,-1.9766635874265526,-2.2538928657921433,-2.058402853170083,3.841614977982039,-3.6500047032937015,-0.4184175205643843,-1.5034459494997248,-0.7468946541580879
0.56,1.2504313199935426,0.5452831158544509,0.029402113773816296,6.635128855336246,1.4263082108503529,0.42832992965902994,3.0053697868872202,-1.7271312792296118
0.5640000000000001,4.801841442829735,2.413744979658298,2.3745876047421444,8.622211062565416,5.311368016874635,0.992955133306348,6.279515051987253,-1.1696367390606257
0.5680000000000001,7.297591045735677,2.6995527662293988,4.219918372394894,8.876245790483669,7.265696246984949,1.067450965400694,7.051313265295516,0.8981717648367731
0.5720000000000001,7.908107336576689,1.6277553663742177,5.175947046006861,7.296012806889599,7.3116379625719325,0.7352838972151484,5.212815929676312,3.813662500029013
0.5760000000000001,6.601580764180969,0.09022241305793521,5.368729337894685,4.6207672902733865,6.072162879541404,0.2917112008152001,1.8351542158090357,6.523962691084508
0.58,3.972342210348631,-0.9448268673423712,5.245858156823099,1.9717010100884398,4.333844384501187,0.04886618173749069,-1.452447552900154,7.977943072746296
0.584,0.8302756056492182,-1.0487598916776122,5.184158682950294,0.20142888119977886,2.6087801981323064,0.14879840750407713,-3.3525478868521117,7.529615492321546
0.588,-2.152073445343219,-0.5729886848742307,5.195046236341938,-0.5438416403333646,0.9708957408475811,0.4939016109773955,-3.547483996043408,5.188761928506835
0.592,-4.548746147587595,-0.36948901747838736,4.934117054157962,-0.7962320757672945,-0.7689562944061796,0.831477928461128,-2.7554521699866736,1.6321890476984349
0.596,-6.094389401451892,-1.2058678171389587,3.983395169855351,-1.3397137559921841,-2.7375740544143783,0.9312547212147693,-2.1942739954103017,-2.034030496632928
0.6,-6.55340417460178,-3.2304629726679153,2.2151723222695505,-2.659188320596737,-4.767101767881252,0.7355205688724933,-2.792205246516377,-4.677788360641729
0.604,-5.738585794992893,-5.849958730953253,-0.042917686984917935,-4.62581473776539,-6.450525691829995,0.38593893960866055,-4.637290834448477,-5.559321931411535
0.608,-3.6934300010502144,-8.064300561528448,-2.1405611695602973,-6.583071069726227,-7.423403357212283,0.1119415691712522,-6.967169364985622,-4.6035063005814365
0.612,-0.8682198114069177,-9.01378348121554,-3.433651081261358,-7.731489840053456,-7.635905142442752,0.05085499155336137,-8.659461035611592,-2.4199651873011643
0.616,1.8894800438902608,-8.424462232569622,-3.627978362310726,-7.565970358771919,-7.415656810905215,0.11944879425899835,-8.913304095571819,-0.03589828474631851
0.62,3.6064264566495376,-6.699180568685527,-2.923943251447052,-6.1111147707393485,-7.256264898791779,0.03313446558852462,-7.7043856014354635,1.5556645674325926
0.624,3.6262979118123546,-4.643409241133481,-1.8999571494856067,-3.8388094921307543,-7.475917985561974,-0.5110809980285449,-5.7588735555691795,1.842898275618646
0.628,1.9804092670607059,-3.004070949241793,-1.2023693555145725,-1.3549230575159745,-7.962605512509585,-1.6058370808802933,-4.092133682052758,1.034199217807374
0.632,-0.5684670809229573,-2.104466234433377,-1.2237523613396677,0.9106622825893265,-8.189595346186263,-3.0205476743928905,-3.420927704673452,-0.054945736784546284
0.636,-2.8527181374199415,-1.766594697323982,-1.939328039183347,2.831865781505716,-7.516421665708488,-4.274193122711328,-3.7882301683713324,-0.4107345059868508
0.64,-3.8275303660181006,-1.5193025842186552,-2.9571234707925367,4.487428774796266,-5.595408382136138,-4.863330413508335,-4.604776073134971,0.6611447708435927
0.644,-3.0363679516952002,-0.9536788266330771,-3.7500123865449133,5.930768821460855,-2.650380503551111,-4.518252462032505,-5.051307937617088,3.1576246106915313
0.648,-0.7637257858451281,0.010790895138661827,-3.9191207134178483,7.022108317390963,0.5604664323329596,-3.3459004334489846,-4.582919521242562,6.319399338979165
0.652,2.177560757736635,1.097723530864158,-3.3454581320099797,7.452752660250491,3.098421539672799,-1.7827951923087362,-3.2456697227052933,8.919803554855626
0.656,4.8883780518806565,1.8693714007498081,-2.1851548178374927,6.950973195687305,4.307078031044813,-0.3783099957680811,-1.6189406495251455,9.783552055418212
0.66,6.783875280814965,1.9949301530765857,-0.7594252841610007,5.520524143816211,4.116014890768739,0.4603056771295684,-0.45869589477574535,8.287872893236576
0.664,7.741312347739251,1.4138986221415821,0.572669392165297,3.5336774616095017,3.0028020318598925,0.6255631875987004,-0.2591769996114546,4.625993174931137
0.668,8.011242258224616,0.3513117671460677,1.5295931817791513,1.6272464865445295,1.6804187078693893,0.30060630472693584,-0.9792826205839108,-0.2715403598073376
0.672,7.995941990612514,-0.7947960904426474,1.9836983730213613,0.4458281744692254,0.7141003298801358,-0.19522598005818903,-2.084914050354127,-5.117298399474348
0.676,8.040009909648234,-1.6249060014130583,1.982454605524125,0.3617154569883976,0.28206701407841184,-0.6036790450794309,-2.8702785957798773,-8.776985294713738
0.68,8.33493103851669,-1.8883928412083728,1.7037116360420992,1.3173987856137117,0.19395405617311567,-0.8501714301639289,-2.870251290267387,-10.676599594059063
0.684,8.900610728209093,-1.5988450421402298,1.3232900123387346,2.84020024427722,0.08822741406600976,-1.036434755523568,-2.1448055255549012,-10.956083025899817
0.6880000000000001,9.5940052617082,-1.0622181868229368,0.8657389357587008,4.2289302020493995,-0.3226298336296183,-1.3342535062416623,-1.2778830677674309,-10.316094278326924
0.6920000000000001,10.122284807055287,-0.7813898459626143,0.132467310276148,4.83823301123877,-1.0918885977912938,-1.8588059849864882,-1.0800047043026355,-9.641764184605252
0.6960000000000001,10.077815689750912,-1.2610219918822019,-1.2290928595755561,4.335822662662467,-2.03924895167562,-2.597120170072289,-2.148579855697717,-9.5838195593225
0.7000000000000001,9.040436055707655,-2.773541754730123,-3.5164027756456706,2.8324458117989026,-2.8776960436723336,-3.4195440350502277,-4.503214089488761,-10.278331394768031
0.704,6.7548155063553885,-5.197803787493525,-6.732327223848419,0.8305303468205847,-3.383768408375794,-4.141753171891883,-7.500252598668794,-11.319430146420274
0.708,3.3262927205577126,-7.998760019713106,-10.432101880854784,-0.9755800802078634,-3.4896984153118025,-4.59063767994037,-10.078866713893731,-11.990956375558568
0.712,-0.7033575676571013,-10.385686797336543,-13.780953489544935,-1.9738728438588797,-3.2610755668427207,-4.650515995887477,-11.229035763921772,-11.636993753911739
0.716,-4.491446032701722,-11.621738344440482,-15.848877835100728,-1.8769509916390579,-2.8107741640629285,-4.279883263798463,-10.475128254649883,-10.00538038166251
0.72,-7.19838124467778,-11.337629683991747,-16.003206112173213,-0.8167151884427728,-2.2067492794923393,-3.505645953722178,-8.12624722076943,-7.384878112935648
0.724,-8.320774952178855,-9.699036787021338,-14.205100931917112,0.7401761506618332,-1.4472878244598757,-2.4158915476536182,-5.14831721870196,-4.463666656430204
0.728,-7.859239224396419,-7.316715778701485,-11.023074891031028,2.236868125389636,-0.4937754435519439,-1.146590878450497,-2.7040440119863827,-1.989071522653409
0.732,-6.224047403166535,-4.93121218360119,-7.330216513811722,3.3142311112389606,0.6839242462830155,0.13334018592562336,-1.5962848866118788,-0.42305295606107673
0.736,-3.963875154685837,-3.0653222519651173,-3.8771571123217057,3.9707981533479533,2.0547238119672673,1.2439769323435517,-1.895619149190415,0.21962442769633883
0.74,-1.5011570943598045,-1.8475774336139748,-0.9978998051404292,4.495375872492355,3.4872573640209583,2.0223817434352336,-2.949046219107257,0.25842661835263336
0.744,0.9368940496876896,-1.118186024751461,1.3690422002908065,5.180690430552186,4.727693044110883,2.345467090107234,-3.7708465376928055,0.040777257027321934
0.748,3.1804449557100414,-0.7135398843985232,3.3927097297176747,5.999872564592799,5.426415835753025,2.1393094027744572,-3.601579087956175,-0.35425255448625137
0.752,4.921922644990026,-0.710020709149513,5.013485770742946,6.467822688117028,5.233664693451399,1.3813258662084202,-2.337172539857284,-1.2028345953643607
0.756,5.6794953470462985,-1.4215507309805495,5.83378100647675,5.827478345230118,3.9653444873582897,0.12254700897721515,-0.5781652137518223,-2.9166621941297506
0.76,5.029240632753028,-3.1188450714526654,5.352642485039688,3.502839782319894,1.7721731690976859,-1.4672233851480123,0.7248157202134791,-5.644107613382632
0.764,2.988180799078135,-5.66011952259459,3.406423405836792,-0.4263153330386027,-0.7993747289770878,-3.0602082552039693,0.8343537757024988,-8.945300570966534
0.768,0.2841086885190549,-8.296517894615167,0.5221913597491099,-5.0206844572691445,-2.916247542202875,-4.191387132653741,-0.3159436753333278,-11.779281994414113
0.772,-1.775800102715893,-9.86822806953025,-2.1244298712787124,-8.758575100287807,-3.7577636750418195,-4.393389431041073,-2.0556469169337097,-12.917293980890381
0.776,-1.8828604148097225,-9.362705479548032,-3.218959778780091,-10.216666956044676,-2.90025372763165,-3.413450280911621,-3.341723734134421,-11.583660519833154
0.78,0.5112251384209321,-6.5397857547410485,-2.03064640013359,-8.821249622176124,-0.588314389621051,-1.4199477515831616,-3.3466332472564266,-7.978075422863116
0.784,4.676772084594381,-2.268897928677036,1.0555098072517688,-5.273359800961369,2.254212204340787,0.9329482926642951,-1.9519843196348488,-3.3639871413037237
0.788,8.719062645215233,1.6941028513456278,4.565617281577617,-1.3625120196266298,4.341159227089719,2.6837298041750954,0.13574685133340703,0.3995166775184582
0.792,10.40251364697469,3.4843149582249993,6.619043438243205,0.8272607499285538,4.586737607630653,2.9743991740769973,1.7565364638003602,1.70975151652722
0.796,8.306470979471047,2.07111455477337,5.925384202531767,-0.06160815514353413,2.6443353559763505,1.5150708805928326,1.9389185074571513,0.02865170263556216
0.8,2.691554321529365,-2.1457492229223947,2.5365739922432615,-3.9509025783321725,-0.8689459444380638,-1.1558657589585604,0.4456727388202091,-3.805218507493615
0.804,-4.439817563008785,-7.450838791320212,-2.0989699881136046,-9.319508887436074,-4.609494357242051,-3.7962128498211563,-2.072640145402155,-7.945057680951231
0.808,-10.181050485861844,-11.598009464271957,-5.8235966502369685,-13.910972705475167,-7.087931932785946,-4.966810355084389,-4.40264205938173,-10.408399171953988
0.812,-12.066610950101921,-12.86568566850531,-6.835569334887813,-15.802764399196146,-7.310598994655454,-3.719649007965529,-5.40349345941345,-10.019571957302393
0.8160000000000001,-9.250019994131005,-10.845740345319232,-4.56213899682837,-14.29485177033043,-5.169401752677945,-0.12231374666564188,-4.599925107013439,-6.945385795485312
0.8200000000000001,-2.9018866921005246,-6.551554315929833,0.13098551146867798,-10.169262239373595,-1.3947282672091568,4.677426562448685,-2.404847385031655,-2.5510650094452028
0.8240000000000001,4.381178182890883,-1.8257152293124115,5.461449733159842,-5.218546539890067,2.8486479443882047,8.923234240122772,0.12877003778172114,1.3339106173570974
0.8280000000000001,9.828830649437029,1.6071707105213626,9.65722291883652,-1.3360825038361126,6.476437698272873,11.041692733792276,1.8731837957625896,3.317902607900713
0.8320000000000001,11.759252784925769,2.930004286618959,11.75109503578455,0.3418297323403907,8.842469865435131,10.35823615344055,2.185966651221097,3.0514439119225445
0.836,10.212987368981107,2.451537283562579,11.823931384017332,-0.19414317563466943,9.784439465225393,7.37823738442775,1.1584841783999997,1.2423591312879658
0.84,6.691496654387462,1.1983503689221982,10.64709163679676,-2.0756418613982923,9.41856209573459,3.492128135453473,-0.5610880595198906,-0.8765673646115033
0.844,3.2291259480957564,0.1772955819083908,9.026777615754595,-4.201033450142697,7.89162769708795,0.2773155193114336,-2.2218678783565737,-2.2687050375898536
0.848,1.3441465235978551,-0.22267627010881474,7.316547921179374,-5.857347004207456,5.3076319446919165,-1.2284354250180254,-3.401979512486131,-2.585223812059242
0.852,1.4237050570890508,-0.3436616749903756,5.394535747889702,-6.959130088553641,1.886912887536433,-0.8998745776951704,-4.158446255349715,-2.17599246351275
0.856,2.79596962425046,-0.871829082365136,3.0409106044413425,-7.830430834966197,-1.8044655314934717,0.610121466983951,-4.832223210534537,-1.6702820515402443
0.86,4.340725010079693,-2.232390315848047,0.38433850470828634,-8.74044589902929,-4.788185947438347,2.3843411301537967,-5.667992448500306,-1.435843526437111
0.864,5.200467371838596,-4.202900468964049,-1.9824963652482888,-9.563359990176107,-5.95648353970079,3.7955979232942223,-6.539712370097334,-1.2821391717350807
0.868,5.157403599658347,-6.009739215406743,-3.3534352382057104,-9.823039308083148,-4.634206317185386,4.760552624887782,-6.994539381812,-0.6166410178389237
0.872,4.517112530264679,-6.837788173274456,-3.4936087129035034,-9.08363598381828,-1.098336724209712,5.570823611436511,-6.595152172438711,1.0513725806650396
0.876,3.6657068953069922,-6.421021943539455,-3.027035511809533,-7.405173962368732,3.3005744123900964,6.466475033447681,-5.33480000748097,3.6015943376779314
0.88,2.672999600260283,-5.284485554764765,-3.2542510266082,-5.505414499179153,6.619647783807739,7.275187738432172,-3.7966409658574705,6.161374329479717
0.884,1.2434988783613639,-4.458353260240657,-5.424481437103109,-4.46396622748921,7.22871184309789,7.399025935497946,-2.895409468076081,7.483223000858043
0.888,-0.9681738877514912,-4.823621768584864,-9.872265628872778,-5.107478277622867,4.679762393641057,6.172715572312452,-3.3401472704991315,6.649690644312957
0.892,-3.9087362449770957,-6.488470271255379,-15.57301939263253,-7.4446829329066775,0.04431280369377699,3.36517855927945,-5.142042665484515,3.6825434354007354
0.896,-6.879181853668276,-8.59520353134414,-20.465328725339496,-10.517176245911596,-4.528569146580968,-0.5075440554265471,-7.486319471980364,-0.30682461368478364
0.9,-8.716496025039165,-9.714065466814247,-22.435069483568398,-12.814478503914575,-6.845960110736785,-4.301482228040581,-9.098062494665518,-3.5769236472550947
0.904,-8.346426744998874,-8.62787218543195,-20.445993477814962,-13.044231153314094,-5.76527400898144,-6.753471782986569,-8.916138511834534,-4.587285056245167
0.908,-5.380787450096117,-5.034118586415137,-15.139718275574799,-10.805799698378987,-1.733286846894675,-7.091258219985884,-6.672149935081151,-2.7441372278866574
0.912,-0.4058328372195241,0.2559646875827375,-8.517871202488307,-6.779634480212362,3.5398445029905172,-5.397407845078597,-3.0132976405984975,1.3539112657333403
0.916,5.234021184187784,5.740277812372837,-2.8714050992943885,-2.316224970819908,8.085047623915685,-2.515294408186782,0.903367397972372,6.303423594807636
0.92,10.04583256290186,10.01180696172587,0.4191463465010732,1.3208167875092895,10.76490404143397,0.4276360520404814,4.0706661999636555,10.658282796647761
0.924,13.028602044142819,12.397160818973957,1.4673352754509814,3.5733034159846113,11.77133447863227,2.574373978502507,6.106172489291372,13.608560191785191
0.928,13.982252580607163,13.079425318179576,1.5036551983971211,4.695856780136056,12.23323401379395,3.6321965816870287,7.236435889388794,15.172965251552988
0.932,13.3463025713556,12.677625573339464,1.7955892522960593,5.3162363828500325,13.196505879983343,3.7505639112364544,7.806191215038725,15.822397348711284
0.936,11.723790632077794,11.602231222145388,2.568129705518629,5.772682542312719,14.639306081777157,3.1267412810750823,7.68777753460159,15.826445117369925
0.9400000000000001,9.438976431195655,9.673418999019582,2.672138328277496,5.713085865168864,15.20867094268929,1.6615378418873403,6.069875599792753,14.796175042158323
0.9440000000000001,6.439295796104227,6.294423016687468,0.2774027531200609,4.271852686834036,12.924791667391954,-1.037235433157793,1.8852008398441997,11.796320948123146
0.9480000000000001,2.6035783929657015,1.0892983650577808,-5.787343032981283,0.756405985586774,6.494938572166064,-5.270804216751893,-5.325079521545354,6.013563479891184
0.9520000000000001,-1.8184856289260196,-5.448084445934736,-14.889215657696095,-4.62223423781775,-3.557008249425073,-10.753395077474629,-14.662649376439179,-2.4376329622418087
0.9560000000000001,-5.9875983211593375,-11.801336577974462,-24.436643511490367,-10.497284297229115,-14.703138777094487,-16.37840459415698,-23.799650355766143,-12.118920035302803
0.96,-8.707525376515935,-15.970822436578768,-30.918684106300468,-14.822139108264654,-23.374542772343837,-20.490028596194318,-29.780433669088918,-20.611546038033204
0.964,-9.034044404688679,-16.47180026128211,-31.64329949168792,-15.87807765223264,-26.631267633901487,-21.584572840163144,-30.361240704073275,-25.488965061349848
0.968,-6.88268234174528,-13.194982864945512,-26.196205667999465,-13.228589499924624,-23.620093135950704,-19.070594045347733,-25.14486327733597,-25.405550932493522
0.972,-3.2339590233384294,-7.578515589141111,-16.76139849035518,-8.040964685939063,-15.998125617065254,-13.650782714456065,-15.860155313511722,-20.72364503067979
0.976,0.2643301351314138,-1.9225909641809444,-7.072178890724704,-2.5280674032737425,-7.065953529038987,-7.05900271565711,-5.565717019868544,-13.297767634903153
0.98,2.1345413836845655,1.8178739765219802,-0.5370569794019793,1.2141881282600395,-0.0685574532409694,-1.2613061331251387,2.814705914776834,-5.531001779540155
0.984,1.8726899992021853,3.047674132828039,1.404635364854878,2.305744772159603,3.3686552259555054,2.451343749813378,7.817847930708831,0.7517683551508221
0.988,0.2359793805031991,2.7593144939945056,-0.1940941170858732,1.4831882600885313,3.8213571514085842,3.978656430092043,9.900420717913729,4.992404174991185
0.992,-1.2008746925801432,2.826556209612505,-2.6421194847056313,0.5540617901158402,3.39100787605301,4.25974182365929,10.795872243681618,7.7894863383704145
0.996,-0.9707350136582722,4.785404100047462,-3.295932350541003,1.2404575254795454,4.229298365778341,4.57803260501235,12.213120047608271,10.130172316370036
1.0,1.4231157900543554,8.858782701295958,-1.061173651445813,4.118721291653873,7.1876383853983725,5.750431093047034,14.688795563990986,12.517173455894497
1.004,5.187136026997546,13.77593113030057,3.103772285872271,8.262250346724272,11.346191312976522,7.669273519233748,17.255286992162958,14.531400265673103
1.008,8.674595838275742,17.50573332012137,6.924988005523971,11.804819967173419,14.664407739746103,9.449131228155418,18.113582053451296,15.122005536050363
1.012,10.318439836959953,18.45749251701467,8.285027363243893,13.069394458840893,15.309289633032584,10.039864184613426,15.869078195623988,13.416171103831475
1.016,9.512619112551796,16.41583286446432,6.507024139020807,11.572147478192633,12.815996149731358,8.899161312797105,10.553547778164067,9.491270138988606
1.02,6.942033263400197,12.672204154768465,2.709640816696722,8.314329617362787,8.397830687019129,6.31761251257328,3.8139198379092374,4.585418297389775
1.024,4.169216000036112,9.28541505597593,-0.9308061097443936,5.192334732304827,4.248617274679573,3.2285144166659996,-1.853968570625593,0.57920107198197
1.028,2.7383415250317995,7.932454592614528,-2.508759052914158,3.8954264008275494,2.2986118729917298,0.6570923609521753,-4.363248733533034,-0.9545883561410982
1.032,3.3317221519416407,9.040979990407621,-1.47456772151817,4.9632178797272415,3.1924997290232815,-0.8231924187780137,-3.0528273567413837,0.4267549393715413
1.036,5.435144791589272,11.66144961405285,1.1282705985148853,7.5204981662077985,6.047996957365573,-1.310743488865219,1.0581340804667079,3.8042875250606976
1.04,7.671909192265606,14.110758803690654,3.3755681872012224,9.821213945414677,9.090906608791084,-1.3647695047040709,5.879107774012199,7.403752096370107
1.044,8.573083792563507,14.937846661208923,3.6173170872580758,10.239555565130129,10.70652890471745,-1.5449188145619632,9.31038390614719,9.529493769765383
1.048,7.345756397401924,13.643726400662638,1.3715293454105957,8.132079093096834,10.26586949947567,-2.019307910077276,10.171063714136281,9.391009163700126
1.052,4.220612792326477,10.78700834436016,-2.530749274636014,4.1083036610354595,8.279575548990334,-2.4855479752862037,8.544818029177042,7.36793546695724
1.056,0.2590380037946487,7.507123865447951,-6.551073714275364,-0.36817318569155333,5.882155917750245,-2.433116815339401,5.475986270243694,4.629387866952359
1.06,-3.2096477789582085,4.844256879516026,-9.346610937110519,-3.7571850294564264,4.062568644853692,-1.5570255862387037,2.297596869385298,2.3917269155554575
1.064,-5.196179157614371,3.260562719889404,-10.417226610253596,-5.153274243991873,3.1301766713444374,-0.038830473864992054,0.008659216538535297,1.2782232079045937
1.068,-5.378370798330286,2.6064586268036747,-10.144964065290118,-4.565193726527083,2.7209535836781775,1.5012801277805412,-1.0014592212031932,1.1332812352770372
1.072,-4.048743743233865,2.4586626877572524,-9.292958525443947,-2.698848390362503,2.263081418732302,2.3420016839626525,-0.8437526144322804,1.3370168102104518
1.076,-1.8418981084158208,2.4954097752759834,-8.397888551139765,-0.49132104865744086,1.4982184208716696,2.0638192245488103,0.1422243187775578,1.335749330570298
1.08,0.5590052831286592,2.6505477351328564,-7.465428330426757,1.309524742151929,0.6999833611724817,0.7696929009007651,1.5996391069264444,1.02236226012295
1.084,2.5899220580169264,2.9719612524889847,-6.149386844759174,2.314471349381389,0.4378237523666382,-0.992800607638727,3.208096725345013,0.7431503045233496
1.088,3.8284038139047123,3.348340033750487,-4.239108929593909,2.4173899273997823,1.0779724697217077,-2.541199687254266,4.6339088718336,0.9654843597501515
1.092,3.985047428519939,3.382351747209566,-2.054054173986236,1.6492197882658512,2.4023658032374273,-3.3974082643791617,5.519864833064027,1.8624205309604314
1.096,2.9554680730979452,2.549762273850992,-0.42202977894148397,0.1151808264122014,3.6257320666815707,-3.4642264409726606,5.586637357887998,3.1051720030356087
1.1,0.9351313865984814,0.5726357831050333,-0.21974929168634283,-1.9487483575256883,3.830317355419412,-2.9663444363112594,4.803714606117527,3.9934396324360577
1.104,-1.5067023131644568,-2.267155938147102,-1.7791617952236507,-4.108650713501028,2.5280648417025784,-2.232998271370571,3.494138255710665,3.838325894878116
1.108,-3.5243154547132036,-5.12086244305441,-4.563720319697092,-5.787336911464269,-0.017363630574362077,-1.4874128493253438,2.2432904080602873,2.3602865933324324
1.112,-4.2940560716467715,-6.9305886597411686,-7.356520421744948,-6.4795279194841235,-2.9179956381868433,-0.7726421753359944,1.6296924845684773,-0.13587742864930985
1.116,-3.403765844079132,-6.985147856104314,-8.89150211318834,-6.03674483226111,-5.17094504246788,-0.03799351945903373,1.9165850751235158,-2.9029309727603274
1.12,-1.1135598691114303,-5.3225526635280715,-8.530563980220755,-4.8128990577736595,-6.202811872281704,0.7067198223464857,2.8950899177483755,-5.102840427873184
1.124,1.6795602674838106,-2.7552279278453895,-6.597901543426203,-3.5531859868474047,-6.13469524789315,1.298441125775156,3.9788954273698325,-6.166909085412332
1.1280000000000001,3.7850148147453915,-0.51180930827402,-4.180975053334668,-3.06017444861338,-5.630850628769425,1.4626357311167988,4.507174734888949,-6.004720609002575
1.1320000000000001,4.233191158506964,0.32598767567835285,-2.5107816138482377,-3.802007425515052,-5.434086971166531,0.9706957966403307,4.074218178704826,-4.998262432264083
1.1360000000000001,2.70669012390215,-0.7106430557245282,-2.28607745285378,-5.67942796500091,-5.8938183811701625,-0.19846319250233035,2.703520549695483,-3.826717067658789
1.1400000000000001,-0.3303530427171948,-3.3241063066412995,-3.3257076016086735,-8.082827482500448,-6.772320927913562,-1.820544476547671,0.7729070726873211,-3.2353615401271583
1.1440000000000001,-3.876240772946412,-6.669570012135013,-4.75500693255969,-10.212542927204446,-7.453415215515639,-3.540416707137194,-1.2486357239817893,-3.8332685374475433
1.1480000000000001,-6.8678337379444425,-9.777804387589883,-5.57168965039644,-11.461118329952914,-7.385699077085524,-5.067589282835184,-3.078607416777346,-5.945807486849621
1.1520000000000001,-8.618285092185964,-11.918412635989291,-5.210137893151318,-11.632102635812995,-6.437506921188609,-6.325274484994376,-4.729313479876458,-9.49841111855771
1.156,-9.019620209366103,-12.760046287947183,-3.7873483433314803,-10.917013941028316,-4.9526765665820065,-7.457110635393093,-6.394747337466367,-13.953665767711925
1.16,-8.451082034370236,-12.324277257454776,-1.920514102536595,-9.698515584992439,-3.4823027726905487,-8.690756543172547,-8.20287701165877,-18.36464137629329
1.164,-7.497052763850294,-10.864777438044879,-0.28710030343668613,-8.349819826508638,-2.4061974927861822,-10.140865617563112,-10.022440713977046,-21.59826296581265
1.168,-6.668644691494275,-8.787106900105252,0.7676928395240381,-7.162425060212461,-1.7161082163997698,-11.668981055476063,-11.450402851519025,-22.697347021732842
1.172,-6.258166264734071,-6.615193173001366,1.3547384184031,-6.384016647155648,-1.087851732340681,-12.888567942208216,-11.981382809991974,-21.253796509493966
1.176,-6.35994730767445,-4.959338265058357,1.8384039884115486,-6.268695632883391,-0.20287798194954698,-13.325879237298338,-11.279882555675751,-17.632443350215606
1.18,-6.970239026073379,-4.384950550017714,2.4979684863961618,-7.015697239885763,0.9296326348744364,-12.655968353966163,-9.3901823452558,-12.893289579467242
1.184,-8.044028742197307,-5.192593622130319,3.2910249443178796,-8.5846723151382,1.8807388079659346,-10.875437907672971,-6.760327553370189,-8.40254915757177
1.188,-9.454725512671512,-7.216450735643498,3.883200113540123,-10.517582787194645,2.0285745120976006,-8.332324829535668,-4.066279072281078,-5.288385523699595
1.192,-10.909442875010257,-9.79106239383838,3.9023758777741877,-11.952080285361692,0.971463440968545,-5.608345006468817,-1.935218319095461,-4.002722462064309
1.196,-11.942249012090222,-11.98730784075,3.2134205271506477,-11.928944947291335,-1.1535796723817753,-3.313588704417686,-0.7165011627195885,-4.216615299824104
1.2,-12.050662186658599,-13.024150495811657,2.0271397643352,-9.888081705470986,-3.6518610263960607,-1.8916881871668725,-0.4059285699778288,-5.094342428578036
1.204,-10.94252480023274,-12.65650652985634,0.7617074294245203,-6.0865063474225725,-5.598569311879456,-1.5094862043742756,-0.7299236582806419,-5.781032850719254
1.208,-8.779194543117733,-11.325662781271912,-0.2548287785903174,-1.6659087682275961,-6.344774439763206,-2.0638688196792376,-1.3215047510053877,-5.851953383883066
1.212,-6.232221497137633,-9.94390454316211,-1.0147671290714682,1.754422721167547,-5.884465617205673,-3.2707417008094763,-1.8849489631276786,-5.473509849832965
1.216,-4.258874194011005,-9.418617119731987,-1.8311836835522914,2.795391538180901,-4.865380321255863,-4.7855957771672495,-2.2652565145872465,-5.2148619367447475
1.22,-3.6765530594109466,-10.156267279501094,-3.0881769672333252,0.9871084611960468,-4.2131019610643605,-6.307792578448456,-2.4112096748980036,-5.63493709065671
1.224,-4.734380007621044,-11.820650665194256,-4.898428093844348,-2.9662183578148396,-4.574564541952948,-7.63634675245505,-2.2992276048065623,-6.878207566025272
1.228,-6.932073553284729,-13.493478681894207,-6.903113041767742,-7.495164261587545,-5.908782730785943,-8.678046285884282,-1.867150450031492,-8.5149300826536
1.232,-9.220034708548868,-14.156444160679563,-8.380503806322402,-10.912980930622817,-7.473375781008524,-9.436021626106013,-1.0248929284492005,-9.722604132986724
1.236,-10.484084801266565,-13.215222642465733,-8.607945823567176,-12.190835061973894,-8.21016291707289,-9.972324825258347,0.2757362031390507,-9.677966233973681
1.24,-10.068847878063508,-10.771408917240285,-7.25837143265273,-11.348950192479506,-7.301783184258316,-10.35665731677219,1.9741802759579352,-7.951839801798761
1.244,-8.097196616053107,-7.548690106093418,-4.637476041275488,-9.317190959748235,-4.6331438252534936,-10.63736352705954,3.8571453904978084,-4.741132555542439
1.248,-5.4224497169434605,-4.542107395552563,-1.6167388236319384,-7.384509044074525,-0.9129778978623637,-10.83369585243627,5.584270415241352,-0.815298255206693
1.252,-3.230907503595777,-2.59236830386528,0.7216672422471921,-6.5582357163809775,2.6125721842842573,-10.947160877958963,6.783015965307116,2.776714512007504
1.256,-2.480814742543975,-2.0955591496308115,1.5455625841016154,-7.161921674560013,4.698923169441626,-10.971081249615365,7.171825016117419,5.108230735747122
1.26,-3.449875229953886,-2.9336313838970107,0.6334065916375384,-8.819445643910496,4.653590625631699,-10.896220496369718,6.673179125020006,5.729733181646808
1.264,-5.6176950214931916,-4.616607800358109,-1.5473666307625802,-10.769763388823801,2.6244009138621776,-10.707318282972574,5.46711228644687,4.838734540067202
1.268,-7.915660878606653,-6.516678154741759,-4.071435308816358,-12.276371146049891,-0.49653040556387484,-10.361019367580152,3.9515109213238278,3.2117232622985874
1.272,-9.209458510610986,-8.070139657305827,-5.969142467423579,-12.912440618821385,-3.492003491858222,-9.775798464510961,2.6045654979097934,1.9006173300965887
1.276,-8.807277526967603,-8.928682685950736,-6.658931337213427,-12.65047620236532,-5.388211196601569,-8.871874499544345,1.7818245296579422,1.769364929811224
1.28,-6.755012947478577,-9.041482999604224,-6.200804025765507,-11.780279882471937,-5.899682872508064,-7.644673492274473,1.5373632554512446,3.057990563860125
1.284,-3.7985019088555063,-8.679359132064112,-5.27436828984724,-10.771378536254705,-5.564474430778427,-6.233068919108516,1.563403944398957,5.168989183351361
1.288,-1.0460458810269222,-8.37479682860139,-4.884546151129612,-10.149027438147638,-5.499928280926741,-4.928656746129711,1.3050933943133702,6.832840434845349
1.292,0.5206717680541628,-8.729360826552888,-5.889659135184762,-10.36873420481154,-6.8517358287808,-4.086104267430865,0.24403622082845988,6.647243372246353
1.296,0.45892623834256074,-10.122571675445714,-8.557087830463017,-11.669704843813664,-10.183142719921905,-3.9560347070301245,-1.7809039155389006,3.7912552683066143
1.3,-0.9675463403485027,-12.414118958865703,-12.328678083741268,-13.909581882200865,-15.069181850066233,-4.529445772235679,-4.381091552272134,-1.4310853201364129
1.304,-2.9392931066565757,-14.834794522271071,-15.945764885430178,-16.48669354693919,-20.12440414702869,-5.490283308260164,-6.694214010110169,-7.539433646402162
1.308,-4.485684847900418,-16.211301767446287,-17.935028114599824,-18.47042949153604,-23.508587391909685,-6.330462363742481,-7.742884789924846,-12.43467215346023
1.312,-4.949316284347367,-15.485427788263358,-17.26529428936428,-18.957002332219325,-23.71686341671973,-6.592786202909753,-6.924182479827927,-14.355961941276785
1.316,-4.284442646052754,-12.31251051360816,-13.890302507706547,-17.524204937919787,-20.309597485098,-6.126247163572874,-4.386076368478668,-12.788345035118752
1.32,-3.0310012473992236,-7.379156549509485,-8.864705019666406,-14.520419395111457,-14.193871706931386,-5.198746612072621,-1.0596917041536047,-8.80896675200554
1.324,-1.9716421484495998,-2.209656845740651,-3.9361802385984146,-10.985022441614625,-7.293479422277314,-4.376698347056575,1.7220543927306418,-4.622501763090235
1.328,-1.6511503858035157,1.5077300755425234,-0.7682447276820876,-8.182801864522562,-1.7314145935036058,-4.217040866872665,2.857889299362742,-2.4722298722041507
1.332,-2.0330770270183214,2.74791415878107,-0.16887886796403273,-6.9698747354688235,1.088870090887181,-4.93854505531265,2.019349556640985,-3.4729995965592515
1.336,-2.5264746494961443,1.6468716827559124,-1.754537245946251,-7.371297933587481,1.020677518231894,-6.2809513807886095,-0.21834835891364612,-7.033851651999575
1.34,-2.367320037832247,-0.6052435242402157,-4.219910659702057,-8.61370527180349,-0.915775290608142,-7.635889824682491,-2.7323581483707153,-11.200114603325638
1.344,-1.1532440028346702,-2.456550406619731,-6.091498826695245,-9.624859297726985,-3.1976595835632544,-8.386421416223058,-4.499028532679201,-13.739425829487688
1.348,0.7785469029884435,-2.89937765413754,-6.562272342045006,-9.720344625022195,-4.667368607826924,-8.262366166908045,-5.163117602433957,-13.382061956990153
1.352,2.412281177842626,-2.0407042788089056,-5.920487536678536,-9.031923738770919,-5.106917908288056,-7.4880444949577845,-5.181679807213656,-10.497506299343902
1.356,2.564280608550913,-0.9964852745910049,-5.314121801200473,-8.409284551627284,-5.221201636664635,-6.633736752195832,-5.442337054128455,-6.826831350388106
1.36,0.5944717834121329,-1.1405185363997885,-5.967186580655842,-8.822401018538187,-6.05030078214503,-6.256263921969229,-6.581264599773257,-4.423735095131942
1.364,-3.0885496581497884,-3.164794197784468,-8.324413279026695,-10.625569440729388,-8.198088757515972,-6.53194596013577,-8.433683144312763,-4.429813618011574
1.368,-7.078030409809667,-6.550371704672804,-11.659023973536836,-13.183170014184931,-11.373420664823904,-7.113455893691007,-9.993726337862931,-6.424483239917811
1.372,-9.595990746348564,-9.773348403993785,-14.39740368327174,-15.119698006461395,-14.514986414534702,-7.3117041708151,-9.945506957700328,-8.726537226484375
1.3760000000000001,-9.396122600375811,-11.14990571980178,-15.001198250643995,-15.084489441643882,-16.41570221280724,-6.512582378404787,-7.479625699556879,-9.449904496808013
1.3800000000000001,-6.452108797729904,-9.814594264619704,-12.880157776350496,-12.581954445469368,-16.432502164702367,-4.5857123416355705,-2.901680184415446,-7.681574125927055
1.3840000000000001,-2.046751420037692,-6.258910008602321,-8.80155275968475,-8.365240330980859,-14.84935683591673,-2.0483494791523826,2.3598658890856674,-4.063114263120488
1.3880000000000001,1.8194521200511424,-2.0995321099882602,-4.532441920486282,-4.130691286045428,-12.669048942828,0.12006884137890872,6.3952885385898846,-0.43185430778145806
1.3920000000000001,3.4137320701405613,0.8039961423555846,-1.894689472699734,-1.6479302573729424,-10.962150126390672,0.9373622063546835,7.766557110875916,1.267890958776631
1.3960000000000001,2.112078787993547,1.349486700637272,-1.786335636307097,-1.822414789633449,-10.206257820647277,-0.09208952275423177,6.241126889868554,0.13326749714257335
1.4000000000000001,-1.3315878589451393,-0.24936866831420712,-3.7219750882679072,-4.209398253746874,-10.019019653921536,-2.7104890550289227,2.888650978172138,-3.169228234665247
1.4040000000000001,-5.21855646095158,-2.6615090469131593,-6.156273595612552,-7.258281316509663,-9.460367715834806,-5.9863869761063375,-0.5117003674454685,-6.79101148066892
1.408,-7.777012582109805,-4.24275139852609,-7.389253062718513,-9.140810091961853,-7.703008220677196,-8.693065826257435,-2.413807384220771,-8.751873481756174
1.412,-7.99514001372865,-3.957409696334225,-6.523794741396504,-8.687046725651145,-4.6385903369522214,-9.80706186292129,-2.263213056352799,-8.025640971386048
1.416,-6.03035045557607,-1.9200353989197043,-3.9456420932072267,-5.943557215074545,-1.0518552615061676,-8.91203131008093,-0.6692798754380398,-5.043847700620464
1.42,-3.0200529684392414,0.73957783922285,-1.0516629619372235,-2.067618875772878,1.7717156038725248,-6.342428608881528,1.0684789323553856,-1.3671341976054747
1.424,-0.4466927220011816,2.55664859403123,0.5776076676598798,1.3473299910365606,2.766624090939504,-3.019804554462694,1.7713686846307835,1.2617734924696604
1.428,0.593841960198568,2.543159624875571,0.07245967747769089,3.1186891213986954,1.7156453641706166,-0.06111188327963224,1.0581976633117522,1.8977394112776973
1.432,-0.1473008830501472,0.6750365468423463,-2.270681151490855,3.03512441960494,-0.5875056324620149,1.6682529814676903,-0.47558681034534955,0.852763619697928
1.436,-2.0661217918248274,-2.174335807812328,-5.209835558255619,1.8654310702855699,-2.7346164624699227,1.8841757356746338,-1.646146086289487,-0.5759952403100745
1.44,-4.057790244921494,-4.721688198491696,-7.26577426244094,0.8849471857701077,-3.4044688241402206,0.9740305560809763,-1.3809307593984337,-0.8992637722064467
1.444,-5.018652682068442,-5.889079729675103,-7.507525380024944,1.2001003614048167,-2.000469874528315,-0.19395148932601058,0.6892083366285924,0.7324581090478124
1.448,-4.27967361341286,-5.239313357098919,-5.995001421828844,3.217536423083932,1.0919971425894879,-0.6761011753149253,4.033361559250774,4.106166650553218
1.452,-1.8151391348337098,-3.0572566171263604,-3.6698866682527944,6.502230883268179,4.730391438726684,0.0968369998019516,7.489326210637514,8.117467079124685
1.456,1.7870910903776638,-0.12619898331377544,-1.805544527376866,10.03544757250509,7.5621669501600675,2.026211176221088,9.816015624649257,11.380674133231722
1.46,5.559033180148033,2.648056692126706,-1.3280055861649336,12.718138107562819,8.62077484327385,4.363094433733083,10.244952774511148,12.907979558034226
1.464,8.493703422919548,4.564608820154218,-2.3821099603567273,13.857960047112442,7.691224347738961,6.049836989568022,8.773554675970553,12.51218007655856
1.468,9.880539768367598,5.299242821459352,-4.336702234406457,13.425029900037732,5.319073759928105,6.242789222162566,6.094883072694475,10.766842882197512
1.472,9.544500269684702,4.924594325787652,-6.16566826120563,12.002865378799724,2.5297726164115772,4.763051076793635,3.258695100514097,8.625291409900392
1.476,7.889225390226015,3.8115298910387025,-6.98221529960222,10.478997925921666,0.40640270299674763,2.2293722768504494,1.2482622730999906,6.9448557442923935
1.48,5.7293840538297065,2.487964641893566,-6.431255727397171,9.644709761812138,-0.28077336602952885,-0.21855239079714028,0.6371171365429764,6.140135300420498
1.484,3.9375677683512147,1.4608443973890695,-4.7889737784409325,9.857595492883723,0.6996528092153738,-1.4836543273631957,1.439758678177212,6.083693151306803
1.488,3.0677215547009293,1.0545725471254765,-2.7518274840030355,10.926024523686642,3.0257457617748975,-1.058887651892137,3.191906989364913,6.285573103744105
1.492,3.145050260475002,1.3174558257390785,-1.0541765336345643,12.250262359333666,5.994603560890595,0.7354370837017312,5.201426116403556,6.200336434010193
1.496,3.7363517578904406,2.039093985950318,-0.11536086598161543,13.147635282854353,8.805480868164807,2.961368669727719,6.86758381949416,5.507496166468765
1.5,4.279249750230221,2.9063459723722778,0.13697479646739508,13.219396776465018,10.868496865540257,4.597626340383256,7.93235172629978,4.253751911800966
1.504,4.46479695055593,3.7037715589274613,0.1872816374319135,12.561507289444613,12.005724778413363,5.092813308970708,8.553707559862545,2.8158040932822326
1.508,4.4114761739718515,4.41842006639271,0.6279977598429243,11.678985164296506,12.432764793988257,4.610403892001072,9.139594591612003,1.6976028046428944
1.512,4.525956850743997,5.1892673368306514,1.79702989130281,11.155801038496596,12.546788935387394,3.8446061377894534,10.040956508910616,1.2716244993841856
1.516,5.124001174549325,6.113728717001488,3.532740431398276,11.253208405874489,12.620005459643117,3.5344381245967975,11.269761873086148,1.586421171002156
1.52,6.0740801026953015,7.062652994742724,5.1944156944371676,11.684505531419891,12.591249596692185,3.98556946721641,12.412442332117894,2.339488205900759
1.524,6.738608530439356,7.651964095771704,5.9519611079434345,11.724827133233134,12.08909402327955,4.903439319417506,12.822997094441698,3.043673523896815
1.528,6.309204019851854,7.432227247942116,5.213140690661465,10.62707334233645,10.691270597382683,5.628238940288239,12.00196295509317,3.308528378695757
1.532,4.365654105701471,6.218618459329924,2.9824035414909673,8.124557578762268,8.283620460787457,5.612198046489837,9.955616875149252,3.094260883316611
1.536,1.2962716987552496,4.331818475971602,-0.061911427149296205,4.714475916612,5.275998955378551,4.814905833077559,7.289831521139646,2.777489791097401
1.54,-1.7387990639434676,2.549881550844937,-2.841265828192933,1.5155391977959,2.5037263528626044,3.74511636470445,4.9359132457022605,2.94648926649025
1.544,-3.3564408496209013,1.7197572830966859,-4.4068985575628865,-0.27538792482352004,0.8094063040329171,3.1200739502328387,3.6322358814794526,4.021637949892372
1.548,-2.7330983143824574,2.2272640011696376,-4.4496933898757,-0.044539196713093254,0.5346705126529496,3.3635234362522697,3.4644684941395143,5.9164953413689165
1.552,-0.14014134020757796,3.6698869990184435,-3.487861744407854,1.8587922457647217,1.25079044497706,4.285611293412876,3.7603159000358684,7.966359884304643
1.556,3.1154274930260764,4.970722182859838,-2.612087336219321,4.259261610509471,1.92755811959203,5.162098154273805,3.4446605635689274,9.190903970920633
1.56,5.383692301180147,4.96230917656371,-2.8659220452558967,5.785853657124479,1.5198240237313652,5.185798882822356,1.7011122925736943,8.787222267122699
1.564,5.629591922597685,3.1407304606792112,-4.58136794321876,5.665500671627319,-0.3380574864948924,4.014509413487255,-1.4275893202500023,6.60609589207507
1.568,4.0937536873585305,0.13399476180421077,-7.054523985942291,4.219799252807569,-2.9482080322380892,2.065020477108759,-4.879325456518103,3.332595610571233
1.572,2.223430924241063,-2.457670894321821,-8.791502181953621,2.73855966451226,-4.762585810211573,0.3359327831455414,-6.992666054238581,0.21909046589588055
1.576,1.8818262261723762,-2.83035954403692,-8.2433231808068,2.7746796134917204,-4.142484109522348,-0.14867672108156738,-6.323278773497757,-1.516266773577124
1.58,4.285363520197958,0.0601178317945924,-4.636189613868787,5.254651773324518,-0.25628330705201074,1.0550137858384345,-2.4185456826436775,-1.304899992575761
1.584,9.250918708639292,5.840478235251773,1.510576676374676,9.87375262481095,6.332768285626004,3.4926107899773835,3.84233642640888,0.44867406720596703
1.588,15.189324235065058,12.75402716180466,8.473342519477704,15.129355753001402,13.734757391808774,5.986362067295682,10.532262701951844,2.521211089861315
1.592,19.876822864721895,18.422236811425975,14.02476387867576,19.01256894006969,19.484830869893337,7.221185472732744,15.458920824260026,3.4460565722816003
1.596,21.579101949817,20.94662730811157,16.415187969657325,19.99107996014883,21.621650342858786,6.4219453854923465,17.06309444702585,2.2334117741271493
1.6,19.927397163981347,19.8051192666037,15.179455102384487,17.77785708335711,19.58955507842436,3.7648489827139224,15.035123573406315,-1.101510360280491
1.604,16.080864634208265,16.06933946757608,11.360039983578954,13.479646352898957,14.510875366682725,0.3186913463545362,10.4022603290632,-5.453680316394891
1.608,12.109738094656901,11.841198166127354,7.033287755979371,9.05119739433992,8.693355425631562,-2.4408899891318554,5.084141397292688,-9.033140551633178
1.612,9.944603913074308,9.216997528972598,4.3625695125482356,6.345797248899749,4.602007629034309,-3.2939055579890892,1.1275867138763207,-10.09872178290649
1.616,10.437865681713893,9.294103034936267,4.618231072663682,6.238470370221842,3.759769727587023,-1.8070877480471794,-0.06502708561814874,-7.73420370382532
1.62,12.99274798666815,11.697118745156667,7.607205240596953,8.246995935789588,6.0692750943960885,1.4728186848423193,1.7356336453763763,-2.3660314777087432
1.624,15.8825290365017,14.789341516304637,11.736836914376322,10.789213016910498,9.823026331661586,5.2100741142239375,5.446221719213574,4.190489502933884
1.6280000000000001,17.070960140690225,16.43031529067693,14.679741475782162,11.93125649696284,12.398793631665912,7.769583868099631,8.981113707190046,9.237134030973642
1.6320000000000001,15.137865959693352,14.922379493990409,14.361993935809561,10.267099400425277,11.360165817573337,7.798927390217834,9.95578721408169,10.123628338326611
1.6360000000000001,9.903576379584832,9.732136615052294,9.848788689366902,5.524346596868616,5.504224376500968,4.6985350395809755,6.582166034727898,5.290670367978414
1.6400000000000001,2.5216214274648365,1.7327148089605986,1.7876339029260673,-1.33023043931599,-4.5411680231171445,-1.1496710669934787,-1.5148219193118972,-4.9614867996152014
1.6440000000000001,-4.94894960286364,-7.095677033458637,-7.765386317580608,-8.494109652828138,-16.42285271047316,-8.461448896061917,-12.893408871691566,-18.32332213632685
1.6480000000000001,-10.294103100293583,-14.356298552647939,-16.055210670394718,-14.037168682120345,-26.841451968212958,-15.41232458955303,-24.554771324332762,-31.096981926590672
1.6520000000000001,-11.937992117851717,-18.06162046789938,-20.60370945314834,-16.609361293843804,-32.71853351536386,-20.186987898086393,-32.90355746604977,-39.443331426891675
1.6560000000000001,-9.497190431658355,-17.31870509246631,-20.088859543785397,-15.88118958114367,-32.31884968179889,-21.54958439944056,-35.11268045415983,-40.813778806610536
1.6600000000000001,-3.8905562892249215,-12.624565351867368,-14.775196344297395,-12.557111403537135,-25.862102414114524,-19.225712235962533,-30.31074624349383,-34.94659384749671
1.6640000000000001,3.028154791889988,-5.66816526371278,-6.345549639950718,-7.9971834982961445,-15.381099938337071,-13.949615514922904,-20.024606589962836,-23.960070279038078
1.668,9.193715832384576,1.311876126603059,2.7928116389466866,-3.6096302423957134,-3.881003315540052,-7.145579162907198,-7.601181482795033,-11.451361762385677
1.672,13.129707476322963,6.38086394843431,10.432719606690993,-0.27928386744716094,5.8375124666689535,-0.37342564585488036,3.190405763870484,-0.9805220124205043
1.676,14.47247836902693,8.614835215196404,15.313684233039753,1.9105183349894745,12.163920605721465,5.21457543952105,9.741224223234143,5.366585004248888
1.68,13.992881062638396,8.372520580225988,17.411609179401122,3.5655277323613372,15.072972426924238,9.161460436489394,11.603133099656901,7.662504285707843
1.684,13.103946722382883,7.008294236304163,17.684834504220603,5.547252109974855,15.80323410471993,11.634764082774868,10.416715210693507,7.765047211760439
1.688,13.081603065689972,6.13666015023186,17.42707129603934,8.422515895940226,16.01751539523631,13.083519233072984,8.827957906866637,8.114498548585455
1.692,14.404808425522944,6.816180405429993,17.586430552671782,12.088818634569764,16.913930882261788,13.858389077472728,9.005346383147495,10.378516757171997
1.696,16.555726263412517,9.042511112066265,18.36889453554629,15.766631379916978,18.71399387674089,14.0258859040305,11.538157859602883,14.64523956865079
1.7,18.379119612068603,11.803992142697378,19.292990617029474,18.358625539757032,20.730417379239373,13.456389342573699,15.27827775952818,19.518106361265122
1.704,18.808672724386838,13.676190254532743,19.62937010145834,19.00660678487303,21.91441585761974,12.099446851450097,18.156578017462767,23.00809240151809
1.708,17.52216572236716,13.606942945979723,18.933221178662755,17.538189466287307,21.51603462855856,10.20481186825403,18.451315568137183,23.656345724360033
1.712,15.145205677970177,11.475418031286141,17.363854384042867,14.574981436266597,19.495901821775487,8.31884293172161,15.772333075310854,21.2662102635534
1.716,12.881126516418723,8.120992670895694,15.608449723578442,11.240889782209983,16.48557598249114,7.031867956722309,11.230627143666549,16.881959201305293
1.72,11.789390349118172,4.86151703242335,14.476172167868565,8.636674815901658,13.3855427680493,6.630457340787462,6.744276901908932,12.091802316623118
1.724,12.15136170605561,2.804653796453731,14.420850116363752,7.371316668231586,10.893625639583865,6.890528135004931,3.9427725746684175,8.12399844549661
1.728,13.302421133282952,2.33804280490537,15.260073979060186,7.38427299943454,9.228109169259383,7.174127292384877,3.330796527593588,5.270684283949613
1.732,14.041155994712778,3.078717004491819,16.27050756399098,8.12838979850345,8.181172620162963,6.798941291269269,4.175077791801268,2.9421588297793333
1.736,13.362435722317068,4.247605983616424,16.59165061448467,8.964377381505134,7.399427284088817,5.457823052621275,5.114826780494511,0.23814920076096868
1.74,11.063844287193088,5.202820068020466,15.70691828681995,9.512546433406492,6.675642606181434,3.4191277208842665,5.056929112683116,-3.367775775674034
1.744,7.880854840664563,5.811139587916794,13.749004666636413,9.77718660588108,6.081132067148045,1.3770718765500822,3.8107097452840675,-7.642410072101335
1.748,5.061087187709896,6.41353007850306,11.438898609172517,9.986659363578944,5.850104609561198,0.026738232263889383,2.0919436514460816,-11.733148725368672
1.752,3.6393740074883967,7.444875897301042,9.696405000502942,10.286270022179176,6.127421401876826,-0.3643699535392635,0.932725996439475,-14.701018141635384
1.756,3.8605085012873532,8.991603107497468,9.13997717600272,10.52043040828121,6.770690101759895,-0.10844815029026567,0.9251440327282037,-16.063869672796876
1.76,5.068961354087092,10.588304916817087,9.744076829664936,10.254735462925641,7.339049377872058,0.11849225423864373,1.7892413885120373,-16.035659462979496
1.764,6.118098576549277,11.41068746401061,10.83643178005708,9.036368526454897,7.280764925500806,-0.2757982662279481,2.5249486989392986,-15.346311742080733
1.768,6.027368795989485,10.752904062239654,11.433832071916612,6.72174559502511,6.209153142559916,-1.4091850948067193,2.051902453819011,-14.775584403432429
1.772,4.499760104439213,8.502050249876024,10.741046021855784,3.658933785715078,4.112087255359588,-2.839168548467429,-0.06900639711188195,-14.703922676662534
1.776,2.014639191454523,5.295432163755571,8.543768510652237,0.5901106754600054,1.3718633346723315,-3.848889351261772,-3.2923557283482388,-14.950759390946684
1.78,-0.5047852161849149,2.264505020898228,5.3198096199776765,-1.668471668390743,-1.3852280626663434,-3.9204821394688576,-6.326367995279559,-14.975158996091071
1.784,-2.201893016903805,0.5117340514741353,2.0312359771179995,-2.5819250962324034,-3.5050143836557677,-3.0883008002393577,-7.809876206658873,-14.272937338092989
1.788,-2.667119643884324,0.6052860784033458,-0.29113104984269667,-2.0881544887198125,-4.495458625716207,-1.939908968214393,-7.022896339398962,-12.706367181149588
1.792,-2.0047645906899065,2.3612931416073293,-0.9743338080363184,-0.5342092885912457,-4.131852421488517,-1.2523369644371245,-4.2390526630616945,-10.57159356174229
1.796,-0.636314375615112,4.980132260109056,0.022085244298787998,1.5576868428652357,-2.5020055344931897,-1.4918016087507664,-0.5476541835219315,-8.389473845773182
1.8,0.9528973209443015,7.429154626081553,2.0921506273857675,3.719477743495588,-0.016386676604543737,-2.5033328533570964,2.715573051517714,-6.584010883786943
1.804,2.347021388695001,8.860339723101205,4.220605115874113,5.625657758792178,2.623075728294804,-3.596913139245554,4.584234979651354,-5.262943771527849
1.808,3.1745290338488417,8.853749815376528,5.358442661130431,7.029130170059528,4.5244139735495885,-3.9747819933037984,4.798253808810707,-4.222294077966421
1.812,3.0415860629780416,7.4279487706671645,4.795417448528059,7.652159818202653,4.8189545238272995,-3.232689159382987,3.7271273860844625,-3.161379455702745
1.816,1.5622481141212345,4.873593649358908,2.3853998373436704,7.164454636701247,2.94686249990347,-1.6244854793067711,1.9944572686305797,-1.96121960640179
1.82,-1.4347475769727662,1.5847841751589051,-1.41216081477243,5.34631714478358,-1.0533430555103678,0.08299529322513055,0.09491092142535784,-0.8281730190504653
1.824,-5.649251005278623,-2.0191776653918936,-5.688509117297783,2.345227296479454,-6.409225966947062,1.068346411287989,-1.7831413461390395,-0.22624295252823368
1.828,-10.235120991620196,-5.517947114861398,-9.405801891973248,-1.1826083373637175,-11.78068745586812,0.9365158329457419,-3.6756948897940753,-0.6469123939980483
1.832,-14.040412600817383,-8.507519510713113,-11.75377842594543,-4.205468143361827,-15.708211149541409,-0.07899799174360567,-5.618765223746763,-2.340608434835702
1.836,-16.11443720865495,-10.678005256931815,-12.42238716433971,-5.7387129812179865,-17.187984646243414,-1.3139418115583572,-7.482247353991413,-5.158673207495698
1.84,-16.22090340708362,-11.938836112639827,-11.687392896800919,-5.360781592230815,-16.1145615313057,-2.1415427718234143,-8.991060346352974,-8.591514849744964
1.844,-15.026965622795355,-12.487179776599007,-10.254494501531752,-3.5194108198037837,-13.346054472647245,-2.402474554018144,-9.901327418330393,-11.964932360477523
1.848,-13.809787447537062,-12.74316227762342,-8.927468456268501,-1.4133176674180667,-10.333324092200765,-2.514989660520259,-10.183072949832258,-14.687457731269445
1.852,-13.784064145277569,-13.131830844221321,-8.238925357912668,-0.44795483008601433,-8.463560194852368,-3.1859666615002764,-10.050260505459441,-16.430018184209466
1.856,-15.418794499618784,-13.839206510272255,-8.240050742113997,-1.5335834203392475,-8.446547223196855,-4.891664042253258,-9.814663907867262,-17.17596699082926
1.86,-18.161978827107205,-14.692653254672061,-8.54884158814961,-4.605711639061258,-10.039126625099463,-7.4599970056999325,-9.66552842258556,-17.146702729254358
1.864,-20.749882989843336,-15.24829535493317,-8.622100382353898,-8.644406671902903,-12.239248168125588,-10.025696232298056,-9.539189596906326,-16.668594289955195
1.868,-21.93440492850293,-15.065775141773692,-8.117814147535626,-12.189955658724061,-13.847116455930767,-11.412279200820336,-9.197782004866935,-16.04407860758945
1.872,-21.1940036805075,-13.990045684609953,-7.1228900902731365,-14.063263436441593,-14.075545136799638,-10.731237727502696,-8.459472335709942,-15.452684992431625
1.8760000000000001,-19.01309573509654,-12.280778992021379,-6.11933869453003,-13.910000076877571,-12.91065884581408,-7.873108097736264,-7.411287815179094,-14.913883240137634
1.8800000000000001,-16.561295785163022,-10.486433811410146,-5.684443667776881,-12.26203453893876,-11.037621159682478,-3.6119546294493254,-6.425920541248616,-14.30072285657601
1.8840000000000001,-14.9717794254478,-9.133518471438371,-6.101206649843544,-10.11539235395099,-9.401151718730638,0.7322012961504436,-5.948037191692191,-13.407693578838403
1.8880000000000001,-14.661294233764671,-8.42757464623448,-7.119828979795809,-8.305328083429954,-8.66695979080523,3.887603236854395,-6.166851999171133,-12.055324181806629
1.8920000000000001,-15.111578308821773,-8.151901244195496,-8.032383058708565,-7.064423885524909,-8.8843221923135,5.163673653273081,-6.791621382896389,-10.202751439169235
1.8960000000000001,-15.246383051356968,-7.8415065043899554,-8.059814343603971,-6.02233122976722,-9.522426663824673,4.670028324168861,-7.117538249711833,-8.00946908296138
1.9000000000000001,-14.169110609024614,-7.119555873913297,-6.831935414981888,-4.614079208068621,-9.826383307449266,3.1417172054368536,-6.397849732347462,-5.819540985280595
1.9040000000000001,-11.77551835908586,-5.962458863251917,-4.651945279390837,-2.5919746399485977,-9.246210764393892,1.5151817408138286,-4.313917320609329,-4.055544758847569
1.9080000000000001,-8.86621351442792,-4.743389428018488,-2.392675385104934,-0.3027015236493309,-7.714912907267162,0.49512015415694566,-1.261993332147692,-3.0472183629706784
1.9120000000000001,-6.67948388828258,-4.0065795678738,-1.0375639998038042,1.4666455805651175,-5.631369663036627,0.3202189211717914,1.7526811281134496,-2.8832213464638006
1.9160000000000001,-6.132311894559636,-4.130237687758207,-1.1309948580626106,1.9744344598543044,-3.612105444056094,0.7993125304213324,3.579478498200004,-3.3640079440363237
1.92,-7.263027141664951,-5.097847613260684,-2.4617899795723623,1.0140757659072799,-2.1881137276560145,1.5302268523591596,3.4916996667173823,-4.093616583792302
1.924,-9.211837651511399,-6.505703785133669,-4.159735159052569,-0.9087151900605708,-1.6102824413071612,2.1435968560805665,1.5598354947221083,-4.6629425169496
1.928,-10.745185590734561,-7.798959570096663,-5.162628482576571,-2.8425919869502057,-1.8465883920493553,2.4446044319122944,-1.3839146132298499,-4.830567733741441
1.932,-11.001641367071482,-8.576003432183578,-4.788838257603386,-3.9477504332267888,-2.710824891546789,2.4088269157024937,-4.1743437144583755,-4.600839897736343
1.936,-10.00115397107124,-8.78243967036411,-3.0981565896931116,-3.9993831467198273,-4.00322827621309,2.092431751052561,-5.880649883221936,-4.153961340765404
1.94,-8.596533223886976,-8.678577930559687,-0.8259248772989842,-3.5083094772644934,-5.55709541022777,1.5545163624482983,-6.1964391836140145,-3.677433220349643
1.944,-7.893839444593319,-8.606298874975186,1.0716777604399503,-3.3653202458979266,-7.169837866732891,0.8485792363675433,-5.454247812569505,-3.196072836273294
1.948,-8.509561719555908,-8.731962596091611,1.9800010486890898,-4.224933283376972,-8.515963156433449,0.0728222986607352,-4.290505157829902,-2.500748696370568
1.952,-10.12360898998074,-8.93285113952675,1.9679705193679986,-6.011978649986494,-9.153725211981973,-0.5821417971189105,-3.1969716447487064,-1.232666894920373
1.956,-11.617189439213425,-8.90468077816262,1.7053375901881527,-7.879784541724797,-8.680358501587225,-0.8533223486427244,-2.2404653111969175,0.911162505305656
1.96,-11.722472442430387,-8.41208616225326,2.0086924629002967,-8.663594434978373,-6.959785966640269,-0.5140972768302285,-1.12005579754911,3.957456077891084
1.964,-9.794558837360729,-7.50283375049492,3.299766859485808,-7.58054063249537,-4.277510461362439,0.48192521917529474,0.4981906711770907,7.53406875032814
1.968,-6.247511262836898,-6.551846479899927,5.284594973718198,-4.770968892108708,-1.3218865689392167,1.9141385221648395,2.6019522432088795,10.913106439228368
1.972,-2.3790976235155634,-6.08486718921505,7.059306878782527,-1.3339371853142268,1.0521497686184373,3.329665964972497,4.673938531840017,13.235688779055291
1.976,0.3232009857323368,-6.478922776822078,7.582668113130214,1.189223594610045,2.1683533967156197,4.216269428251243,5.883062250909344,13.83280231342952
1.98,1.0035881049114055,-7.708230055625084,6.2567223320041885,1.6156663045821391,1.8216614572301129,4.2278808607423475,5.529115631057266,12.504133021442154
1.984,-0.09014617971407457,-9.28102410550968,3.2909309501652997,-0.2332513777776457,0.37097531931025984,3.348093137270394,3.4819350366157122,9.632646279961024
1.988,-1.7598607407514297,-10.43010374150914,-0.36414887927262374,-3.4144927134020246,-1.4328839170858874,1.9018638076705172,0.35035932713450046,6.064350355556566
1.992,-2.539100455590909,-10.455575590305603,-3.468166845512422,-6.341055865206157,-2.786251886902694,0.402726768620679,-2.7349580513535274,2.8065061443274035
1.996,-1.5334600830642549,-9.062089296426993,-5.091430098482492,-7.611803841524437,-3.1821745716894334,-0.6904152648310466,-4.632411455836584,0.6541619530161134
2.0,1.0558703629079909,-6.529198525458247,-5.050571315846079,-6.748337745997427,-2.610109416465675,-1.1895077623897663,-4.7288711928330205,-0.11486671570984797
2.004,4.011733034397763,-3.6249187143248918,-3.9478425466456244,-4.445507634870911,-1.5150159796302891,-1.249918207976485,-3.213267671491006,0.1802566328345454
2.008,5.740434248066421,-1.3010688320952615,-2.8113716429332616,-2.2030702844372803,-0.5552523961222273,-1.2586614692310123,-0.959314686389996,0.8108614707974383
2.012,5.1323148058556,-0.29562227015128606,-2.5283375623408104,-1.52810059378269,-0.2723451573433042,-1.597217052679464,0.9302591079644819,1.0249950607665712
2.016,2.1539455377471146,-0.8444140704505729,-3.394661223375965,-3.1564333408237957,-0.8509483322415416,-2.4128665030524985,1.6693147868739164,0.44254415482391707
2.02,-2.107531176222257,-2.590434895709455,-4.978803815107653,-6.665438329364783,-2.0405004468293537,-3.511978331659645,1.1505649788330685,-0.7223556518712371
2.024,-5.9460616182688435,-4.7212424209851935,-6.353152597312583,-10.662918503534764,-3.2542513896396486,-4.433216940372163,-0.03893219778961177,-1.727316538335531
2.028,-7.828128840337209,-6.302567114706502,-6.588910382889594,-13.464509216760085,-3.8248202096849955,-4.681229563289891,-0.963238614895938,-1.6649458661647276
2.032,-7.07528007901342,-6.658583963503142,-5.241715680745962,-13.89988693864716,-3.2933276099167994,-3.9966244551858363,-0.8474704744501751,0.044333478809834403
2.036,-4.09960244712948,-5.631158121742464,-2.577327379384281,-11.833810187053839,-1.601981103153241,-2.4994845445292606,0.525465980093013,3.309027347617524
2.04,-0.11478878004882742,-3.597642064333633,0.5689424887420262,-8.161999069755229,0.8895957194738173,-0.6415491656994878,2.7252860474775575,7.359467116679255
2.044,3.465009573649249,-1.2584632807747576,3.2060234930274287,-4.328371689399653,3.5556640863246978,1.0009993216039885,4.91406018618154,11.074991306949697
2.048,5.625213523880897,0.6929628588252561,4.651898373852369,-1.6265882140210255,5.750278522715364,1.986756141615234,6.277586153781288,13.497290194278968
2.052,6.071654978647304,1.86429074916223,4.812450143250606,-0.6388512671266375,7.0487072053968465,2.1904913600653586,6.414282939042126,14.271448252222498
2.056,5.170875926354754,2.278073083907819,4.135504862916309,-1.0688623473178436,7.372378679801164,1.826149530520321,5.491483894970262,13.78531157079182
2.06,3.629192735158192,2.274774298820909,3.3001114778466807,-2.0079049571826806,6.957421506483361,1.3097305474320207,4.105649407608992,12.92894286690443
2.064,2.1242176055691653,2.2897243829173677,2.8349605494745065,-2.452695930246635,6.209091326896242,1.0482914258002696,2.9497823155811713,12.622585734534066
2.068,1.066174883728296,2.6185485349285393,2.8696060313620917,-1.8030282088051965,5.508332362070485,1.2645822273568283,2.4741180549196784,13.366291542645065
2.072,0.5564268645644104,3.2962864025717074,3.1513596672705484,-0.10054751087994518,5.072245016214128,1.938966978579427,2.715648888675524,15.03688540762386
2.076,0.49688768424111096,4.134177469961307,3.286759751453499,2.0775691217951895,4.923405464193633,2.871404322692952,3.3797854051474725,17.03120399627196
2.08,0.7284181460519941,4.862292499660997,3.0458443785221316,3.970925735785732,4.964313919883271,3.7872380726928085,4.087502646816189,18.62810723890755
2.084,1.103567325149755,5.269946654962437,2.5324572115332318,5.021665313339857,5.090445883324408,4.419853123941689,4.627665651599162,19.34324486840123
2.088,1.504341465150636,5.266136951905515,2.1185789370686554,5.114351617063584,5.269545223623737,4.54741172906127,5.074328177618277,19.096480812254814
2.092,1.863460644911155,4.871337208499884,2.21046592048256,4.585713927208346,5.5673966964414765,4.007021050963984,5.712249307759402,18.14403350749912
2.096,2.210219909306334,4.169739532661829,2.99306339160909,4.020685374614338,6.103228241788346,2.7291003237328773,6.831870195130766,16.869849004917743
2.1,2.71764016259001,3.2754330957633218,4.3092846940952985,3.9608375896375456,6.970686360256034,0.798789988833241,8.519070351538323,15.58699755579443
2.104,3.6809802217789658,2.339797251474665,5.7512537579919325,4.66882208418447,8.176808704573254,-1.4824502380111615,10.569525369709208,14.465248597926042
2.108,5.367910691248833,1.5508213345564155,6.881931714343771,6.030508524097641,9.611208162711744,-3.609552749639275,12.565258705432349,13.591164794694842
2.112,7.803573713688399,1.1021875806934958,7.45038422902409,7.628638896470258,11.065139332141317,-5.002463096985638,14.06075901797958,13.066272466311759
2.116,10.625679103506224,1.1192926371946488,7.472267400215291,8.945191548583843,12.281910285802043,-5.223074768976512,14.771186007547072,13.029723846912578
2.12,13.13632026531535,1.5813680316391387,7.14121834345122,9.601277039416557,13.023579055745394,-4.193311766965686,14.661927022384665,13.577587115637897
2.124,14.59559381462476,2.323761463825224,6.668295762031924,9.535860469854526,13.155030306592614,-2.2920105533592166,13.902502264090462,14.64136123919593
2.128,14.632687189963724,3.1406357583498323,6.171025467533032,9.048614229704626,12.712462228227887,-0.25193460485314967,12.74689824645105,15.943102042529112
2.132,13.518277230301347,3.925644438386747,5.659565223549048,8.663098046562926,11.910316644847683,1.1190533387106871,11.404771481248574,17.08763688944085
2.136,12.088168434319762,4.7348326703478465,5.0994556368319195,8.849005971281505,11.054897753278592,1.2738988549099954,9.967043185411429,17.756753127472127
2.14,11.300959421980917,5.691532329873747,4.4638590139188805,9.72290217674772,10.376163797189806,0.14711410573284317,8.393727702322918,17.873143737297134
2.144,11.65098516597229,6.77411070060764,3.7129101526479107,10.879441418545893,9.85194385135756,-1.841336765972733,6.553369194229771,17.6103067829268
2.148,12.797844559309159,7.626579517246686,2.717582113423246,11.481178527288193,9.126679087334132,-3.98136694704383,4.291562567298168,17.233086196620704
2.152,13.691364314349943,7.581827019870421,1.2370890749311254,10.629084517358077,7.630872213206177,-5.5661834601788645,1.5131062391316157,16.87539976250402
2.156,13.176834310891987,5.962832044071244,-0.9723944631942789,7.8612229117014465,4.881820578393517,-6.140407199536241,-1.7306795282852172,16.410723503666226
2.16,10.764059632782963,2.554924380220447,-3.916796320188677,3.534536503486184,0.8446168158728007,-5.5996002045615345,-5.160635899378441,15.526370861178735
2.164,7.088663623979389,-2.02161798687388,-7.12587004707371,-1.1505289793330382,-3.840348688363978,-4.126845331165017,-8.24389433759863,13.975543287051499
2.168,3.737813319862854,-6.329963308422524,-9.624160569074133,-4.5606411424657205,-7.950235628513507,-2.051435435489074,-10.282781924412777,11.843256563142965
2.172,2.4628939988318814,-8.629770867231006,-10.234601488543287,-5.335717769662072,-10.1226370670685,0.27156416884570733,-10.634976598718392,9.623265183652329
2.176,4.190470103730345,-7.687648660935254,-8.129238137838964,-3.058203713502742,-9.469095465955931,2.5195889018155038,-9.006940514191802,8.029934814029762
2.18,8.416950096000043,-3.4714532324630065,-3.367116187961667,1.4789353158740042,-6.062372535058412,4.409371025043953,-5.689969131217489,7.621030318398134
2.184,13.369999928219665,2.6821173131343503,2.9091979528269003,6.5749481677473565,-1.0208792500893096,5.699189100931006,-1.5978129593280719,8.448313941394751
2.188,16.886681559213756,8.577108621251824,8.799969533405775,10.376936186923427,3.9028021390395478,6.235729325943881,1.9716106651398988,9.96439514705341
2.192,17.54224051294517,12.141756897957858,12.410500843368824,11.724925969362532,7.06543734665297,6.027033189642518,3.789912570792242,11.246022589530357
2.196,15.387583060558704,12.380316366695817,12.687092077506282,10.64739526468775,7.638672116391421,5.284468343692291,3.180222799336704,11.42754887719547
2.2,11.882813346224294,9.805914499104635,9.911305029340147,8.264256360916926,5.936263707383689,4.386464747151101,0.3168490911601176,10.121843111462272
2.204,9.06081297225052,6.125577448776641,5.5789886133474145,6.15285008216256,3.1972949485554523,3.7492603659247097,-3.813324425359589,7.584318288528742
2.208,8.392451322598493,3.3369333445651157,1.6924275579266261,5.520814146034919,0.9329014330152781,3.6583323282252613,-7.797277536788249,4.553341627929921
2.212,9.997717561020597,2.728863387626528,-0.17288183990395378,6.623473953415855,0.1876609759500596,4.140342454168826,-10.362655086800443,1.8579897269079648
2.216,12.635764344491811,4.302590539766369,0.4337875539766647,8.712837136228686,1.0835969372068064,4.9570413388027035,-10.865708621340993,0.03992240915259693
2.22,14.464651147413178,6.908363406611471,2.725399959232031,10.524553650837317,2.87387999026924,5.7377238133904545,-9.481338832318503,-0.8020744653351075
2.224,14.103750199818643,8.972801124372625,5.169139703430635,10.998434987132615,4.43954874649118,6.172671316358311,-7.030565366370533,-0.9068483959031433
2.228,11.374989741941759,9.369461522253047,6.289403694730632,9.816781887916676,4.9254583754652685,6.1642570123435165,-4.556486341514676,-0.5865782505692536
2.232,7.34788641538283,7.981421564944682,5.381771175461626,7.49669593669759,4.180626552397213,5.855446787290333,-2.8560087248759816,0.005442772857702227
2.236,3.705319006096161,5.6782274144495695,2.7887621604283948,5.03001515460247,2.7816659061965856,5.530880421160132,-2.1840190810821505,0.9289395426562272
2.24,1.8219213347909204,3.763863443607141,-0.3606413394403738,3.3043035664520852,1.6565178723791707,5.444964165943611,-2.253326672177541,2.310106714003499
2.244,2.073557169266474,3.242318049880697,-2.7590658902494356,2.6416817176387,1.5472920283298723,5.666528484244553,-2.489299641853727,4.113954092858206
2.248,3.7174780682726674,4.297106538454704,-3.5567870972454703,2.6904626754769545,2.6072308794099035,6.021185035494282,-2.3914605721025946,6.004273161656274
2.2520000000000002,5.378074128452094,6.263542822653815,-2.6976151457751687,2.7101437882207065,4.361235998915709,6.161977494465004,-1.8089298279206698,7.412598543917754
2.2560000000000002,5.809645898935289,8.05201321688215,-0.8338088915926472,2.051672897274617,6.024033756516083,5.734556704356404,-0.9923340609013622,7.802462605063671
2.2600000000000002,4.487267481089343,8.734352881604607,1.067172524305299,0.53068076332292,6.95678361483104,4.5367691149248595,-0.42984977588630624,6.949814547270303
2.2640000000000002,1.7709639533918489,7.999943357193838,2.223168192635274,-1.480839293054026,7.021549600048312,2.6108290900092297,-0.5586820181948755,5.086996439494264
2.2680000000000002,-1.380902416742411,6.252361515512586,2.379144411183572,-3.275905860752153,6.621387670102737,0.2308431763727281,-1.5071799837197482,2.816150526343759
2.2720000000000002,-3.941766128281843,4.336756897126412,1.8476318976515884,-4.2075294327480925,6.4137215415948,-2.204027997307302,-3.0086890308491796,0.8268296308238521
2.2760000000000002,-5.284691964547882,3.082743471002518,1.2686125228494893,-4.027322246499512,6.877137819745472,-4.30694492986102,-4.512248801181171,-0.4171626912389874
2.2800000000000002,-5.379007011975132,2.9196651976526162,1.2467026739657294,-2.9871007053276832,7.99633350676468,-5.809544760104208,-5.420487930207243,-0.8487161632133184
2.2840000000000003,-4.684054728483585,3.7421677320141065,2.050475380497197,-1.6733325404875452,9.249267942311299,-6.6077016096772585,-5.345484449268467,-0.7507258177547449
2.2880000000000003,-3.8779110044780287,5.02851325006451,3.4915741907399642,-0.7003141725932731,9.886770509415825,-6.742927360587716,-4.275993007026546,-0.5472486619504462
2.2920000000000003,-3.5783129142515686,6.126779282243762,5.032751136253557,-0.42390720891124567,9.358335634611178,-6.347319922067682,-2.5780271852105185,-0.56578624687128
2.2960000000000003,-4.165544015830941,6.533719458823337,6.035522935387084,-0.8301608186468189,7.6163527188182,-5.596220223904243,-0.8576301270394977,-0.9195101321960832
2.3000000000000003,-5.719199479081117,6.047577618068777,6.032459155360517,-1.6246870548297805,5.132167414291317,-4.688670755525236,0.2555972283052803,-1.5440633349994464
2.3040000000000003,-8.020270892172036,4.778201926869475,4.908808618833737,-2.432634674148041,2.62953176669714,-3.836413371796013,0.3259246004425771,-2.3233909135975175
2.308,-10.59022869036302,3.055511487545968,2.9289725432975633,-2.9824449251478367,0.6925838774298743,-3.234480048547999,-0.735453781688277,-3.1809261631651466
2.312,-12.770636711081918,1.3198786521054635,0.6292970777692526,-3.172386875459135,-0.502304722248907,-3.005219055721718,-2.6138124334023343,-4.060160809505252
2.316,-13.868860379565296,0.03187512534708592,-1.3668072544218446,-3.010880638994795,-1.178751809615318,-3.12549680025308,-4.653006157309012,-4.81048924048782
2.32,-13.367374027321453,-0.3997494915829236,-2.529752002168477,-2.5047910586977604,-1.696675780456494,-3.3894879115029566,-6.030953897253878,-5.11084126202935
2.324,-11.14563322071508,0.3035605485999753,-2.5480364141073144,-1.5993305297126525,-2.2184132705861916,-3.4609301027270756,-6.019018578925657,-4.552072615696089
2.328,-7.63487786399389,2.1653632419037905,-1.4060964859096714,-0.25470857616201314,-2.567083624205358,-3.035130153956339,-4.281176283611593,-2.915070465319788
2.332,-3.7842938262695487,4.834883784892157,0.5898667202808072,1.3765255578743911,-2.3882529359619085,-2.0594235529585525,-1.1273910058782581,-0.5182294477151475
2.336,-0.8036372360334516,7.546488951952164,2.826988784471755,2.788159209824631,-1.5398724151092313,-0.9038832626698008,2.409150339252135,1.597299734212294
2.34,0.22666363444298643,9.22840276910645,4.455128561186214,3.105861983322904,-0.46422604258545164,-0.36715450941503347,4.761434310748704,1.8324912584703297
2.344,-1.2691048661106654,8.79653651346789,4.554484370358693,1.3145601622119587,-0.24373444038212178,-1.4507052000806135,4.295293470748854,-1.4191270167440209
2.348,-5.162438670903583,5.546580551298955,2.4005621811210602,-3.3272649506680514,-2.220273714913249,-4.9537382613940535,-0.07413656361677656,-9.036524000153094
2.352,-10.67553177836091,-0.5033672806224505,-2.226658871135279,-10.848801290837992,-7.29943656279856,-11.037861548838269,-8.339644896870206,-20.581320770243295
2.356,-16.651187659982188,-8.477808801719869,-8.812614861766065,-20.324957373469182,-15.291908655046592,-18.967595058320498,-19.179263293598574,-34.168690064534815
2.36,-21.902701110790325,-16.80952760974398,-16.093172012705146,-29.991101193684372,-24.673481573671992,-27.185893270208254,-30.208052248509038,-46.93571923104519
2.364,-25.51146136939557,-23.67657296772942,-22.335187753310677,-37.72563363055628,-32.95935154015501,-33.7376859113928,-38.66918431856746,-55.93732816602278
2.368,-26.974359798255474,-27.557230866807803,-25.85304297982344,-41.72470283285735,-37.58125391998722,-36.8877820006724,-42.31646348260658,-59.102093098504646
2.372,-26.188334232083363,-27.680958234472477,-25.569120138450323,-41.09634774457113,-36.87767374478942,-35.692865672252914,-40.13018568538994,-55.84532803783732
2.376,-23.359180148540553,-24.227781296460872,-21.408955759734955,-36.1470111632449,-30.767634092682982,-30.30488470465187,-32.60255334017201,-47.11663611900825
2.38,-18.93257743553788,-18.22991206473135,-14.362423753526034,-28.25251324401498,-20.8089449931519,-21.8964094778561,-21.50676793529651,-34.935483264221986
2.384,-13.57309484661604,-11.234198769763978,-6.170502091513383,-19.385045974471257,-9.630517478015337,-12.254073668753712,-9.267172942427528,-21.674383173248955
2.388,-8.136407997983738,-4.851065076960056,1.2436039093583375,-11.487025798438433,0.0009443836470017786,-3.2085108013432126,1.8017567811298263,-9.406871748052223
2.392,-3.5582184427038075,-0.33286686406052407,6.37854088774547,-5.929663292435897,6.087350691295683,3.876459654941509,10.079526178665875,0.45750072510484197
2.396,-0.6143947964637837,1.717890989284531,8.578891816396498,-3.218118979198186,7.9394477843028906,8.393702666907922,14.90565164986386,7.238076871994959
2.4,0.37444015515966944,1.4571121589689109,8.14315626266037,-2.9939711302234375,6.205079573590498,10.496132490947419,16.519557573852207,10.860052395435636
2.404,-0.26676950661469157,-0.29471133612978573,6.110961523396404,-4.284720840456201,2.4565688403003194,10.854998517383184,15.779297624049626,11.68329865711798
2.408,-1.635797899362121,-2.3342611656771997,3.83854058312524,-5.88988702016764,-1.4489175443572915,10.30273784561021,13.808632448590577,10.362055458877409
2.412,-2.638197452540137,-3.4921731731245664,2.5159011817730974,-6.794695536433501,-3.9970337729326655,9.498432725075112,11.667686775648935,7.716863108777614
2.416,-2.549557811470988,-3.070415831336323,2.7774313792228558,-6.5052520643313,-4.443020588328465,8.729026242938493,10.10239465342336,4.5710630697849
2.42,-1.4525666598707683,-1.1213846502456857,4.538466137634747,-5.198963911257495,-2.9204275747818373,7.9103919937466864,9.400625451436914,1.5611224474128873
2.424,-0.2892424453717335,1.553332603042957,7.07836832607286,-3.6513490793238326,-0.2517547863934002,6.761623581962644,9.357729063350229,-1.0405172061246406
2.428,-0.42069443084471425,3.7332738808643247,9.34689588205935,-2.9251517050656375,2.4525619362630606,5.061755761734919,9.394417805343094,-3.361074274859909
2.432,-2.86744898747215,4.337021453935965,10.393306537142731,-3.8974282021532707,4.263828243168095,2.8709525780482235,8.824538738899875,-5.748012526364658
2.436,-7.625086568022162,2.9538721195433633,9.753604852133952,-6.807234716968276,4.7898689728096775,0.5926845246370425,7.206354757879497,-8.442571779359453
2.44,-13.451490172751708,0.09416006403735278,7.647823417372684,-11.02167185368268,4.280960761693078,-1.1662049361017188,4.619863335742577,-11.276248087745152
2.444,-18.29766185163984,-2.979702296267699,4.907895999259094,-15.161479146356381,3.451697216037279,-1.877139010403849,1.725237541951933,-13.581880809980298
2.448,-20.228966016006307,-4.817506575813063,2.624995890249455,-17.608316884209607,3.07488826074035,-1.377847063096859,-0.48207823062565414,-14.420182408893321
2.452,-18.395883985069037,-4.473928088271791,1.6626308660770768,-17.207923209058833,3.5509255315538146,-0.008570197696044612,-1.1529921759868538,-13.041718971410067
2.456,-13.534204787044288,-1.998016829490453,2.239822545627815,-13.866067134793434,4.654951802998494,1.5038464287339948,-0.08502424289666966,-9.359505361561954
2.46,-7.7076830102231835,1.5323633457620405,3.795341643251552,-8.730145517347932,5.601147764369198,2.375934010782439,2.0537662661509537,-4.15123029769971
2.464,-3.38023731754883,4.48531369589569,5.2303421264446355,-3.8071870033509585,5.4271222154139585,2.1581649743309566,3.9535509998517337,1.1455844766899244
2.468,-2.2708257419907896,5.419013066626201,5.416161955262194,-1.1460309908486233,3.5013790711748602,0.974439389197856,4.267027527993765,4.988111002659742
2.472,-4.576586809428676,3.734367408205973,3.7322016481063818,-1.9442765970234932,-0.11158050172917644,-0.5361859324291585,2.3020781861423583,6.35777758121627
2.476,-8.95165269196239,-0.07811802254667821,0.36640662151198145,-5.991492845374717,-4.625186146064744,-1.5549176023418871,-1.557003889422985,5.163735379190971
2.48,-13.232821373369397,-4.696624913321106,-3.761185810454346,-11.720346692476019,-8.85248175670246,-1.5100022926254264,-5.946728529868931,2.2375124542093365
2.484,-15.503767670786925,-8.559382845186402,-7.392394078187312,-16.845785128255955,-11.69602955003416,-0.3612932577725232,-9.11706300766432,-1.066072601639965
2.488,-14.960498188364365,-10.511003208394557,-9.457674005959005,-19.319903811355417,-12.57983938560676,1.401148644258925,-9.752141396414515,-3.479183936483574
2.492,-12.167951658851027,-10.197922435336753,-9.470698801677289,-18.167502128919953,-11.611901500198254,3.0282687534696624,-7.596478796971256,-4.343156278497534
2.496,-8.635646289733211,-8.075016802027525,-7.631446411476514,-13.832814625538004,-9.429004247834499,3.8891313252126984,-3.578399562959467,-3.8044268647209396
2.5,-5.986366132330918,-5.076603292929448,-4.620956118790323,-7.893352461446815,-6.827386374637519,3.746449295867695,0.6448557500276637,-2.6331740535592565
2.504,-5.170912829502724,-2.147467297560466,-1.2336137118719137,-2.308606157056554,-4.385863458181983,2.7900046245001797,3.496841128659467,-1.7723379745506083
2.508,-6.121923184414061,0.12194263097257574,1.9379242424637098,1.4210851148847836,-2.269676095676472,1.4404563572409117,4.227828988325562,-1.8671883432785759
2.512,-7.952458423296953,1.623776472235296,4.627832013478441,2.803256172137538,-0.27802486696879347,0.08043484539341561,3.223362856301846,-2.996320815557574
2.516,-9.530052853470089,2.610150993273126,6.81515470928503,2.378511724594875,1.9192406047628081,-1.1122593145444806,1.7292134402277748,-4.705810498727133
2.52,-10.071455919883656,3.4413335507682277,8.544427606087021,1.2767262395452956,4.511151762280838,-2.140319547856019,1.1563430265303274,-6.291125003334841
2.524,-9.448478103296067,4.3620931211587815,9.796525871552445,0.5754226124759478,7.386783979722323,-3.0300814547675543,2.3456816245090044,-7.15828592382254
2.528,-8.113992773066803,5.385546869607713,10.467375646854478,0.7781036269181056,10.129914323162572,-3.6931747307291003,5.1407528046425925,-7.093572830854361
2.532,-6.736561879213724,6.324434136002045,10.453576370384328,1.6634673090408887,12.162701964594362,-3.925737206445836,8.477517539546938,-6.3227120049200005
2.536,-5.79007613105324,6.909836814166314,9.746953635134393,2.529355721537031,12.950087835920412,-3.5597700696711883,10.903050967528468,-5.3633253736807855
2.54,-5.321812769535735,6.92855224203427,8.459989741659898,2.656286426506534,12.179353032070992,-2.6586267415590497,11.251756008191657,-4.761798842758193
2.544,-4.9979739014726485,6.310805625371366,6.763485772994368,1.7173623887872638,9.857008262486737,-1.601325114731094,9.138925957987102,-4.8556642237295105
2.548,-4.377222163359138,5.12587994426755,4.778108760755557,-0.08473962691723669,6.290775747765162,-0.9633298886843766,5.057483561474902,-5.675943956819113
2.552,-3.225601000400589,3.534872888844589,2.5345015317283934,-2.1815297129690636,2.0042253378290065,-1.2376965296864992,0.0965486846210224,-6.9847268711189265
2.556,-1.7134516027913473,1.7226628405815982,0.03343515570332367,-3.989097133512305,-2.3930437623304743,-2.5622436818145298,-4.539467447416674,-8.399013417186321
2.56,-0.3871827655794138,-0.14825219488587638,-2.621805879056543,-5.213864391044705,-6.334361054942119,-4.6209712764495015,-7.959688939059476,-9.537615893381231
2.564,0.0787212091031595,-1.9390673549362551,-5.123564127044756,-5.932343750663326,-9.391365822192647,-6.781643372078468,-9.786591555135898,-10.130168900459953
2.568,-0.7828813766504419,-3.519036201002545,-6.990749461720262,-6.430141309137477,-11.32811662180115,-8.401972957484686,-10.119166276996044,-10.076476809126767
2.572,-2.953371681699963,-4.742286361823051,-7.736420895760619,-6.916159817116757,-12.098762582202932,-9.12481621513913,-9.336534831603535,-9.466031981881288
2.576,-5.845026234639721,-5.4558986587844345,-7.1112188038687405,-7.312124378126918,-11.81156784280035,-8.99024033207644,-7.879684024538469,-8.568826633963667
2.58,-8.474981155039057,-5.561273157234699,-5.292399645721449,-7.267960061017191,-10.691166581106586,-8.330294871567506,-6.138452919269671,-7.809145873617236
2.584,-9.840480428537916,-5.0929641157996155,-2.8808086224228964,-6.3984334486752426,-9.035087671154884,-7.53797340734889,-4.431142178450148,-7.682082511764914
2.588,-9.351465959462079,-4.276112138739187,-0.6956105327780226,-4.6042401849914025,-7.174862055835668,-6.865769935169749,-3.0262299860578943,-8.599359482083173
2.592,-7.108824072510355,-3.4855061048240144,0.5680720124797638,-2.247692043677116,-5.404767728618369,-6.361844529281543,-2.124237591161159,-10.691409855979702
2.596,-3.895247566603942,-3.1081830762590195,0.6489477961041716,-0.051289905815882886,-3.889124867662516,-5.954625429734824,-1.7887586115034457,-13.646959652544815
2.6,-0.8638852569799429,-3.3690412151671136,-0.1643571918002662,1.2483520658304812,-2.593837444112001,-5.595802342679939,-1.8845496172417255,-16.71019558344691
2.604,0.9619190472080428,-4.188882075372094,-1.160982099155726,1.319567206895691,-1.2789377354580136,-5.324499033349736,-2.0925218459588604,-18.876529007791802
2.608,1.1261588426397067,-5.1870729247462215,-1.5396803220137922,0.4576414743671866,0.38960947190075323,-5.213909263988961,-2.0458790287708,-19.253432448389624
2.612,-0.09310450536346959,-5.842905690119471,-0.7797691824464872,-0.5284352602951867,2.6324598278455174,-5.254243617333682,-1.5316181168130747,-17.440274440870287
2.616,-1.8697575714817534,-5.758367611048305,1.1126486147194439,-0.7321416286577647,5.3316094332461414,-5.28047785296313,-0.6544576402724689,-13.747094410192922
2.62,-3.2870966742261234,-4.882537511341656,3.5976172873373877,0.3460516173364926,7.935503626359027,-5.031743194645731,0.1482588326860632,-9.120688557226961
2.624,-3.8073706362475788,-3.553774729357018,5.8297579437137275,2.5019128868788796,9.597331091337328,-4.318714669684407,0.29299621683339927,-4.785574958031436
2.628,-3.526164570941102,-2.3480002818482983,6.992814026442994,4.898234991697878,9.50550884013265,-3.194802188082282,-0.6429356695222479,-1.764134459774887
2.632,-3.069870398908967,-1.778706971974179,6.615482360445255,6.494490034718389,7.299546256824022,-1.9920368171232954,-2.6440149470013905,-0.48832732663369605
2.636,-3.1990102928196302,-2.0160981744273245,4.728785849635214,6.6060612563518255,3.349869531870194,-1.1678595419156865,-5.177524232404936,-0.6865558730899579
2.64,-4.343165130035425,-2.7862338883712288,1.8186359912104246,5.296872168642301,-1.2737029638940403,-1.034497671162848,-7.373606375619255,-1.5854248390220542
2.644,-6.319379873520573,-3.500988530186051,-1.367208141284347,3.3970218524378346,-5.157880354300879,-1.5315307307376438,-8.384882213449046,-2.2969191157613356
2.648,-8.387914072882266,-3.562715800183652,-4.077249393738537,2.124640482627485,-7.101375539789315,-2.202134136103499,-7.759217566441022,-2.1970267453211276
2.652,-9.599024764313032,-2.6562209269993162,-5.760086267798579,2.5233594116693134,-6.58644230026521,-2.408482233929618,-5.6421029884085,-1.120573270328216
2.656,-9.244770679784473,-0.8740971942909079,-6.158083001700967,4.999372118315637,-3.9412763151402945,-1.6811069148542348,-2.7034658484839937,0.6838278288763586
2.66,-7.192496446792278,1.368192544139352,-5.3010015078694295,9.1589017780706,-0.13808384001905294,-0.014189412991308714,0.16949164036737452,2.745775671100655
2.664,-3.9346836062375194,3.574945685849613,-3.4382015423066203,14.00031261873104,3.662899954602333,2.0742335422251004,2.2396754364185534,4.572248017941906
2.668,-0.3667948687933383,5.405426454320882,-0.9657845165567336,18.332742206423486,6.57592355586486,3.7652395894292434,3.1723237388060195,5.7706388101791815
2.672,2.568323881930907,6.763829768811952,1.635528106778029,21.203872738475084,8.239215814260493,4.327462305835587,3.062248920482673,6.067665884067075
2.676,4.2160507936490035,7.73223572752403,3.875289346700474,22.165024599205395,8.778212599107892,3.481811056006136,2.2754494705443657,5.3221090110896405
2.68,4.398927436539484,8.429153014544058,5.367091651013873,21.31002512342392,8.575843665197988,1.5505636143647665,1.2349098774269742,3.5955765449702244
2.684,3.4203090999985255,8.910881336310624,5.966025574608665,19.139729476339298,8.028660678356921,-0.6793982133326053,0.28918178512754755,1.2687817711780085
2.688,1.909741669869227,9.166970901876464,5.8579517227397115,16.345379248715986,7.418447183070166,-2.3023211763201994,-0.2902311268189901,-0.9005713249878857
2.692,0.5780382375599658,9.188997052007961,5.525851851384696,13.598269051263518,6.92178714706607,-2.6901697104382896,-0.23673288819182003,-1.9227496766586372
2.696,-0.03440368389765691,9.013451643501863,5.546892896323356,11.385137697273798,6.660271158072016,-1.7542681364282022,0.7254503540927071,-0.9590062921969033
2.7,0.2492420144411005,8.667387642271542,6.2805985992397915,9.906987217337583,6.692846290149019,0.04481360185916694,2.750557206166228,2.2034605985627325
2.704,1.1562586152468173,8.037380039015979,7.595837993263167,9.040596519663628,6.922586649135301,1.9095126757325063,5.638218746554685,6.833539688885034
2.708,2.0483763980241116,6.77873607808494,8.805923620083814,8.40193801528835,7.00036912852336,3.0465249868579733,8.664606822141463,11.351634310440478
2.712,2.194805991776169,4.415230277809105,8.92528799794898,7.546228056967917,6.374553546696992,2.998371823844209,10.677586856516731,13.912160558830937
2.716,1.1429657189348594,0.6422421524096076,7.165704447796372,6.238030398238213,4.5324260563271785,1.8310654609025696,10.512339897081786,13.265644627930522
2.72,-0.9616063840913367,-4.295510763838809,3.454596012421022,4.68010453634719,1.3604334152801432,0.11351809184101835,7.602818497741388,9.48225309846655
2.724,-3.282666338762563,-9.39479023261467,-1.3077551065256185,3.5533699082431696,-2.5852560214039793,-1.3048743766189093,2.491264921996434,4.127892914800446
2.728,-4.554846088834649,-13.090283156545693,-5.468092574377319,3.7639733940384614,-6.136495230251641,-1.6494735579177568,-3.1227874997072598,-0.29551936160806
2.732,-3.6328087569259657,-13.857868365469896,-7.275976096674439,5.967815208531316,-7.943930586304625,-0.5765338359585508,-6.93398189355505,-1.4518391218181002
2.736,-0.08798356352441217,-10.978826450577792,-5.703783275223625,10.103167179237445,-7.111338850212585,1.6312062376061158,-7.010501780579896,1.7002584202180366
2.74,5.454444920722266,-5.06428702231061,-1.018971637462374,15.203803117401895,-3.7049476916495965,4.12715843896521,-2.7640815494491053,8.316267437286633
2.744,11.47058340857525,2.014908944088811,5.225497123933499,19.668990970927357,1.1760144452779002,5.826249923051156,4.616146438106217,15.954535012332837
2.748,16.156714196549157,7.833386287434693,10.812749015608944,21.925485153785093,5.843081684301173,5.8709890411578485,12.538932282792725,21.6377461388713
2.7520000000000002,18.227955439424527,10.465911526589673,13.834538491838357,21.18436611091505,8.782344700025137,4.043496419397174,18.090733597043084,23.191866183207836
2.7560000000000002,17.492684011156594,9.360148046965683,13.530471600799054,17.87859564118964,9.328305550696117,0.9065001245870237,19.327209529941015,20.20669969589763
2.7600000000000002,14.897343664972329,5.563815529911702,10.574232437370517,13.509520761672771,7.886113142246749,-2.4192464055977574,16.130761309007774,14.14342229957255
2.7640000000000002,12.001652255687983,1.1651244062316857,6.656786102263558,9.929218214669284,5.591905474097984,-4.766472680551752,10.184470502014463,7.552127074057864
2.7680000000000002,10.158934988654487,-1.7855994205532952,3.581024158777677,8.406856673721029,3.6043599035095566,-5.480531005757363,4.078278782838166,2.816830602522237
2.7720000000000002,9.852406824300662,-2.28121372326866,2.3615008710252354,8.987790180546684,2.4583429349116637,-4.731654301339185,0.026183920489633916,1.0886618234412793
2.7760000000000002,10.525477450096997,-0.7799484753746113,2.7854643457814676,10.48120681875902,1.8380905028056675,-3.409413464991648,-1.1447390435984972,1.9163679431248442
2.7800000000000002,10.984662203651197,1.160856106704397,3.649150347653011,11.106954705717873,0.8878205948866906,-2.6384225121954255,-0.22796408303618465,3.712441547333006
2.7840000000000003,10.141439711184766,1.8264030593574874,3.524754717132506,9.467234179278723,-1.1410458956429785,-3.161010035541211,0.9919392182018036,4.746781557917538
2.7880000000000003,7.636426363383332,0.2962593847870858,1.5950605906930744,5.296824018506708,-4.341119648815086,-4.930713284128426,0.822499478567936,4.08934209807815
2.7920000000000003,4.023420865163886,-3.0931244019347486,-1.8821618183278574,-0.3915969506115964,-8.01746355139219,-7.132099361564866,-1.4081513280085889,2.0196147631057406
2.7960000000000003,0.42277626718278416,-7.012979821532415,-5.721725241475178,-5.842437508379206,-11.060659881283998,-8.615614631534154,-5.065881947275001,-0.26923058629631935
2.8000000000000003,-2.12494698658095,-9.934146264843555,-8.458015576630821,-9.454980363776796,-12.58808248378324,-8.504748067185886,-8.677431802136372,-1.4388698303156258
2.8040000000000003,-3.1998718811527977,-10.943440272850552,-9.105194960998583,-10.537266951877495,-12.452437156944473,-6.63922102496907,-10.820724381961808,-0.7708701144249337
2.8080000000000003,-3.1305638077175395,-10.13049878545634,-7.615904217616563,-9.519242254891974,-11.317135796619326,-3.6149427401341323,-10.905053465451875,1.4981156904221997
2.8120000000000003,-2.6685446596703466,-8.354547815224453,-4.81111922022377,-7.542154036498936,-10.244482628310417,-0.41446379957909363,-9.40620455023214,4.409064444311673
2.816,-2.453825515278648,-6.612317075317884,-1.8879799256038607,-5.724145410653577,-10.07355650479844,2.1296728078224847,-7.492118808943516,6.867932182481822
2.82,-2.617354623730004,-5.429656869390364,0.18247237637828362,-4.547873393912328,-10.962385276244817,3.7193018509508238,-6.316966998085747,8.215278740733321
2.824,-2.757370459750174,-4.642713855855473,1.0325636830950353,-3.7050391173155894,-12.351096727094102,4.617988772596287,-6.4209017318894315,8.46313199109271
2.828,-2.2972097895408776,-3.6875869273616813,0.869102397871429,-2.4571462966129167,-13.363236497653524,5.337616491415645,-7.5659650150220585,8.096774536659407
2.832,-0.9520387822628598,-2.1354221624207956,0.1477819845855608,-0.2233442282478868,-13.358138414937692,6.222898268974214,-9.031893842147714,7.638668611382228
2.836,1.002168106050902,-0.10088355606959887,-0.7984352765020004,2.984679681888479,-12.298386423441677,7.218765655778914,-10.125866223989165,7.287518696416637
2.84,2.839219591055716,1.7625370920683459,-1.9195642346558612,6.541375465459465,-10.718876261182983,7.963405029412844,-10.569803731552792,6.857075005604808
2.844,3.8175809844605944,2.6906654284468026,-3.314460374347821,9.591702573659635,-9.333161103212458,8.1274308020356,-10.543686679400393,6.024788631494483
2.848,3.644648942781646,2.3422863536476184,-4.95729453571478,11.553624694349095,-8.565747345857623,7.74883382549481,-10.421372819787916,4.666244329040204
2.852,2.68784095194069,1.0879151360358168,-6.495585652712142,12.419769446769624,-8.296240909253118,7.307400700839167,-10.42120794480083,3.029602780010972
2.856,1.7717801286564843,-0.17911072651465565,-7.320975766392597,12.656252699213242,-7.990599755714133,7.456463737645196,-10.439464731888952,1.6117780792115415
2.86,1.6695947241306186,-0.6122855732537982,-6.904952514392072,12.779857566867864,-7.126988552300746,8.556832464167599,-10.172684165150738,0.816935501542229
2.864,2.603439160567186,0.010335118067299365,-5.19063955045773,12.910714872784652,-5.624525215110264,10.319216712245586,-9.413319129374877,0.6445933276233635
2.868,4.045117758514396,1.0637707178037326,-2.7870126638287,12.600456966838605,-3.995626757193481,11.823127828771083,-8.294841534384599,0.6397489785244037
2.872,4.962887198115836,1.394593502215228,-0.7870232802472739,11.073482675917022,-3.1054377256848333,11.939878089456862,-7.295044323155691,0.15035263340568683
2.876,4.378698257347284,0.0009218305161828866,-0.2782642022152695,7.7381758253543325,-3.678549583982708,9.947674449638155,-6.973988047740066,-1.2438374621170514
2.88,1.929399232866075,-3.3239566487718912,-1.7824497813475952,2.6637584696597525,-5.8317692720054986,5.9995321112208,-7.597734609298723,-3.400041957898038
2.884,-1.8750143069138874,-7.765124879484676,-4.924054503125368,-3.272043318303295,-8.907039568851644,1.1642657642057341,-8.900763330804955,-5.596446098203132
2.888,-5.839347178679516,-11.834840575935914,-8.534922371612508,-8.673485040220504,-11.723751068156753,-3.0050846107192513,-10.15311716117174,-6.870958133988973
2.892,-8.617388458332233,-14.103382929996553,-11.156486053472047,-12.212046397330258,-13.112461303681359,-5.163157884100365,-10.50681421578781,-6.543961974477213
2.896,-9.323915379377418,-13.910946198201042,-11.708969685815735,-13.200639354670662,-12.461750118563938,-4.766652772176569,-9.445859887486106,-4.638435190210965
2.9,-7.919996566988363,-11.668209172223795,-9.995081598335203,-11.858317249926861,-10.001649243316953,-2.27132745609726,-7.099246533361988,-1.9624567229251215
2.904,-5.184508927778652,-8.585082580503927,-6.774788999378986,-9.143349068690306,-6.686203087731118,1.1401703676134844,-4.215447140306112,0.20721028844715228
2.908,-2.2817559068387174,-5.982019757654617,-3.365044998547858,-6.236066299984811,-3.728058256322984,4.156018308552776,-1.7891188023718456,0.7169788895238334
2.912,-0.1553243143287979,-4.574675150826333,-0.9714408388074194,-3.953956155690669,-2.0126716336573,5.926290172232208,-0.555319193299125,-0.9086797725908022
2.916,0.9223957105296865,-4.143101456883915,-0.10356964489823994,-2.4138774766183992,-1.694619249086264,6.357331175579383,-0.6188545125751235,-4.219629874724156
2.92,1.425169807412077,-3.7533342360762303,-0.37736352151783414,-1.09636304559179,-2.1655742420760316,6.008238945600488,-1.4241250184116039,-8.01877407586344
2.924,2.241346783364981,-2.378634756150365,-0.8018704581464595,0.73909413260471,-2.3931100754702492,5.69947980800071,-2.08571132527782,-10.87505035655118
2.928,4.116751991123408,0.4358469610945386,-0.39385882038028175,3.523018102894213,-1.462641176337907,6.072759887227081,-1.8951673880960653,-11.723215479217014
2.932,7.184563203682591,4.255598311723716,1.2268353153307237,7.032138987310857,0.9486685155098007,7.323702830121608,-0.7150613452746044,-10.286781495628667
2.936,10.808221372091406,7.937597236564551,3.5720001147965146,10.40033848538285,4.37769771296784,9.189552119104519,0.943222358713145,-7.144991582201873
2.94,13.838366863190881,10.199957917683733,5.503740521552983,12.490227393152276,7.758989289225138,11.137992464070354,2.1992038064778314,-3.431184737338913
2.944,15.170196100527843,10.274736628964495,5.8436924829463806,12.446498095659315,9.913807013402433,12.62413737999703,2.2941507301715127,-0.32204918079238887
2.948,14.300954142625693,8.26942070342645,4.030647399989671,10.129446109216243,10.084932931391787,13.27521555168656,1.0181361045302484,1.4269294745693628
2.952,11.592703844971515,5.063346965349826,0.46928241763290335,6.2026782529960185,8.269143725777598,12.942457957609708,-1.1672416555702119,1.693200312979518
2.956,8.09912084199506,1.8221346403654208,-3.6266078339234955,1.8290647470492383,5.193474353294624,11.66399447132643,-3.3773053961711588,0.8728413931278824
2.96,5.048478604138126,-0.5858430277596276,-6.815349476139548,-1.8706482386755097,1.9514000434552496,9.610107011147345,-4.7713185063517605,-0.4606910995142135
2.964,3.2658701698791983,-1.9342474747069396,-8.10615164318947,-4.2960327471998845,-0.4868047390415766,7.065002587868167,-4.962027253809926,-1.8875355553486557
2.968,2.8304068811554295,-2.5912883300626524,-7.385278393354499,-5.540688012570218,-1.6573865657901354,4.4216224255308525,-4.134512074665013,-3.2894503434738853
2.972,3.1459843489970902,-3.130500065015939,-5.360419800562762,-6.176786444681419,-1.6863800083981157,2.139330179101334,-2.8200617165134485,-4.739738212095478
2.976,3.3681831310474397,-3.8654492254400914,-3.0907252977880306,-6.789485276674172,-1.0636359419408485,0.6365944979306191,-1.4867458306113006,-6.236184891320857
2.98,2.9222742038031626,-4.609105970975801,-1.3884774484267606,-7.549625070187073,-0.2732422912540251,0.12628392725223536,-0.21958805004330717,-7.486274733663236
2.984,1.8079114131816088,-4.8033060764068445,-0.4434318310048724,-8.092679420352964,0.4907104079166089,0.47628436461493484,1.277539674901658,-7.927401523274669
2.988,0.5305782964683399,-3.9421693435100247,0.1256470516127166,-7.780976392133098,1.3534979582465176,1.2053833972083834,3.3623398387376016,-7.0123168479716576
2.992,-0.2677806809015326,-2.0040708393536244,0.8834167164888864,-6.1762134465335325,2.5550459720529712,1.6545312067774485,6.047191458859251,-4.608977516409594
2.996,-0.21910976351463596,0.4051135521684177,2.133603710441541,-3.41095073732509,4.176140764498459,1.2861485209416448,8.791323810089429,-1.2433098784647627
3.0,0.5732135180891547,2.3045056167025115,3.707042853834766,-0.2130047111077582,5.9874809732672265,-0.036314389642269296,10.667596665710795,2.0128637778056584
