Timestamp,O1,Oz,O2,PO3,PO4,TP7,TP8,Fz
0.0,1.1027623258996755e-11,3.069544618483633e-12,1.1254996934439987e-11,8.185452315956354e-12,-2.7284841053187847e-12,-5.684341886080801e-13,-3.979039320256561e-13,-1.3073986337985843e-12
0.004,39.94093719382124,28.63605954430045,30.130013149279534,31.263957843649905,3.9187221403519743,21.820632688155115,14.168243303236977,2.203838252622461
0.008,69.9052952622095,50.03459070559052,52.10705270942151,54.2699004951653,6.236439220873081,38.30959935881049,24.49096082345511,4.427347499916095
0.012,84.1701513568886,60.02614446203313,61.28622183354662,64.36942416968634,6.114839522822081,46.42194479652392,28.693348030335244,6.664450930537953
0.016,83.36782582765909,59.02332395327255,58.26374547298144,62.27632270570416,3.7917230000100517,46.54468316259545,26.87509625916141,8.869144210826732
0.02,73.41260272893646,51.242111649596666,48.001968921320554,53.100208022200604,0.2771157516525591,41.949402178811965,21.158253955487396,10.950444005003192
0.024,62.02051373566678,42.19448674470402,36.96480071854978,43.32578223179598,-3.3466589943265035,36.922266071450736,14.466210477058212,12.773365337983307
0.028,54.822164489764305,35.89990667684566,29.89817258725759,37.48332549894826,-6.5573025691173825,34.61064926391998,9.146835958926772,14.18402832521764
0.032,53.175015357180314,33.351970357382925,27.990434061168003,36.33744205026221,-9.54187694557163,35.74369777375023,6.191542199950334,15.057292179524211
0.036000000000000004,54.63201795348107,32.91224711650267,29.213583087848406,37.413338273847785,-12.802316278322962,38.784930335129275,5.343885140547798,15.348878576285756
0.04,55.38817897579986,32.09661261714308,30.314750904991115,37.243901964177894,-16.52371714715082,41.2457050789626,5.818845835650052,15.127718002636868
0.044,52.997723662289104,29.49190825745984,29.068898495229746,33.814640116182545,-20.180141531921038,41.258758905715354,7.045903472608359,14.584992715045928
0.048,47.72749032165996,25.614314565442328,25.450686064551178,27.73507941666901,-22.67997702273783,38.52392042175359,8.946778114500034,13.944180797259833
0.052000000000000005,41.999472966485996,22.35737572661111,21.250606105647762,21.638752922437675,-22.966244911902436,34.23462618262033,11.665454467204938,13.389612637228026
0.056,38.550390740097555,21.55495643630661,18.622076179996952,18.381670479871104,-20.720845258918757,30.189439925619354,15.04851961716895,12.965815278721777
0.06,38.64450961190357,23.696633800175164,18.651903369481488,19.293501595270527,-16.667564220457393,27.731002355990142,18.366111408090717,12.561378773456113
0.064,41.427462449189306,27.59696790541375,20.82228103037744,23.506954239339052,-12.286855303875257,27.127581083610835,20.506371844208502,11.954721448546934
0.068,44.69346897669584,31.175487280941525,23.595533670377222,28.668314719179875,-9.061965603235137,27.65821665301604,20.567791004868383,10.927113372958445
0.07200000000000001,46.443069888089326,32.80003895988074,25.61395931035031,32.47206519611473,-7.692227280478903,28.237348944800885,18.45955709156405,9.418264546303817
0.076,46.19432009217792,32.327622345701855,26.66345410342717,34.022444769058325,-7.740931555356553,28.140974658102607,15.111980211590037,7.627219080779071
0.08,45.21170464223235,31.175007946050755,27.75480399407627,34.19557751708646,-7.920282017455861,27.387866914001222,12.113383625657832,6.01721332607147
0.084,45.56901105304996,31.383367734519425,30.28991927674747,34.83921748422881,-6.879075492387528,26.59749647018174,10.950229424955864,5.162594568055454
0.088,48.710576684558646,34.2741226181642,34.90612181194297,37.397563883329326,-4.033831364348941,26.486139625843634,12.260218130975915,5.485537580421351
0.092,54.44038458663158,39.523603505926474,40.78529638890609,41.856681692902725,-0.004962866953462708,27.363282992736515,15.501006395703428,6.984051932410949
0.096,60.92766998802392,45.1955308445672,45.87844306319005,46.62998554853766,3.560444365891726,28.929375934239886,19.188653440268126,9.090342918791947
0.1,65.61290916278506,48.654233046388754,47.86884326905977,49.35425359101657,4.669110985763041,30.412625062648203,21.536731453014767,10.772954135484923
0.10400000000000001,66.42279027700579,47.82754477273494,45.2907868808486,48.069009436237934,1.8290527789411044,30.904486077439174,21.14648310079184,10.890790548741165
0.108,62.61099708164386,42.130978623753435,38.16704930802405,42.09401172161279,-5.340373879569654,29.704284709340982,17.465085703428343,8.682909085755455
0.112,54.92607557806349,32.68947976763059,27.932457777386503,32.24813092006099,-15.934182502915974,26.564430899921717,10.93310404801889,4.1981647039349355
0.116,45.20499463616392,21.877119961543514,16.81418086999463,20.455951652489887,-28.019510220852794,21.821399376774764,2.8688529295736203,-1.522988019470148
0.12,35.654080749267905,12.421873683946046,7.02866905986923,9.01800419569713,-39.176388934837746,16.36703047968433,-4.826991037953803,-6.669883760286325
0.124,28.15495932815071,6.473997440446681,0.16759505166675126,-0.09603622962862346,-47.133123282337465,11.462063208071243,-10.089345225155625,-9.271263075248925
0.128,23.81223080592588,4.982577063791325,-3.035599974487525,-5.665338694359093,-50.2998280954576,8.390823817762964,-11.19301877235074,-7.942561628516074
0.132,22.80805182214658,7.543577941856256,-2.6130046067146395,-7.305237028062265,-48.11132227093242,8.056443426057797,-7.2962255886556875,-2.4813512223594785
0.136,24.544714767686514,12.714029501614732,0.8836112854608018,-5.317029989613388,-41.129656607364836,10.639711206936624,1.140735860224595,5.950061459429264
0.14,27.93961403463527,18.596071958269647,6.588291605408813,-0.4749791719486893,-30.886766965899994,15.463758882803404,12.283209308168352,15.175985345292816
0.14400000000000002,31.798501384426118,23.486573281052813,13.450161923631754,6.160533300419161,-19.480903244284605,21.155840450393953,23.354531346035117,22.75435127091066
0.148,35.137891763085804,26.35523512498969,20.321258013466945,13.387276368297421,-9.032000657984327,26.07913782415517,31.498976786140105,26.806615536036134
0.152,37.44251065367939,27.07506423380869,26.15158390114641,20.062313504556528,-1.113685995258436,28.915584016195453,34.79088473717309,26.619486196773096
0.156,38.78574753646126,26.35453362924835,30.28138803524689,25.360289541131692,3.634281891708895,29.166010545566337,32.984027805669655,22.78189027050479
0.16,39.69546046215112,25.349225198429394,32.64586088153692,28.960380949378532,5.560593070250889,27.30368611503377,27.58477471904581,16.840016284982596
0.164,40.79903011257227,25.095046523947815,33.73036160478614,31.038102399036347,5.683374917283459,24.48958258339883,21.159283096234162,10.643580046870795
0.168,42.41114078986175,25.993649465052215,34.23924582110294,32.03687907891526,5.133176784263355,21.986651522181546,16.171734170405614,5.65431730277578
0.17200000000000001,44.332693414103005,27.636304198100504,34.66908743379577,32.378251896769825,4.62842921805634,20.598547887684163,13.941276235880139,2.534912005352851
0.176,45.988740091961404,29.068189702560858,35.02504038988229,32.26771531453471,4.208624899365077,20.402194258336067,14.20900929319555,1.131429340906493
0.18,46.766110900236754,29.31601418978039,34.814653576497335,31.652467105951928,3.33125703930034,20.85264832918631,15.484801249730594,0.7829573499599292
0.184,46.306689117407586,27.87837722766392,33.30544475702652,30.303117349904937,1.238799818338748,21.137228060682446,15.944102039697214,0.7614710967403653
0.188,44.58853344984141,24.92106676960475,29.924870508053004,27.959117678598204,-2.5892432203293083,20.58285179252971,14.38093975416524,0.6318684154313132
0.192,41.83745221935351,21.134985552534772,24.63789955854577,24.50174643237324,-8.09768143390636,18.96297237036265,10.762920182211133,0.42433444446317026
0.196,38.382188686585096,17.360380811321193,18.100657587798196,20.074164810598177,-14.60677680347328,16.583636499656564,6.164797137038192,0.5308701804862039
0.2,34.540493648133406,14.175532598323684,11.485281140019424,15.080421052589145,-21.02940543682746,14.146317073771684,2.16503470907611,1.4582889751770836
0.20400000000000001,30.569865807136694,11.661626600758268,6.0256700030274715,10.045902897052883,-26.248119332054216,12.444487671559273,0.05980309308881715,3.5454361931865606
0.20800000000000002,26.659459225299088,9.445089319141175,2.4975152938384326,5.412245463701538,-29.472499010390948,12.017893104138352,0.29149550912097766,6.762472135974065
0.212,22.966184347460057,7.015953403543563,0.9372429628908776,1.4255282133131004,-30.411423446239155,12.934102915986614,2.3777509060328725,10.696385803821329
0.216,19.661296249837278,4.154301064768902,0.753160416466244,-1.8134984667985918,-29.229724026730764,14.774041505515015,5.30408487203988,14.707369966044666
0.22,16.929930644382694,1.186739723290657,1.1375187994492535,-4.197188844010952,-26.355598178226273,16.792189942518576,8.077537197676804,18.16474167859701
0.224,14.977661732240904,-1.0581675379723947,1.5656089538915694,-5.4524878670445105,-22.24531390873983,18.19360641070068,10.155652971765903,20.660293477311257
0.228,14.061467662023006,-1.5812654497016183,2.1124750094274987,-5.094744148364498,-17.233019857942395,18.44671750958389,11.576400204264644,22.113265062966434
0.232,14.518109788664106,0.3244189256029131,3.4109331360905344,-2.5602028319685814,-11.533552014120914,17.500709457219614,12.777216051196547,22.72043907829476
0.23600000000000002,16.7056844263509,4.699112908924803,6.253142821005895,2.492698106397029,-5.349173899529774,15.822523397520854,14.250800329827257,22.79062059066098
0.24,20.806378719774557,10.804311848964744,11.048677717678856,9.85347539708755,1.004965378993802,14.210919164874895,16.240047361342363,22.567312838514226
0.244,26.583184959189566,17.35805299086735,17.459064131870946,18.61183707372402,7.036114039622589,13.465413112623082,18.619668374621938,22.11942203960541
0.248,33.232192022202526,23.005385992520928,24.40646981801342,27.31155249100493,12.137320531578325,14.037557884677199,20.982410344246887,21.366121219504862
0.252,39.458854516548854,26.78326539958107,30.438358623099248,34.362289107769584,15.73369607502525,15.814646538147144,22.82116995467686,20.194045232528993
0.256,43.8513355815619,28.397346048362692,34.289421834187806,38.56842282830689,17.44838479087889,18.15452132908581,23.706290762331832,18.6048349134511
0.26,45.44555229243906,28.211186408963044,35.36146762099179,39.5478875735696,17.189500731162752,20.1932775352127,23.390513028553983,16.778948706751862
0.264,44.198343811787254,26.978038376116046,33.896186856705754,37.82922416282531,15.124127856299992,21.267793196020648,21.83749620215349,15.003566749277525
0.268,41.0340129714059,25.421917017499368,30.732983089432764,34.5280874067048,11.55241592520747,21.208296545857138,19.189023159644194,13.485588725666048
0.272,37.367212451302976,23.87114065273886,26.80034171527973,30.74960597079007,6.780514695571128,20.33694598232637,15.698563140944543,12.180853161863979
0.276,34.35498366226602,22.148056827072537,22.66168809030546,27.04616931862256,1.07698547473683,19.190399241061414,11.691256941931101,10.759380673654277
0.28,32.338582446248665,19.807102616754833,18.39800688674427,23.263981465790266,-5.254443931652531,18.170873226648155,7.570271127279511,8.77802481622382
0.28400000000000003,30.819424387332447,16.596832483342723,13.882406639424516,18.879270851060255,-11.731334571173875,17.352875257446385,3.8381271535528185,6.001074845356925
0.28800000000000003,28.932519213928117,12.812384706363673,9.181449412150869,13.564172847311056,-17.63196321692476,16.521184244338656,1.0439036695651112,2.6651261432500633
0.292,26.076512624540555,9.27440222576638,4.755941975682163,7.597923968898158,-22.118831967410415,15.377182921595931,-0.3746146426261703,-0.49314792764505455
0.296,22.305514304155167,6.913997885359095,1.3032044119295279,1.8564154652726756,-24.533416030335957,13.762474341892812,-0.29176666822843345,-2.5293539923236494
0.3,18.284371005551748,6.215633633460584,-0.6412113262442745,-2.5882899445941803,-24.70282604438694,11.776078334128897,0.9799074856512107,-2.762568116872785
0.304,14.865186400765651,6.862830780626382,-1.0634487299078046,-5.006181598928379,-23.06164932879551,9.720009429476022,2.745133041791405,-1.1701961163954593
0.308,12.548974519487274,7.817562490569117,-0.5516702961172086,-5.388802012239012,-20.492957558378976,7.893800100554699,4.1699979879784905,1.5035924368912674
0.312,11.19243678410794,7.834850848018505,-0.0031907178308756556,-4.438476264277597,-17.921382276161467,6.381214707704885,4.624492691347655,4.043570892613161
0.316,10.167477517015413,6.163144972093278,-0.09275821126857409,-3.1636159728213897,-15.864471387944832,4.991787184872919,3.977966349876624,5.322025830630764
0.32,8.890272342692242,3.0506694859100207,-0.8075197767275313,-2.3038133677523547,-14.199800520916824,3.421229047419729,2.6858867484500024,4.831484745795251
0.324,7.357360793531825,-0.2538478742760617,-1.3547862477507806,-1.9260125139171578,-12.314031360143417,1.5275374476645993,1.5895512726877996,2.886618981072729
0.328,6.2784805157184564,-2.06979317757191,-0.553826954255328,-1.449391526560703,-9.554524553345345,-0.4771235556281681,1.494680652663078,0.3975188192970336
0.332,6.65111062866481,-1.1788679544642946,2.4460796157254663,-0.10883357813872863,-5.751214691173573,-2.0809445921593124,2.7138100331710575,-1.6725603644013063
0.336,9.048264970089804,2.4630462526263273,7.548502091978662,2.4642161925503387,-1.4755728319410082,-2.741218800876595,4.846007105784338,-2.8265157359253408
0.34,13.106187526872873,7.6142679263352875,13.58399774700274,5.92530792812704,2.1356763397100167,-2.18940923873447,6.922366010998303,-3.2359565601558415
0.34400000000000003,17.58181114840454,12.335185830430646,18.792585349878664,9.370381698957317,3.9202960644745417,-0.5779625737104652,7.865361720653141,-3.5266999551655545
0.34800000000000003,20.959010711129395,14.935857029962108,21.643379184339892,11.839940963044683,3.2970562589254087,1.612369034105086,7.01630861228864,-4.284934590835405
0.352,22.226292992741037,14.744574755707276,21.52126953806237,12.822783221566624,0.5785764396271134,3.8201946840431447,4.440648894518176,-5.6194616140167
0.356,21.366807982946284,12.300981306027097,18.913555050191917,12.45269286749226,-3.195285343494106,5.638382701163437,0.8405849795991571,-7.070366644733781
0.36,19.29616764953107,8.924920083896495,15.043138076948253,11.324701023706893,-6.80272201571438,6.917460409505566,-2.8550735560361318,-7.9161929982192305
0.364,17.308198899929266,5.960859632330994,11.20365097786862,10.080006913870875,-9.439547230906783,7.6984866493342,-5.963914945784836,-7.679936203175544
0.368,16.341559059215797,4.127497751373539,8.168255391240564,9.02681891132761,-11.030057923191634,8.04829139614003,-8.291955233673775,-6.484682040256416
0.372,16.47251450164731,3.29816827917557,5.960714426899358,8.006210186667431,-12.097034299167035,7.916649059839074,-10.0485518650612,-5.039669044453831
0.376,16.920136135194298,2.787644033894594,4.075046437439596,6.578401976501482,-13.29889076062932,7.1396832013451785,-11.510211851174745,-4.233181609436997
0.38,16.573761868046404,1.9426231886752703,1.9922962842679226,4.41635337966045,-14.93110435424228,5.6181235818512505,-12.643890994004323,-4.566804684653675
0.384,14.726499777867048,0.6497254652210813,-0.3488004603018453,1.6436092441163055,-16.70579637377,3.533090291299459,-12.980071538492894,-5.805990164659988
0.388,11.543345428885914,-0.5781758274272306,-2.4372650156656164,-1.1318880624294252,-17.938780656940708,1.4066931479746927,-11.86318160674648,-7.073601738456546
0.392,7.975138373051777,-0.9826898022984096,-3.509142283039637,-3.1357885153529423,-18.00838190251102,-0.09773748937823257,-8.927057017927382,-7.354046449331463
0.396,5.219903327194061,-0.12957688678534396,-3.0730391966244497,-3.8733624454903293,-16.785383733458048,-0.5278235744015092,-4.483775522150836,-6.112541663320826
0.4,4.093956220201562,1.7385605217771172,-1.267982925186061,-3.3844339911497627,-14.728588330079447,0.07596984686051655,0.4736895160709764,-3.6299656097410207
0.404,4.700114857567314,3.823773048323801,1.1889334375650833,-2.1358060279267193,-12.586363118648933,1.1763896746635965,4.709536577727931,-0.8412939185453752
0.40800000000000003,6.544630372442043,5.291750498679448,3.4318941325673222,-0.625121558257888,-10.888742359347361,2.0399574470009156,7.394932850780378,1.233961654309951
0.41200000000000003,8.946471863704573,5.829979815078559,4.965646182742148,1.0116919401716586,-9.568889948532615,2.1673925620705177,8.562522816771889,2.1154150059057883
0.41600000000000004,11.46072541439844,5.890867298854346,5.963097161456517,3.1231148121514707,-7.966772807141297,1.59594808651309,9.074907842976472,2.1484885484558163
0.42,14.059483801861006,6.446101827790471,7.156458536480386,6.2980653121917385,-5.245219003514649,0.8899741012796767,10.100164668551997,2.2613371371708126
0.424,16.99848666418802,8.392682880662278,9.389195663903138,10.902956097126662,-0.9696588625470213,0.8170432604883899,12.387261129318404,3.3404860583418667
0.428,20.441810076693855,11.921383324988255,13.043348537441034,16.64491196499148,4.478129744782109,1.863493413017295,15.76302531747774,5.5904300589731974
0.432,24.104835248565905,16.227438865033037,17.673817943789345,22.447847551596624,9.921669411429775,3.877681449596821,19.158902994552818,8.2940608439867
0.436,27.194035790035286,19.785286839503897,22.091975734545485,26.783534699066877,13.875407807133342,6.075447874397014,21.17783445814871,10.146512233748581
0.44,28.740425828885236,21.093774155511255,24.892106061367485,28.34713372619808,15.250099723632957,7.452055017117345,20.901524446533585,10.002458399379066
0.444,28.16439596769078,19.512566669659464,25.17248953395574,26.74403391063879,13.89961779766395,7.3876840512521085,18.47837458476215,7.603845739640747
0.448,25.72806303341349,15.704419476785915,23.04160325259818,22.79141548842108,10.713033900428854,6.086204608913704,15.126507987321702,3.8524280136082325
0.452,22.553209626395983,11.395923777653934,19.611305868116688,18.22173368500944,7.199888094716471,4.5582403120406525,12.538679503601543,0.44018840338458176
0.456,20.125813683440356,8.539770065837047,16.450045712057545,14.894952451024437,4.766021337059556,4.118582374646849,11.990184646974967,-1.0013270583908707
0.46,19.56707221703664,8.337433073451848,14.801705686838432,13.94454983560263,4.077722209346575,5.680290317570325,13.690990105213587,0.2601238154247767
0.464,21.04605091526446,10.64473937273192,14.98158090172501,15.290901397218022,4.827383777168279,9.230028904005849,16.730203381419415,3.683920924172753
0.468,23.64008590823005,14.05030390757861,16.247745857948757,17.74637524758873,5.9895808031508295,13.766740874913921,19.614206794917436,7.748650886668884
0.47200000000000003,25.748048748798738,16.58705958263522,17.21140829838032,19.652335090607266,6.419035456421625,17.740008578709876,21.06829865971713,10.74173779785292
0.47600000000000003,25.8657386295572,16.70831054284554,16.574962910911836,19.710898017330692,5.465640444229621,19.764215815963325,20.65355903376212,11.617966520119808
0.48,23.35484563521959,14.037418773534455,13.840315896407901,17.61006322673984,3.299127290578781,19.264668672697553,18.8948586558206,10.47422370364302
0.484,18.809604069151646,9.5150887744403,9.614945637848905,14.141856604493569,0.7853166993468221,16.71839329115437,16.891752623949287,8.404578318476297
0.488,13.791858500158014,4.878104628850224,5.351947012637083,10.763341997227144,-0.9826510223938385,13.366117979700448,15.67729346795204,6.852202270846192
0.492,10.054875612364867,1.7631949650485694,2.6585122993560617,8.844007378746937,-1.2308523453386897,10.564302484409382,15.708899725261745,6.837120405462429
0.496,8.678928826154333,0.939610164932219,2.5436291327832805,9.01533749211012,0.16547891394884573,9.135644443063029,16.75580106484358,8.47395207693853
0.5,9.591993812602595,2.0718893482915064,4.99699236188917,10.96697098098548,2.715949774144292,9.068002121141944,18.195644469794615,11.013780571283405
0.504,11.733708061900415,4.100626114239958,9.086812345291492,13.754453032761376,5.642786094943631,9.693040990279087,19.473216045298614,13.318855944754887
0.508,13.737526379867177,5.966495115931139,13.486271146092804,16.391259164002804,8.293398611587236,10.19790369471366,20.411431866369867,14.474414215509114
0.512,14.700706665836606,7.205510700625837,17.091682007334384,18.342953104087883,10.390584849567176,10.130546334373548,21.178202203106366,14.188757425411723
0.516,14.600642517585129,8.079712815793982,19.402921389095354,19.654993371864293,11.999398240730443,9.60551840316748,21.974182098675442,12.799543586951131
0.52,14.155846606179239,9.21894674677651,20.52242992096535,20.699107032774464,13.277610597848025,9.124858739089177,22.69609769495537,10.949340266139416
0.524,14.26953282099521,11.062567459861611,20.868834317125675,21.767995293035256,14.221627685685235,9.169906840463455,22.85108259290905,9.182235329273112
0.528,15.392948755060843,13.460174148752003,20.802313687804144,22.77871853518127,14.57937328263074,9.828495464597154,21.79395195279062,7.693755190866227
0.532,17.201792961258434,15.690769567381722,20.403855194821062,23.280470945921024,14.005192650466597,10.695125224703133,19.163465046431497,6.364802754358834
0.536,18.7855129757354,16.887745822494935,19.524556415164625,22.75664545107975,12.351211373779279,11.102506227787444,15.225789092275704,5.000566520527741
0.54,19.228381179112603,16.592015799929413,18.03012549269215,21.01969714870711,9.88706872162652,10.557025841449331,10.88383074107253,3.5767612862492797
0.544,18.219747374067538,15.07890533462546,16.045203474935988,18.442555931697825,7.278082556544405,9.105138368293183,7.328622987453286,2.332149390888844
0.548,16.271044595335297,13.21229340464015,13.982123897243127,15.841889388102118,5.291589347894842,7.376931378987365,5.496862079958419,1.6493165444435363
0.552,14.371359064487478,11.88887592297533,12.295532095704402,14.04678675581954,4.374767647716681,6.256486286924883,5.6187554504690524,1.8185185578272467
0.556,13.326482300310545,11.436543212884317,11.13848224616686,13.42316315388507,4.357733473062126,6.369588105867706,7.1273946616566946,2.852801017940237
0.56,13.20811102999869,11.362344460417944,10.169723832128511,13.652620698951068,4.487233481461317,7.695829381938893,8.967172865998691,4.478762615993446
0.5640000000000001,13.295793623406098,10.648766393140477,8.69194656466334,13.922380412723214,3.80736836374399,9.546548103501664,10.137015747350233,6.294886387873362
0.5680000000000001,12.567794697401496,8.424444067944478,6.072752489099912,13.412398227803806,1.6978020836686483,10.91908090736456,10.172962627530865,7.982681817399111
0.5720000000000001,10.416527284551194,4.593454689590999,2.209162016317805,11.779988836426128,-1.7231234171156302,11.019043802273018,9.310244814061434,9.429478520147882
0.5760000000000001,7.1365922748873345,0.03320140246637493,-2.242034480284019,9.37123499608515,-5.548142809413093,9.66440179877759,8.258999739240949,10.691871582571935
0.58,3.8783484684176983,-3.767608357939025,-6.0234155622529215,7.055657273200723,-8.42157602885618,7.366482367344133,7.765431668026395,11.8442911135661
0.584,2.086459735756307,-5.416370935467739,-7.763910972872964,5.802706046534695,-9.097593389665917,5.069563676793905,8.22701039556273,12.839793111465497
0.588,2.723561897912532,-4.295530932849488,-6.581543694775974,6.230339226617161,-6.947998010916763,3.697353142418933,9.541747228295662,13.478928403233908
0.592,5.706326740178156,-0.8597159167529753,-2.52311010729818,8.33565200854855,-2.202443147920121,3.7340550346461896,11.227848837877332,13.499412228839333
0.596,9.882349621650519,3.602635132653404,3.385015665471201,11.519241065467213,4.158997061516402,5.04449885351346,12.706138922235027,12.719190955047793
0.6,13.588926314237597,7.599191229919825,9.517549397975245,14.87048631727157,10.778095777734507,7.009351509573889,13.576333819729939,11.141501095076705
0.604,15.491294804136032,10.113883818952218,14.294841116465932,17.554996730211087,16.372071852602858,8.874172270978534,13.758139578224473,8.966186852007127
0.608,15.213673823898262,10.956967877153602,16.769205520075047,19.089984283046533,20.070490071773065,10.103007773142735,13.435546517294938,6.509734126192825
0.612,13.4093296886399,10.626910600879228,16.881871463488324,19.39221178978505,21.536937831510613,10.557602001416626,12.86663557564168,4.092203831681445
0.616,11.294811012395712,9.862260522190809,15.336977085847366,18.660231975449733,20.925291339552814,10.460057210156947,12.224017260970868,1.9823901557911086
0.62,9.948717482949405,9.184412502479745,13.195916548308105,17.20637927105122,18.73421456137794,10.212558442024601,11.550320531181796,0.4172378508634438
0.624,9.776345909914198,8.686393995246931,11.39345391249276,15.336062027425669,15.619658247933785,10.187188460878588,10.80413018187312,-0.3804496581823287
0.628,10.382244079949942,8.118476648175943,10.368800165520497,13.282677969165661,12.198310510084639,10.568566002619491,9.93682308910627,-0.2583007768313337
0.632,10.84734774429262,7.1416385443869785,9.933803157911598,11.16191046930635,8.863897414098801,11.284131353244447,8.939603998406596,0.738258834641556
0.636,10.23858373166604,5.5713085901468276,9.422464599745354,8.958309869185541,5.693135258207576,12.040657530952558,7.836996428555949,2.2685276712071527
0.64,8.090414176586819,3.481920280114764,8.051925207903423,6.568998041336272,2.4944709849489755,12.44843503730067,6.665275915231746,3.733087789748879
0.644,4.64434627373771,1.1604576903813495,5.3471114930887325,3.926920968165632,-0.9930104868303715,12.196709403377326,5.478454494357948,4.500722194459058
0.648,0.771578539546681,-1.007586456815602,1.4552393945787117,1.1644030741483675,-4.806283695277443,11.209186155345378,4.388810868656378,4.245483745574234
0.652,-2.3651941401951717,-2.641749120880604,-2.8048199576171555,-1.2862859427907551,-8.529075540480108,9.708726049497955,3.5980269588910687,3.198592931838107
0.656,-3.759933217487287,-3.425658671677297,-6.200025032866051,-2.755348268035732,-11.293115683874362,8.147402082718827,3.3679421520139385,2.1197735662600508
0.66,-2.9430703310072204,-3.135720883915724,-7.557058441320805,-2.5887107908083635,-12.077201928391446,7.023265300651474,3.9315085255877875,1.9461574419797216
0.664,-0.1600607485852379,-1.6840510536795819,-6.268172779246697,-0.5009554115611081,-10.206302885939863,6.662536415796694,5.3546258818039405,3.2643011649762457
0.668,3.687671391607182,0.8009815847043456,-2.6061364022511952,3.1397981500724654,-5.794269845790154,7.064201312374053,7.430018028382619,5.896765095765431
0.672,7.333918480103421,3.927815362068827,2.323539352956459,7.305551339858994,0.15049797241942997,7.904825259726863,9.71341829371761,8.89220481061534
0.676,9.58049479531428,7.092618011544118,6.986397726761652,10.650020370661878,6.062846965933318,8.708834962385822,11.688072598592385,10.964799215314144
0.68,9.737844723627177,9.660351771658043,10.02951072336441,12.086344436149602,10.474411496593802,9.110330788446959,12.990204914895799,11.179617075372676
0.684,7.916316169232687,11.228322455552302,10.835005161184881,11.329346492977038,12.653342274553552,9.057214707884441,13.570320403472522,9.497541673787794
0.6880000000000001,4.997251632192956,11.808015607662128,9.73303602931719,9.077643200859484,12.877514597896834,8.819052291250273,13.688613917766702,6.84541660222402
0.6920000000000001,2.2567747292403055,11.794053465301317,7.757940047289367,6.687687414193078,12.17230659358097,8.782331958471218,13.733262676882362,4.634975472245685
0.6960000000000001,0.8049424491459831,11.735223683630693,6.090238324384245,5.4931280841142325,11.67191270685214,9.158955215178707,13.977843550907266,3.9968931368964036
0.7000000000000001,1.110208761243939,12.03555749260488,5.484102714059418,6.133599963274264,11.972319306702616,9.813220881018083,14.428392139554774,5.176942868593244
0.704,2.8468441545794576,12.764073259612587,5.981076756755556,8.25657219862137,12.848280284091743,10.334584008027605,14.835273426387118,7.442981242789415
0.708,5.12567622456686,13.668963937954004,7.028532303218753,10.749828141914577,13.492119824609972,10.323161824354315,14.857053966419414,9.557873176530563
0.712,6.949907379112801,14.345280487703462,7.8684302333651885,12.343336234973549,13.09156583594347,9.679598246193564,14.23410985838757,10.50680288351748
0.716,7.640712239040795,14.438039954220699,7.946526768559352,12.239046831990663,11.377119750032534,8.696697425115303,12.869156107144818,10.043792107772106
0.72,7.019202666370347,13.751972080272708,7.111477240851855,10.436779846797435,8.797100022126187,7.877225921449849,10.79298926297372,8.742576269333426
0.724,5.320597406013121,12.256293865138332,5.5420135802889945,7.626257557261624,6.228868031378852,7.588084067069985,8.078385462677545,7.5415526387489535
0.728,2.9660591721089986,10.042084695312724,3.5201501608803483,4.7699407994346075,4.4439182314847585,7.785433842808402,4.822637666681715,7.115126887528049
0.732,0.36900552026918376,7.3102027758448,1.2484567921974303,2.646335123974268,3.6884937757398575,8.010905195269515,1.2482728412374513,7.488542756859886
0.736,-2.1035181488132366,4.428278731685509,-1.144020134991706,1.6100135216920535,3.6613217228983785,7.6873612121681845,-2.1528849345433514,8.143112957518667
0.74,-4.045830733885168,1.9892801743537802,-3.4243444520939192,1.6506823757515576,3.885019760804198,6.546814366613489,-4.573173762120234,8.520447135163067
0.744,-4.947164851012076,0.7529562111029691,-5.083450031284656,2.6198819822755013,4.182632462128254,4.907511652554945,-5.077919248511648,8.543903529848194
0.748,-4.322599511694307,1.3733317619960417,-5.393003538417361,4.388464479645791,4.884352731266972,3.570782367063998,-3.041926042259206,8.757898860929743
0.752,-2.0342738767933497,4.001942037402728,-3.7493432859125733,6.806250470645864,6.586092804474674,3.3549812910739547,1.3713283982451117,9.950837586577734
0.756,1.4215353360591507,8.018171456328446,-0.12448584280923569,9.535564853396181,9.600624181265857,4.551354722700694,6.998709863454621,12.487434178859928
0.76,4.9295974915833085,12.1303977913592,4.70418038987782,11.96825009111626,13.507247803002542,6.670441541432865,11.964672933314091,15.826176550260584
0.764,7.207854638234721,14.916072535723174,9.373112281920157,13.400417633567486,17.161016917493157,8.680036393637465,14.442309985589418,18.60458773206983
0.768,7.4893010686930666,15.539778080134738,12.535532255328576,13.406418142457255,19.216566739346035,9.617331419583138,13.545013609283274,19.302931473950537
0.772,6.019992997402824,14.225017603379797,13.521493578560694,12.165779458786346,18.88158860331646,9.194707816937807,9.839884036896876,17.11618294920919
0.776,4.010416236723131,12.147236009763787,12.650066789146877,10.475446660619468,16.418163854169507,8.00099733829029,5.149127659730141,12.49358746326908
0.78,2.9731376190420633,10.729381777094432,10.96094600014294,9.340497690638472,13.020196748054218,7.135129387656207,1.661439570416519,6.959850284471713
0.784,3.7934347735001666,10.72066174141196,9.50062622693406,9.34459493288773,10.088895860669254,7.4745380289424475,0.7691148734283502,2.2787605902253176
0.788,6.069024346016704,11.607348616047716,8.581614500092542,10.16956061137455,8.320688506317083,9.021352513070951,2.2573084860301833,-0.5653365867196953
0.792,8.18477346081454,11.784109937713083,7.508476649924546,10.624928362348783,7.2063647202163565,10.764470072189624,4.320771722203858,-1.9389191362759561
0.796,8.158886431088149,9.467389983677606,4.991512119784147,9.251052563962503,5.302623705533961,11.19154044760512,4.464644354833581,-3.3145873316519214
0.8,4.81025374488911,3.8661920980350715,0.03988678495534259,5.2022894083486335,1.177664428122739,9.184246528831864,0.852520689203061,-6.320651430620103
0.804,-1.4141369401104384,-4.073440923509224,-7.1845231122794075,-1.0798154727802967,-5.512599074244008,4.787950539601411,-6.605018546838721,-11.631656051238622
0.808,-8.47780043382022,-11.858199575228298,-15.110805054604953,-7.843430682074654,-13.491373157370163,-0.6176242782081545,-16.017026799290875,-18.371433983057727
0.812,-13.714439562032567,-16.574480965836813,-21.34846762700181,-12.74681445531428,-20.263779458023578,-4.8976675450314815,-24.286111508564204,-24.40438683834725
0.8160000000000001,-15.203991629652137,-16.380781059777917,-23.849244284994143,-13.97116011550304,-23.300552591659084,-6.205339176336679,-28.517907351047484,-27.37918001939869
0.8200000000000001,-12.781314459080704,-11.537759775558698,-21.996087717160435,-11.120103896587466,-21.35685037575547,-3.9219830621966594,-27.334295246507622,-25.93956502412766
0.8240000000000001,-8.067905726156141,-4.350782070265552,-16.967213712583316,-5.386425736377305,-15.156987486749017,1.0283861493251152,-21.418117895529235,-20.417369298090648
0.8280000000000001,-3.513983170770871,1.9751121950837955,-11.138007033408712,1.096269705992654,-7.031538710970835,6.647582853600056,-13.050742307442931,-12.627498836646168
0.8320000000000001,-1.0250776627771074,4.9487572679023515,-6.843204671055332,6.338960993214073,0.31017733128328473,10.839548972621856,-4.936383516608714,-4.913915032107013
0.836,-0.9818457006684866,3.990467077870562,-5.203494873639329,9.399270400378668,5.174844301190433,12.358950734703967,1.0235384735369166,0.9826491716381724
0.84,-2.1977031332025945,0.5763596034753391,-5.668964615453888,10.617943487138177,7.655101170177375,11.25362021947467,4.379588338267467,4.596762873599118
0.844,-2.792803471136722,-2.69658102331897,-6.496044508380123,11.122992778920093,9.354361180639899,8.630571073239253,5.956629595402546,6.632555765266318
0.848,-1.4447059406488734,-3.579263605060021,-5.861942728924305,11.937939369557398,12.245787598270397,5.938935436249949,7.046642300832218,8.22776251990399
0.852,1.7346854652688535,-1.3529526359307624,-2.962891464384711,13.250564216974567,17.334991192775703,4.20566315747601,8.499940066601823,10.080752333165663
0.856,5.226919278482114,2.913279990630997,1.542152492352784,14.287784181189636,23.92028492733357,3.634480322454124,10.245996123901932,11.988689654603718
0.86,6.9964118168311416,7.096852261628214,5.959850498164883,13.845138360292594,29.875798717409282,3.732367286162628,11.477286770907085,13.06062728331301
0.864,5.718325666766987,9.285576930412958,8.58324588799644,11.138935566200871,32.801003223541784,3.8149995565586323,11.310108722888799,12.42118441961594
0.868,1.6066517540084533,8.80881475049705,8.663490063308927,6.436263961715667,31.3578256207241,3.5400447223739206,9.475893314097931,9.918558341335114
0.872,-3.6549029734787837,6.464526930401291,6.748912329956056,1.0583876592287425,26.0201683066569,3.1338446873284056,6.587722543837032,6.360534179072744
0.876,-7.817102066125699,3.8887546813486438,4.231625101297368,-3.2539015606739667,18.823363652652176,3.199417913053935,3.8171460853713484,3.1117156215706814
0.88,-9.26743142483258,2.493978440128899,2.421252596855652,-5.2388156149560245,12.276041344338807,4.263181880016248,2.19535705374318,1.3021084144291137
0.884,-7.85445535460758,2.6348004402424863,1.7334586698068506,-4.754085495425215,8.062314856248577,6.361630540608587,1.9721820762109985,1.1406466598551788
0.888,-4.887190505972171,3.4809950990423886,1.4905311812270838,-2.7944062343365204,6.267542482277918,8.9275036230041,2.43482523178497,1.7757739578259475
0.892,-2.359934182553843,3.61148428550905,0.42494260425758057,-0.899825934272485,5.52787562895719,11.032956452306394,2.310613078786673,1.7930283436174363
0.896,-1.8703649753044829,1.941501178172416,-2.4518058689927784,-0.3047798759482703,3.9740232335409473,11.847667113853788,0.5201826684544528,0.07414800415654099
0.9,-3.8375448665016165,-1.58715430010011,-7.163871584997423,-1.3132271117440268,0.3979262200306266,11.053809180448525,-3.1586007275290626,-3.4881943403004243
0.904,-7.386551307034324,-5.931609126314072,-12.670357722810763,-3.2202521632345906,-5.016554355560345,8.996748075057099,-7.8789684944044325,-7.838206527564807
0.908,-10.895112275436759,-9.498893401057046,-17.38710221229121,-4.7871610876704835,-10.7706386383162,6.504120542746705,-12.081629547664136,-11.255180860846906
0.912,-12.868853032389211,-10.997030185871267,-20.019588648715853,-4.984911755963708,-14.86004565803546,4.46954713737432,-14.246755924591525,-12.236688678270525
0.916,-12.662407465556498,-10.1078886087206,-20.216312851792964,-3.583143738799663,-15.830890376634557,3.4272436733215272,-13.632951925121802,-10.287055868304265
0.92,-10.692051723563736,-7.6232567277911585,-18.673718026657752,-1.272132392671665,-13.4943103599187,3.335735631652369,-10.630183962057686,-6.190025710659484
0.924,-8.090625595553547,-4.99316131454691,-16.655570303706554,0.7322525362590113,-8.947636035402638,3.6700624670033903,-6.5463829935628155,-1.6280847186827714
0.928,-6.0707713578817675,-3.5763624764636006,-15.25357310024674,1.3411511919905479,-3.9602533455458797,3.7458679323337947,-2.9645271888466596,1.6201022898418387
0.932,-5.352585930699888,-3.9977337574418925,-14.834943271263,0.12821886561459905,-0.11433833894534473,3.085327024052731,-1.027464380790775,2.4696509548393806
0.936,-5.9315884991503935,-5.918211896861294,-14.960715444094149,-2.516836485990325,1.843814322155481,1.6389319791837806,-0.9919509365201407,0.9256153740108175
0.9400000000000001,-7.249920868978279,-8.295288997597595,-14.767976305660568,-5.663293976199384,2.146085794327064,-0.243491749209511,-2.240639223374103,-2.0697239958420823
0.9440000000000001,-8.578536928112953,-9.932495905340602,-13.540255976064145,-8.336925917801409,1.653202284780491,-2.044255151041625,-3.691795373011928,-5.200736463269209
0.9480000000000001,-9.378929522445333,-10.030871192455947,-11.118153415976394,-9.948825657419547,1.2863889862444466,-3.3614737659343064,-4.368919829265224,-7.420326786101896
0.9520000000000001,-9.476129516469427,-8.494522579711884,-7.936260624495844,-10.455992892557788,1.567745962244203,-4.091636926342062,-3.840626631248597,-8.359812778968376
0.9560000000000001,-8.997455424637565,-5.896872668407241,-4.723738674041215,-10.225013226031933,2.4687982893414073,-4.419031834246198,-2.3442627774038556,-8.363646508722582
0.96,-8.185417334909744,-3.185523560549086,-2.096575427670814,-9.730506023497355,3.5683930928203154,-4.635982973702085,-0.590355729857265,-8.183470927371218
0.964,-7.22855934025165,-1.2900242825204487,-0.297588461640089,-9.2896568138151,4.348500621961421,-4.918352469200499,0.6190856403346743,-8.541578338109503
0.968,-6.214314621831818,-0.8176057102591585,0.7797366893705657,-8.981799746190973,4.439832247649065,-5.191000143724523,0.7513148157217984,-9.798755555199705
0.972,-5.22628288739088,-1.943214237905977,1.3297729012992932,-8.772014057556817,3.7069511457541466,-5.179553243302962,-0.29279234452155833,-11.856981850138027
0.976,-4.4640419173597365,-4.4603391497851135,1.36361920791569,-8.696515519845434,2.2029276137013767,-4.614344604404323,-2.2270231088782566,-14.274877414906541
0.98,-4.2880710769914,-7.943983148662028,0.6181680977465476,-8.969096213293597,0.07255757678922237,-3.467348754384375,-4.570324420444422,-16.50353193498654
0.984,-5.1270044270322614,-11.927818156225385,-1.2915732772175943,-9.927517841260396,-2.5110578866206197,-2.077166742750478,-6.8792404864429955,-18.129891511246115
0.988,-7.24374099871784,-16.00739618054513,-4.554414131366684,-11.825038257140022,-5.335385183719609,-1.0583005701778347,-8.88385605391909,-19.004459499540758
0.992,-10.50365685624729,-19.86541771530051,-8.894248269457421,-14.601535297269038,-8.119643706869738,-1.0264511093555484,-10.497620343681774,-19.23087181757046
0.996,-14.27882454266637,-23.22201783879018,-13.515450332724868,-17.775252928547616,-10.516313626422516,-2.27771838171293,-11.729111202113472,-19.046624449331375
1.0,-17.562082586299766,-25.75934231818428,-17.310017905863788,-20.52184762847446,-12.154774255167013,-4.585535332262452,-12.567274754333766,-18.64739755239202
1.004,-19.289274193847632,-27.09521732889516,-19.24383527038117,-21.937060051582648,-12.728553783122152,-7.243744713334763,-12.925031408767381,-18.065209582862735
1.008,-18.748951611745724,-26.851791348460665,-18.758249565591086,-21.378216696005893,-12.090705603715833,-9.35560708277876,-12.675911886091967,-17.169115089710658
1.012,-15.89549666688481,-24.811563863919673,-16.00276632967234,-18.73379980988011,-10.315276523648208,-10.236993030207486,-11.765185747889518,-15.79311327171149
1.016,-11.432316374382026,-21.10728804162318,-11.810786657791141,-14.52523864199975,-7.725532827756069,-9.740262231094903,-10.33593450219962,-13.94113106137695
1.02,-6.611482845399223,-16.341994983938548,-7.4335814783562455,-9.794117408409875,-4.875670671979833,-8.32973045698941,-8.784189386554544,-11.951339473371263
1.024,-2.814006021813384,-11.53267086863093,-4.127410480903563,-5.809317706925867,-2.473859737579005,-6.862683748943709,-7.687802701676901,-10.499306269181943
1.028,-1.0557267085378044,-7.832350835297575,-2.7300182192693683,-3.6760284593510733,-1.2226924319652426,-6.168722509551117,-7.603763201030006,-10.374052863439601
1.032,-1.6240483213850894,-6.118951923981967,-3.384265891710129,-3.9779373791570833,-1.5934991854974214,-6.633660467519803,-8.818839371248032,-12.091248417824318
1.036,-4.008213448947572,-6.632718201054104,-5.511072596147187,-6.587864168448959,-3.609664294783215,-8.009834653959388,-11.171576795941974,-15.532695799378871
1.04,-7.15926284829311,-8.861105937241064,-8.06435467742267,-10.730751028420855,-6.763220673933574,-9.562190694201036,-14.057082900626256,-19.842156185251042
1.044,-9.954173535279551,-11.750751768150167,-9.974032687712679,-15.277459875775094,-10.154729673011389,-10.470183348830233,-16.640582360391818,-23.690100742803452
1.048,-11.645548930942368,-14.158410133306461,-10.584055466054906,-19.142443738820475,-12.8245630847955,-10.26841200707213,-18.179612324258187,-25.81905671185723
1.052,-12.092463078693072,-15.326564486452298,-9.890951822018906,-21.623557753223395,-14.14816071589803,-9.08384769848999,-18.308528991759886,-25.609479730728026
1.056,-11.695409749379905,-15.161563158066201,-8.49458170807975,-22.564112167643543,-14.112979708410876,-7.5499110250334525,-17.173177310079154,-23.386135204541006
1.06,-11.101708704720295,-14.182921758944303,-7.276940920074594,-22.284676545424645,-13.31236218319691,-6.451892169181065,-15.357289585671197,-20.279311196041363
1.064,-10.822743522900055,-13.154305101451882,-6.938314258004539,-21.320334866887606,-12.615935874930528,-6.285381662831242,-13.606619593560481,-17.67187292058543
1.068,-10.96339217444438,-12.609493926217965,-7.629565088680465,-20.113098208022166,-12.69014593168231,-6.9760651088668055,-12.495161847411737,-16.519101490683624
1.072,-11.221561224766447,-12.55801614563643,-8.886935635110603,-18.837762463454965,-13.645663574875016,-7.932937661194046,-12.209551186440876,-16.915138221189864
1.076,-11.13914488427963,-12.527115528745071,-9.899717970451093,-17.43895727373456,-15.010252323418172,-8.409152685955632,-12.533391372289316,-18.132245189550986
1.08,-10.437744835786361,-11.893772068774524,-9.9507184374188,-15.813448791528572,-16.03010575472672,-7.954012050263373,-13.008356012000831,-19.081809859976147
1.084,-9.238379552505648,-10.29715396575375,-8.790181320542615,-14.003874178182741,-16.127653420437127,-6.694256733958355,-13.178651234869676,-18.932622381155852
1.088,-8.037518757044381,-7.896168069769828,-6.7490311046258284,-12.277905840584936,-15.250480567990962,-5.283205776961495,-12.802548099553633,-17.54674153533574
1.092,-7.4326207435779,-5.308888095650673,-4.527794670928415,-11.024126226386215,-13.888595148613149,-4.537314362009056,-11.923205693249656,-15.49494172341656
1.096,-7.7546103748982205,-3.279783253466121,-2.803664411342652,-10.538342799714883,-12.75519517339717,-4.974951191690707,-10.797461335361731,-13.676055484676908
1.1,-8.840044151190341,-2.2892090681543777,-1.890232157518767,-10.841183498709142,-12.334033790331887,-6.525925127415576,-9.751824899256917,-12.780081929828157
1.104,-10.081126317076269,-2.3272336755590004,-1.6396764426317532,-11.646244719771857,-12.589578751451882,-8.570264128324652,-9.036820516911803,-12.927608515191423
1.108,-10.747924190391132,-2.967436702910163,-1.635806207157657,-12.51579391434825,-13.032441144648601,-10.282747266128808,-8.77536952094215,-13.677860403941622
1.112,-10.408846516773337,-3.67876012607303,-1.5205900425862637,-13.100902103704357,-13.081601435085759,-11.071650961712749,-8.996260589704434,-14.352099485598501
1.116,-9.213775985449502,-4.175451047825391,-1.2508150189987646,-13.323943482575487,-12.503873274559282,-10.865372852214932,-9.700283323628128,-14.465566412254702
1.12,-7.859242186395932,-4.580418612988979,-1.1256058427134121,-13.393655883666725,-11.637112406802771,-10.095874674584593,-10.896523612436113,-13.994494502776888
1.124,-7.226715471345415,-5.296171958586456,-1.5706063648212876,-13.647339814785482,-11.24231823225864,-9.410723741800211,-12.572444814870323,-13.34339932758462
1.1280000000000001,-7.873353481317281,-6.661683260401787,-2.820351520929762,-14.317048029772195,-12.051082845113342,-9.298443997143295,-14.609847800433272,-13.061620831359505
1.1320000000000001,-9.667188959652776,-8.616121120765001,-4.710400927835508,-15.372462458866721,-14.28281425305613,-9.850828706266839,-16.7052561807227,-13.504271591408724
1.1360000000000001,-11.781689546483904,-10.586984904283781,-6.703069628273624,-16.524392203978095,-17.416184024959875,-10.780724157824807,-18.367157860823227,-14.625865637007792
1.1400000000000001,-13.090948817977733,-11.709315226878516,-8.141293215476253,-17.381922902180122,-20.36550665580762,-11.656305668286222,-19.030339930619448,-16.01272219757402
1.1440000000000001,-12.786220089295966,-11.287840513254196,-8.589473530373652,-17.675271139743927,-21.991805418284457,-12.18643399922803,-18.276761861270643,-17.116107338099937
1.1480000000000001,-10.888855480014172,-9.24906413591907,-8.065169314316336,-17.414265543608053,-21.67144538812181,-12.383416833412412,-16.086964092687595,-17.53172153669766
1.1520000000000001,-8.375350905064806,-6.329442240764365,-7.050961524442755,-16.90711641350481,-19.633491985584897,-12.526537369845755,-12.977170743889474,-17.200639763952495
1.156,-6.818855536858791,-3.8656461767709516,-6.292460756883884,-16.648690473888564,-16.894312327779517,-12.971201230040606,-9.928568243864447,-16.449612347160837
1.16,-7.685638002233645,-3.2498360113413582,-6.493117732460632,-17.13658998817482,-14.8169198420037,-13.949413276764062,-8.092923762818373,-15.87489447696953
1.164,-11.615764628859324,-5.285148930420291,-8.034549533731479,-18.680586373357983,-14.508459576722089,-15.463872326276942,-8.330030303322928,-16.11307213738155
1.168,-18.021918742935668,-9.735751213286221,-10.816137506290033,-21.260857634574677,-16.321561526923688,-17.29459139062601,-10.773024589735996,-17.573341084871117
1.172,-25.22337925706597,-15.32202959267488,-14.264246791250116,-24.48338119240816,-19.68481047597288,-19.094341364146203,-14.661286013069912,-20.23391115325785
1.176,-31.087505869185406,-20.200291027629646,-17.500866704881446,-27.65682223530257,-23.330308696024076,-20.50031286850026,-18.56861417764685,-23.57168465093946
1.18,-33.92444613022417,-22.751763882237356,-19.639139233339847,-30.012925758917845,-25.826961996277532,-21.241000641620303,-20.994447290728658,-26.705589537518335
1.184,-33.200401366806545,-22.30580126545101,-20.099091407234482,-30.993175604135104,-26.18300835660375,-21.21696649696878,-21.062392167345024,-28.711691137968955
1.188,-29.74399816478217,-19.458115725971766,-18.847848117268768,-30.505700220757717,-24.282994624943058,-20.559834853444045,-18.978975209855435,-29.0159986032254
1.192,-25.33634023045488,-15.801905486468968,-16.452576667977155,-29.005153447365046,-20.956253439389002,-19.640723888650427,-15.971810071553591,-27.66611629646968
1.196,-21.878702985042764,-13.19101857136593,-13.906887489056317,-27.327608682626305,-17.646807737728523,-18.986520488401766,-13.694194405184135,-25.33089186858524
1.2,-20.553776902532263,-12.903477908175773,-12.294488383075077,-26.337343593862897,-15.832521260811518,-19.100921997411206,-13.39948625593297,-23.019122174763652
1.204,-21.35460627095199,-15.07812372076205,-12.373071502859602,-26.504315338021115,-16.3988869755176,-20.20660675657473,-15.291493871788589,-21.588409310264524
1.208,-23.199639996975748,-18.701880159159373,-14.257326709594054,-27.636290237258436,-19.24331050508772,-22.040738403538853,-18.417755413580835,-21.30276562455674
1.212,-24.57312303310391,-22.162998764824806,-17.37977460692855,-28.965415944740016,-23.326893267662854,-23.87036244871888,-21.19342619514464,-21.741538721328197
1.216,-24.362606217340726,-24.080488355410125,-20.76049914698342,-29.58397657864043,-27.162964466967424,-24.81560972871648,-22.303171865306012,-22.148205717365727
1.22,-22.46500344096603,-23.970415479697294,-23.45157005663168,-28.995135239145384,-29.506612506490455,-24.32867598019311,-21.45954545815266,-21.999307934697754
1.224,-19.8238935019599,-22.387812818083148,-24.918092462155983,-27.44917866596552,-29.9081563072059,-22.575569288323095,-19.570892999260195,-21.450856635164655
1.228,-17.884643496960052,-20.494312927788997,-25.155838887632854,-25.825929783968604,-28.83582826566999,-20.478807830281767,-18.21884639417067,-21.33881756139135
1.232,-17.77738824312837,-19.326506905832503,-24.508074267057964,-25.101292174067567,-27.312682310206583,-19.311258737426215,-18.71500336575309,-22.677173816551658
1.236,-19.671737288905206,-19.20110007850144,-23.330439525250767,-25.707796704999055,-26.279523872522986,-20.01422393730627,-21.28645305182181,-25.92972794715388
1.24,-22.645965228211935,-19.582666672112282,-21.715511457627144,-27.16711686544477,-26.01734737206334,-22.593203005159012,-24.864832435122935,-30.492492615328047
1.244,-25.159199718042146,-19.474688974825767,-19.465661249263576,-28.270314386481914,-25.96467352440959,-25.980905062519014,-27.59706250932777,-34.75867884300351
1.248,-25.854679479909464,-18.068378229274458,-16.32047710433835,-27.737666159247965,-25.035051450940045,-28.491793757472806,-27.814341945798787,-36.78260743105602
1.252,-24.26584222235215,-15.264439540578678,-12.29369867170135,-25.007664652986932,-22.287003835152973,-28.68878684916581,-24.91293095736546,-35.272634372007815
1.256,-21.03878637991329,-11.753676819695102,-7.879572993600959,-20.6780917008673,-17.55372402332614,-26.197707251740212,-19.670131343824778,-30.33335068249471
1.26,-17.58258659374951,-8.636795390251791,-3.9736485426401487,-16.306381651202173,-11.66329802418204,-21.9984400552612,-13.867533055243257,-23.495403248643925
1.264,-15.366605250048451,-6.846842193797784,-1.5479870637082058,-13.66379292099191,-6.152110484750665,-18.017442224365368,-9.452829640023538,-17.03388926801017
1.268,-15.215384533634278,-6.702873912329778,-1.231961006671554,-13.818063663984503,-2.5924867728381287,-16.185669402308122,-7.6851455139408245,-12.909420010138547
1.272,-16.97385021894661,-7.839480340539012,-3.0300003001575533,-16.56180246990334,-1.8938345207870952,-17.452253484554603,-8.713347344038539,-11.896855335073269
1.276,-19.6926893636155,-9.513198396396547,-6.327603391962839,-20.50704771031269,-3.9388394597472143,-21.28479231602614,-11.720247301624113,-13.325773607467
1.28,-22.18883289526093,-11.071403056933377,-10.18164785866611,-23.804314798011546,-7.735425380490597,-25.93428450047395,-15.479308889768618,-15.580437680083378
1.284,-23.642135759995654,-12.280908735047888,-13.726291934719484,-25.081096845646243,-11.983534009259529,-29.308211941960508,-18.973131932881188,-17.035967373927633
1.288,-23.904466305129972,-13.328864361589694,-16.47196696100582,-24.072127409330278,-15.719012788832515,-29.984694132778714,-21.73623099325141,-16.86730512662598
1.292,-23.398977621176527,-14.551661615121702,-18.37796130582865,-21.626624772867217,-18.699704880878016,-27.842316276857673,-23.815540935677745,-15.315235922234933
1.296,-22.736309966905537,-16.106406458467973,-19.701005836459444,-19.135599897039356,-21.34272531107399,-24.00324420929246,-25.485756463830512,-13.326388256835344
1.3,-22.314046134732052,-17.818395624417462,-20.749946010086205,-17.741278725390657,-24.299675616071,-20.17760867551442,-26.913792893279606,-11.877554610203333
1.304,-22.12116617166066,-19.271374820250458,-21.675829747375246,-17.765556489415758,-27.931662992664315,-17.777886612162547,-27.970340420341927,-11.413093557462162
1.308,-21.831876385880605,-20.04185587871416,-22.380386857666963,-18.635225835136225,-31.961594108028294,-17.27718808945974,-28.285714046115572,-11.687272242075778
1.312,-21.097994358520737,-19.915298752212948,-22.57500089226596,-19.306629214719578,-35.51150678382692,-18.14451076120895,-27.473251278057433,-12.084146808909281
1.316,-19.857392455951413,-18.970220740848163,-21.960630496900194,-18.927069541954552,-37.50797917615,-19.321004360097504,-25.398101748195586,-12.154951485960737
1.32,-18.444518281396086,-17.48344355278641,-20.41090057194924,-17.327529338966997,-37.19790152022688,-19.91826407368535,-22.310155204892908,-11.969758743957755
1.324,-17.462863035510964,-15.781831776141189,-18.0954994323547,-15.11823583061232,-34.53105805296582,-19.72923895878739,-18.81920250019448,-12.087261910431153
1.328,-17.508380691060665,-14.155203622052795,-15.485704517108388,-13.36457076250008,-30.20799675501985,-19.271806279122757,-15.742283545723694,-13.14942404219164
1.332,-18.852446475337274,-12.822613703149727,-13.185732832373105,-13.01543848822621,-25.347278967044986,-19.34805444594531,-13.833211332635074,-15.33265289915289
1.336,-21.278564339270815,-11.952413370569957,-11.675534652440547,-14.433785695995539,-20.99263755845641,-20.432126347428493,-13.475802783668769,-18.081767667026725
1.34,-24.17875927206478,-11.685145056971123,-11.100094615241687,-17.27317821615179,-17.735695506999036,-22.286473095535257,-14.496443986355189,-20.336809878811437
1.344,-26.819524032620393,-12.083664472160308,-11.190054408794822,-20.693586462843086,-15.609406572799344,-24.03061570900718,-16.192997625168573,-21.1031930434292
1.348,-28.65255762059678,-13.069686323307906,-11.402028206053728,-23.785613660200397,-14.302750182598174,-24.6308842528033,-17.59393045264369,-20.052889564620273
1.352,-29.512188866612632,-14.425244788570126,-11.243356207054603,-25.966095998281162,-13.549554973296836,-23.505322173374225,-17.862776303623832,-17.822734378780297
1.356,-29.61801979610391,-15.891051994569352,-10.61622171934141,-27.138553864890127,-13.419984266362007,-20.875521726173247,-16.710844707407887,-15.734661144366328
1.36,-29.402230597075686,-17.331547905210755,-9.995159449694256,-27.58347514012894,-14.333390567526294,-17.650734183080203,-14.598809729533968,-15.065884463205293
1.364,-29.23962124638274,-18.83740401491741,-10.287048468437206,-27.667190018690235,-16.793969527559966,-14.888320953530638,-12.58358236024469,-16.29604967833984
1.368,-29.19527195116825,-20.633817819729302,-12.35548136734542,-27.510296311449565,-20.95098137212881,-13.139053836745006,-11.876117138449445,-18.692539340232543
1.372,-28.947138441635616,-22.83614578873494,-16.451613928713414,-26.840618656467996,-26.28602644691273,-12.099556704801216,-13.27407877832411,-20.566158003736746
1.3760000000000001,-27.953742931429588,-25.229245345799427,-21.906848306371103,-25.148872104466136,-31.680890247867865,-10.831337641015125,-16.776982199902704,-20.11895833664221
1.3800000000000001,-25.76598638492578,-27.221522207593807,-27.27671866239143,-22.03205227446233,-35.82069519543438,-8.418739755594288,-21.562187114049266,-16.421729140524803
1.3840000000000001,-22.354737786394253,-28.07851615380605,-30.920226994843688,-17.56308257942146,-37.757089304221154,-4.685445645389336,-26.314888929358858,-10.046438769075394
1.3880000000000001,-18.24007090941086,-27.309332191969588,-31.715387805677892,-12.437249882099422,-37.296200446155126,-0.504451125721971,-29.72715995373892,-2.9369633716878525
1.3920000000000001,-14.33267717304625,-24.98674095591923,-29.54802440692947,-7.78875550158773,-35.00640844415102,2.5411777948302188,-30.941659380079727,2.39596621774308
1.3960000000000001,-11.55853565922007,-21.794389858028808,-25.30686805230289,-4.75457538109913,-31.84730270856744,3.0124184172600508,-29.766533871599677,3.995532347827975
1.4000000000000001,-10.435954438908084,-18.729609207797694,-20.386563637381187,-3.983659607674781,-28.631391433527824,0.5078634542969667,-26.61756362199958,1.2977556128726064
1.4040000000000001,-10.828787621605443,-16.613011172965344,-15.988893827729044,-5.341488419329835,-25.647921322404727,-3.942176770169681,-22.2994419167062,-4.710785803732506
1.408,-12.016633712926705,-15.684652266265402,-12.61621759126865,-7.97271726625695,-22.647202881333214,-8.255369408923798,-17.76732589180574,-12.013637584843309
1.412,-13.04431200891122,-15.527661158332194,-10.019789107296674,-10.692108848859789,-19.175993791814108,-10.285855571864886,-13.921914784468754,-18.492140138357172
1.416,-13.165670692040294,-15.355439913902956,-7.581260203591228,-12.501598860439117,-15.01290152731599,-8.893475340564692,-11.419485540696769,-22.707947237551707
1.42,-12.141855413417943,-14.475187435618864,-4.840833901405858,-12.964220057387138,-10.408266918158915,-4.516442394598926,-10.484071837397096,-24.14788411436257
1.424,-10.24662822168466,-12.642432761665987,-1.8185010230226908,-12.25545183142458,-5.978045760954046,1.077671997159996,-10.76737700497506,-22.940929342941672
1.428,-8.014412335345696,-10.114354731033018,1.0459542466633138,-10.908870276114612,-2.342114072842378,5.714230496991149,-11.365421657326806,-19.396794081520056
1.432,-5.889566728907084,-7.395707576335553,3.2532195372259594,-9.426419812236418,0.23156332757571363,7.90088720015774,-11.103782182266514,-13.756624792366893
1.436,-3.9937862630322343,-4.873201149062879,4.622381366032641,-7.980910427981144,1.9276513072236412,7.502121090186847,-9.050450640654162,-6.300212061162711
1.44,-2.159231284455018,-2.608806970059959,5.401534256787272,-6.381016486586304,3.166072588866882,5.661435339410673,-5.074088113681682,2.315729425378777
1.444,-0.14326992206770228,-0.39234800670237746,6.05828648165334,-4.257929403218441,4.245616639011132,4.089555040796768,-0.08612529329366225,10.855487239290596
1.448,2.1423966105430736,2.0017607516601856,6.904306703112525,-1.3239843037408718,5.108924763608229,4.165142327838112,4.254467947609555,17.7396669506752
1.452,4.549066090083215,4.549046512027417,7.825462045981112,2.4514355432693264,5.405350985121913,6.34234467377064,6.300317605203418,21.680839302796812
1.456,6.806397630072752,6.9096914250076225,8.326309095369652,6.838777328826836,4.828908368381235,10.115222268119396,5.263482932462466,22.39405505738887
1.46,8.740711086808005,8.607195610793497,7.866747753931122,11.467811559639813,3.4797504773323453,14.450251322399708,1.6691689355448034,20.880053373654846
1.464,10.439822611864656,9.343264852184802,6.271280972548993,15.966886324364168,1.9677099393156823,18.34062590688518,-2.874666350753614,18.97318791546968
1.468,12.214238499789644,9.215739019393368,3.922356463899632,20.00768537933618,1.1345203869077523,21.15350296026918,-6.520152364805654,18.321481738868897
1.472,14.391068936805823,8.719287522906598,1.6399439479973807,23.287073994135426,1.583002919995124,22.663614520464762,-8.152197651672395,19.42948138333668
1.476,17.066875159263873,8.522139935528685,0.31575468398295925,25.508570634050557,3.315080358128398,22.870957112343604,-7.897505937592541,21.321679470454
1.48,19.958117945247068,9.130579580911217,0.5072460291958123,26.40532101178178,5.716539236669632,21.82973705945369,-6.854499312277767,22.046163389597496
1.484,22.44320376014366,10.62949205557561,2.2177047512268473,25.82527191495319,7.919752471716492,19.650681478100523,-6.252434798824652,19.810910103913557
1.488,23.797991436025768,12.653760942192093,4.9761133321335365,23.84751559378492,9.336488906772502,16.657963438907245,-6.552878366775985,14.126404877678397
1.492,23.514184884988936,14.594938293181258,8.142993650599237,20.857945667557942,10.035289040493808,13.530817834198388,-7.054148326616996,6.317809726618179
1.496,21.543397029308835,15.913702058365743,11.238672177329136,17.51637560936797,10.717282019182676,11.23008419580583,-6.282864650647753,-0.8938481014893114
1.5,18.37873865077563,16.41155371257628,14.131949832270038,14.630496751677128,12.322978700149179,10.677564824714864,-2.9168529611815757,-4.508626073898995
1.504,14.962195633306692,16.34657802302536,17.029247873531858,13.003400301447982,15.525621562937886,12.347816401876116,3.3482715859263408,-2.4708103215234587
1.508,12.430299176237895,16.33503172293058,20.296350723219803,13.276619205022143,20.391130756450366,16.00667839589005,11.537263845660163,5.546161654497155
1.512,11.778592923081305,17.094750889718853,24.22410638855581,15.781074371017894,26.368177026297417,20.766399370062572,19.907542938251936,18.066207338955792
1.516,13.52456269524555,19.121847805352445,28.823220195401518,20.398811015445972,32.559744438083726,25.444827069326493,26.855944232613183,32.38968327652765
1.52,17.443637598746136,22.40245894920008,33.690027794051275,26.445368577260524,38.05354017314676,29.01604299373139,31.66783519242199,45.4084789000226
1.524,22.525493910296063,26.30040741467019,38.002744674435235,32.688021335055964,42.122112809587634,30.9455615570223,34.66279545297948,54.358373440823925
1.528,27.220929604081903,29.68910911038256,40.673673463621526,37.59702214373465,44.24447553934624,31.26387638830056,36.6796597938137,57.42207236586546
1.532,29.952751486373018,31.321829851211078,40.65679956700842,39.82874760514824,44.056209750840935,30.4033011684769,38.28153574908356,54.14916534329677
1.536,29.74392273353078,30.33066911086098,37.35155846872294,38.79778279443053,41.362126798199824,28.948866603173883,39.2580955622434,45.67826223516386
1.54,26.66354301291358,26.62789597658957,30.940983129181404,35.03314524990856,36.25909944457089,27.428778761193826,38.738987276179614,34.6168350308908
1.544,21.87546760803525,21.039125039374994,22.513155869855836,30.100405601235252,29.30653756274478,26.222616785671562,35.84653231399898,24.45103170747825
1.548,17.195139167404704,15.051915043304689,13.833479681179597,26.015094841641258,21.567012876306762,25.543941057159827,30.43727706993377,18.475423927922748
1.552,14.32440052722086,10.257116613493054,6.802705762132973,24.36454486832008,14.402290761998302,25.43256326636765,23.44031849638486,18.51790954478929
1.556,14.134060322267032,7.735185092655229,2.821042313691578,25.58046479663244,9.084579698093876,25.736116634438076,16.57096789460593,24.04422886357679
1.56,16.331046632665675,7.666027468800166,2.3395981981157092,28.750316341160215,6.404220716449345,26.11147699007779,11.598352061366313,32.1888369367698
1.564,19.696645545991487,9.367963410355514,4.813552638555848,32.09486326201295,6.4691022626084305,26.11663869165568,9.595931774791097,38.86112235109613
1.568,22.74148304900882,11.722779068972159,9.053764574262459,33.86341165260819,8.768053630732538,25.401786336322402,10.571490484151582,40.514535387515934
1.572,24.421922313180403,13.75849418398866,13.78964006008755,33.17532221637157,12.44609079476868,23.908720678031386,13.650189111833242,35.764143227990644
1.576,24.522039171475626,15.062015951280046,18.12562396685098,30.341942617505993,16.609854998579976,21.945108053394506,17.606592621668824,26.029267972504385
1.58,23.521351146271627,15.81178643493331,21.680677831478533,26.52880686843855,20.528349042586342,20.05986389557802,21.3875397005977,14.876565883005242
1.584,22.14383398649079,16.504873790232523,24.46079564466345,23.04303836714098,23.739365561032173,18.769599385119363,24.402478411639095,6.39476600341186
1.588,20.876581363725563,17.551464039195707,26.59699320828804,20.666238339374104,26.074000812772283,18.28074647016183,26.509267913064832,3.3953099353784637
1.592,19.778424200761947,19.01123418543102,28.168135786811035,19.43151228894203,27.667475835074583,18.37366793415822,27.83147485747486,6.34431418182794
1.596,18.656376924987853,20.614025514792957,29.199948120733097,18.900715595070324,28.931304736601305,18.526148713231123,28.59737923126113,13.444658801712194
1.6,17.403437756383028,21.976292801177806,29.750549288065486,18.65908487861452,30.39502741227352,18.19763998979306,29.052065627483444,21.684988100377723
1.604,16.22942006526864,22.84218462593344,29.94698749354211,18.66247310545441,32.394983305379355,17.110948183482833,29.402727039494494,28.22093293195121
1.608,15.591995089136617,23.170263880914717,29.888864495322196,19.198759112376138,34.71824941410887,15.375520915022207,29.73567060622372,31.38776343459176
1.612,15.892894297423481,23.05144018923602,29.503373514115083,20.55778304413252,36.46067890505947,13.424090502194304,29.93351532615634,31.00739565803633
1.616,17.176964393736853,22.567581561626866,28.511210208682314,22.70500395117415,36.30950345478777,11.823541944875615,29.689767841678986,28.05946049864724
1.62,19.075052881973534,21.731403562942432,26.615249971393496,25.24499529826062,33.24493890583108,11.090212791255908,28.715656544845842,24.07974904373077
1.624,21.082732921338902,20.603864191112734,23.866706903161685,27.72981753545173,27.342938620518908,11.588139285562647,27.092211891766055,20.606552693272533
1.6280000000000001,22.97190585647695,19.4840297527262,20.95139473897143,30.048070088163513,20.158413347468013,13.488508569615078,25.533127529126432,18.796471690930048
1.6320000000000001,25.01962442839431,18.97777754892195,19.126717415463645,32.5630936525522,14.331171658619496,16.74089067046225,25.3188355645907,19.214289618874318
1.6360000000000001,27.83918443672519,19.815606247206233,19.726450274418312,35.822155954305344,12.46656330695987,20.99999678313179,27.787089886973263,21.700217204890578
1.6400000000000001,31.889613650229876,22.459648215557536,23.433010152097268,39.99214985426079,15.805941764589079,25.56772099106456,33.55144054653647,25.33905144331038
1.6440000000000001,36.95396788855942,26.70323298963376,29.707400378465536,44.41516144637353,23.40697144069054,29.473108129725006,41.870667014929495,28.660501251972164
1.6480000000000001,41.969155429076636,31.55724519720752,36.78849939056818,47.68825359935363,32.3933748457639,31.763948440515378,50.619340189687136,30.18807603276764
1.6520000000000001,45.417567881966534,35.58678307038281,42.38322394086572,48.34904436384022,39.26545600503596,31.94615786543727,57.02660115308936,29.184739725109466
1.6560000000000001,46.08753137592794,37.556345815417444,44.71469167905161,45.77149638167248,41.6207129009199,30.3245563449982,58.88789497817015,26.191064258582628
1.6600000000000001,43.75248077455035,37.0249367526867,43.36252468314706,40.68710163237847,39.32706287440669,27.969389460529783,55.62160715993559,22.924675357184242
1.6640000000000001,39.35694526686348,34.558574255112035,39.42967391860293,34.936321044602664,34.47998661993006,26.247065091491095,48.57616837789283,21.43294467594751
1.668,34.58822782432617,31.437017708974963,34.939434539701324,30.532239920390566,30.17463427965413,26.117476536077447,40.42084924089431,22.887636659525015
1.672,31.067625127321662,29.008680197983267,31.81086062192844,28.568947751948144,28.781039207191498,27.544796845726523,33.91397515746212,26.683001091325423
1.676,29.624820527344127,28.06422278080572,30.98622361053276,28.65211460862338,30.704241369796364,29.41751352256688,30.707679809838737,30.455346298709628
1.68,30.044490944805148,28.554673521230143,32.147068904028856,29.221625342877815,34.301360503779506,30.10054045974539,30.814518997302002,31.167307077874284
1.684,31.404471736750565,29.800829832192903,34.13618824087462,28.615607088722754,36.984689940534736,28.372269324358058,32.935229447266465,26.778673350004283
1.688,32.7621310474824,31.035034347245528,35.76541263647596,26.24623154386063,36.82161182282289,24.23816224516304,35.38414602548255,17.605260564913806
1.692,33.75203995366974,31.92635518474708,36.49642140036303,23.15499769412054,33.68115118635251,19.12831520266809,37.0166104565933,6.5635597060299915
1.696,34.734919831833395,32.76116587159777,36.60673097204926,21.557294784939586,29.262976312475075,15.294315250714135,37.62703631154909,-1.9944606514627594
1.7,36.43447044125787,34.1799481323269,36.79893775038727,23.608915581757174,26.046015613417694,14.685945769593673,37.69047585839144,-4.3128936874709325
1.704,39.33465765712026,36.66348755253239,37.57855347550503,30.11367330477151,25.846056453508936,17.9154780375884,37.73011341458823,0.9501933082110554
1.708,43.223501565193146,40.07844391584149,38.80234865687089,39.89862254710897,28.790905729643782,23.85206209489843,37.798734045149104,12.005566390766035
1.712,47.17890704450838,43.58345212461063,39.70341868713149,50.23362028939664,33.295930623135064,30.107883774213406,37.434414153945,24.713696739163424
1.716,50.01525742508238,45.98856345593231,39.39016157919832,58.084278994978376,37.02783647063188,34.185579714507185,36.0985798041047,34.48198559672619
1.72,50.90867997212263,46.367233328082875,37.47190266728285,61.508061784978054,38.24566259087442,34.67661541041525,33.73625450972577,38.35959458924299
1.724,49.82572105478539,44.577083123123884,34.4147076785448,60.44274497747756,36.74962839647378,31.88358752968452,31.03207421780553,36.26995784269093
1.728,47.53064628919674,41.42619387412924,31.443051522037422,56.5308968464451,33.953562264365246,27.566153690089777,29.156653681347052,30.8287125911811
1.732,45.20202526711,38.40248662566955,30.05755329110616,52.18573615699279,32.12855607556412,24.008655863277454,29.175177961695226,25.993764425064
1.736,43.85987592283345,37.06628983892551,31.39872456419107,49.41872732416232,33.25127767470258,22.90784137319679,31.460596317828276,25.226083999195907
1.74,43.91657699926145,38.39135627498217,35.76922263002416,49.02425982778004,38.06935300844998,24.65269514616375,35.46926790055113,30.036857178223727
1.744,45.051735425127845,42.34675112058903,42.513674285837624,50.45202738678927,45.81113321098928,28.307946132501456,40.047509081907265,39.49667509838491
1.748,46.412259936041664,47.86886371619403,50.23159904570639,52.286024970988365,54.55432914814082,32.22998414305766,44.04220275619991,50.77727696774673
1.752,47.01248892187141,53.2421456315933,57.20942568642204,52.99942450608796,62.01071555163071,34.94210100582495,46.80676571780441,60.404835203177754
1.756,46.14961976438644,56.753479849245196,61.925323358085734,51.62049701516662,66.35802661818161,35.79636338045384,48.34720106948407,65.64485993728977
1.76,43.65642694930284,57.339499413028534,63.46601001556337,48.04330744484105,66.78588679301902,35.13078990543545,49.0520217258636,65.45156159572434
1.764,39.931252792484884,54.98807152663176,61.764172503724694,42.9685253683092,63.63207350241646,33.92651984141048,49.27040634764671,60.71842480295891
1.768,35.78137589812468,50.737690343774375,57.60403192880767,37.60761065285624,58.135098866605404,33.21670493519923,49.05149668928789,53.81145421238034
1.772,32.13811138053279,46.23790833455132,52.34387480535588,33.26794195778348,51.90315042057955,33.55532405530903,48.14763393161411,47.563010744525855
1.776,29.769990814831544,43.06463428254574,47.425461662925954,30.96051228613942,46.305671276482826,34.7951377963509,46.26428147288789,44.15157617827754
1.78,29.056688551405387,42.0563179058463,43.81613012342132,31.09293070176136,41.97238046612438,36.233316207451935,43.360150676781814,44.27501561795361
1.784,29.903475669845648,42.97167178343443,41.624382240544946,33.32663200308889,38.605335942129386,36.97922266450223,39.770180699953926,46.91919786257222
1.788,31.846783631524886,44.65477468680365,40.112140891906165,36.69305205461205,35.22062167011245,36.365983364432395,36.0796722501218,49.86758938520143
1.792,34.29564504314476,45.63119604853273,38.13641210659989,39.963752315496095,30.748958069540095,34.23001822080914,32.828365367146944,50.74162361259914
1.796,36.79423673548081,44.85066850005751,34.83494693740795,42.15215245042782,24.732695881524705,30.97509444676689,30.291225719485737,48.11144390978461
1.8,39.167934086548485,42.21066813207108,30.21786271829842,42.92811737583179,17.779333211256017,27.418944257979092,28.471215004478836,42.18888203867027
1.804,41.43949022868401,38.55939294661039,25.287908853573754,42.68896095355376,11.466278902782506,24.460013746485856,27.246924066440442,34.74204923632897
1.808,43.5822231762686,35.189551849576674,21.592642118041113,42.226108925686276,7.679194702608584,22.71080956021251,26.57799769453868,28.217207252252592
1.812,45.305919047539646,33.13393378152614,20.45228613686413,42.18531657353378,7.727666674996726,22.255629550250887,26.578300256092916,24.555875276956613
1.816,46.06561970581242,32.668273661507556,22.283207843611308,42.631508009646495,11.699675877132904,22.63567765938751,27.410691808449883,24.2880727090469
1.82,45.31475769547251,33.274018011310545,26.376789522342733,42.967622207446766,18.39147057237642,23.062421175307463,29.09884427702309,26.38041948315822
1.824,42.89914905993646,34.07538784686221,31.27225667008861,42.310216956368095,25.898277218659132,22.802575801419152,31.383986319735413,28.956773197052826
1.828,39.30850089419255,34.43175101594534,35.47613609382097,40.06983675183983,32.50013760566799,21.54839042968524,33.74390996133661,30.418349568133635
1.832,35.54671204365877,34.29434881403358,38.106091504852884,36.363916515369056,37.333492477006075,19.561177270599728,35.56779385451409,30.359705198326083
1.836,32.652147800279636,34.12208051439484,39.11434431901944,31.996279848863196,40.49042453449874,17.51136450500053,36.39168200867607,29.730036295693935
1.84,31.051957282295916,34.36862017653766,38.96281922768685,27.9367098927396,42.489061928350566,16.07176933842129,36.016214570092416,30.130011493663915
1.844,30.185463627336503,34.93277598458735,38.05178591711592,24.668408292647655,43.55146811818304,15.496352471482169,34.48676479776441,32.71379019964297
1.848,28.70045992597261,34.98743869183272,36.319715993839054,21.84122260685035,43.197307158896365,15.434544933561483,32.0049310366212,37.32180827289994
1.852,25.201632371123196,33.358041231464085,33.29169462735081,18.497982277031042,40.45825599299678,15.115920327127242,28.84074242128827,42.421431168440904
1.856,19.17047177353379,29.261403400465497,28.535677351246704,13.779480928802514,34.59445786455035,13.818488754375721,25.302379221890078,45.84342750824271
1.86,11.50718390566908,22.949396417242497,22.193386587961868,7.682249296411101,25.838752385638145,11.359710737227942,21.76753635388559,45.91615119339713
1.864,4.311956516716236,15.816865011633126,15.187119191854435,1.3638204267499532,15.646872258972508,8.294623251684243,18.688411815236577,42.352931662184346
1.868,-0.04148750280364766,9.843458842102336,8.910905663342419,-3.2509225749236066,6.216872518947639,5.6722759583171865,16.481969733661572,36.37480672241327
1.872,-0.049517410749103874,6.661556941021445,4.583745978830848,-4.364760727059547,-0.45816349450615235,4.489865174140505,15.351003080488226,30.021989556359586
1.8760000000000001,4.190599912648395,6.766590131689554,2.6508851410071657,-1.2177763601284823,-3.47915098161684,5.1402525378034625,15.112584822881217,25.043462778837238
1.8800000000000001,11.08570850896649,9.330491102611632,2.617251997340645,5.515764026604302,-3.3362823697707427,7.185810409986516,15.183319471790128,22.050650057391977
1.8840000000000001,18.386015032428986,12.69607998173069,3.4082439745507145,14.036121615625234,-1.453460117780196,9.589632006394822,14.770189910706904,20.371090653429746
1.8880000000000001,24.25249945644282,15.247253444808848,4.017847860308393,22.219178278248364,0.7005307410463502,11.25369342941849,13.17766852110526,18.593598883067898
1.8920000000000001,27.942549238781794,16.157819929569996,4.046463289632811,28.459573086676755,2.3922973487624404,11.557748536450163,10.121965373411513,15.4649139863468
1.8960000000000001,29.744332437769117,15.60082541131942,3.799114185394501,32.091890553796475,3.8327706034469884,10.590342510942719,5.877963263584206,10.59597216628572
1.9000000000000001,30.303060217725942,14.375610588363088,3.9359793228341005,33.24429141608198,5.754209673368678,8.94376611626285,1.1954848608002067,4.629729350469461
1.9040000000000001,29.86381606714167,13.257222744707178,4.939830061495741,32.346796366528,8.69930193026903,7.233973764614348,-2.9605288050361196,-1.1194317268109444
1.9080000000000001,27.98798909433208,12.511617384148849,6.77782993204346,29.69895547961096,12.519846378873808,5.66805621381809,-5.7197400915492835,-5.3118991257988455
1.9120000000000001,23.92387990770294,11.835308933194028,8.946102788000644,25.37131322980531,16.389699636853038,3.9295010676869424,-6.564197778930975,-7.143927429839096
1.9160000000000001,17.365019376182318,10.70204574779018,10.83400161861573,19.45509832089556,19.29716109385936,1.4569376984236442,-5.4576477578993945,-6.531943415111982
1.92,9.01796263916367,8.812780912405287,12.11162266876272,12.39217888443818,20.643195671254034,-2.0947464492910512,-2.8303526792551565,-3.925806830494821
1.924,0.4972795349167427,6.2894423112238655,12.819731679272081,5.024917913886384,20.49371274000623,-6.526414015804221,0.5474835778195484,-0.027485174101457233
1.928,-6.466654418047256,3.490015492106977,13.103915071229494,-1.739384509726733,19.320423345074232,-11.111322093212948,3.7338304227118897,4.425430873102414
1.932,-11.031327859453086,0.6181120583105439,12.810813580916147,-7.441360470174914,17.43892728683568,-14.962041524439883,5.81400227353879,8.753285503641564
1.936,-13.75954479433858,-2.5203386324510575,11.302987376879173,-12.368414149932505,14.582693772663333,-17.497064707606114,6.1344099588141034,12.350696179325041
1.94,-16.279328775124668,-6.412392034553704,7.676501548903616,-17.392629273941566,9.925078268403922,-18.731906152641386,4.470781129497482,14.706020750051266
1.944,-20.21763281030144,-11.405280441904324,1.3290355600456678,-23.35752436631992,2.608408809750472,-19.21837261382916,1.073221849431775,15.487770603397621
1.948,-26.040799603782943,-17.245976050522586,-7.479664724598479,-30.36118148497735,-7.53993211996567,-19.670342118182816,-3.443570072350667,14.660144374201536
1.952,-32.541421557027206,-22.9457545799969,-17.459085305225017,-37.389128078611975,-19.56242193991875,-20.51401954999983,-8.325296179866655,12.52325837179933
1.956,-37.327701587775664,-27.115806180684558,-26.67397917087328,-42.5775582436836,-31.503908187351954,-21.635201642187894,-12.92452923494966,9.60155124018138
1.96,-38.09105398177417,-28.641962018952654,-33.339747310239545,-44.019423265879595,-41.08973559980586,-22.462898844395568,-16.888052052595867,6.458996149498034
1.964,-33.933159821543086,-27.302468828228484,-36.58960397131523,-40.70045632532856,-46.595501997642714,-22.33172987573016,-20.156919937193834,3.511714666266471
1.968,-25.958997570236534,-23.930810224197558,-36.77057624661029,-33.054866431848495,-47.461277007259014,-20.892752115376425,-22.79154371614868,0.9016067335469415
1.972,-16.788650445698295,-20.01292003927483,-35.11883097676946,-22.83877310525895,-44.35708511178382,-18.33455772645084,-24.77685614597658,-1.4554729770798076
1.976,-9.266872736436198,-16.929322350429175,-33.00750126920684,-12.404468369428287,-38.72630450221641,-15.313917615767423,-25.943247495930336,-3.7284637442835447
1.98,-5.12597665452995,-15.293570199602982,-31.224424897389326,-3.7864625634174445,-32.122532779841094,-12.664462122860641,-26.071684136206386,-6.042307921517931
1.984,-4.330399012906128,-14.753107887299848,-29.67861529455149,1.9405849140530336,-25.698760685863817,-11.06448299319436,-25.100036441219345,-8.421085509075056
1.988,-5.389908602841388,-14.325094046773302,-27.65355303339129,4.7814627722145815,-20.027965534961368,-10.817351382976085,-23.2572219386675,-10.78506250776718
1.992,-6.3977545330017165,-13.054103545938233,-24.41829917522773,5.4485663810792175,-15.236795347245788,-11.824059629424482,-21.007505815184686,-12.950590771265524
1.996,-6.122440935811028,-10.573819879246912,-19.786300814177594,4.799777014668507,-11.252992246327267,-13.705529993872005,-18.79260730342503,-14.635520754204208
2.0,-4.543337980407159,-7.2746088067005985,-14.305732175273079,3.405091838005319,-7.99263065066134,-15.977250661056132,-16.742470459346805,-15.50399069321793
2.004,-2.6234999673288257,-4.034868005671342,-8.998028367095685,1.4276837133302251,-5.398890616181234,-18.181743359099528,-14.566186558693062,-15.242894137359144
2.008,-1.5652728037293855,-1.716187988306956,-4.837082432291936,-1.223738599724129,-3.3932296407911053,-19.95168556817407,-11.755505280494617,-13.701324768610448
2.012,-2.079423213011978,-0.7509959969092961,-2.309993897323693,-4.65484413759259,-1.8634026723193529,-21.043536666517866,-8.028880424473755,-11.029935165231109
2.016,-4.083070326363668,-1.0242489466118059,-1.2804117217565363,-8.818200374869775,-0.7257208458413515,-21.367987833064035,-3.7119685712546016,-7.707031767061835
2.02,-6.9145663335730205,-2.0687230893581727,-1.2005665525293807,-13.492536608659066,-0.03319159595321253,-21.0318829501839,0.20167541574164716,-4.394320576659538
2.024,-9.845200765364098,-3.4146704986906116,-1.514135980386527,-18.365196364547955,-0.032246120550553314,-20.352203405698674,2.4109141806943626,-1.647513036043165
2.028,-12.470457470169094,-4.837886196252839,-1.9784779093452016,-23.10521054921628,-1.090571040074792,-19.79251247569664,1.9542018867073239,0.3444131821102019
2.032,-14.773940034940097,-6.4052376343306605,-2.750675150397001,-27.394820802727736,-3.545019120667348,-19.81756338834748,-1.219058139207391,1.793367376601509
2.036,-16.896514989965,-8.337971215124526,-4.225946736460173,-30.92770293322519,-7.5385239387032925,-20.709952640632764,-6.093886213429869,3.0969739301613117
2.04,-18.841670472027545,-10.810778518763527,-6.755552591797823,-33.42423964326372,-12.924365774169928,-22.428772640762872,-10.98393120954097,4.485826533086765
2.044,-20.391097093939607,-13.830696192890173,-10.419701222900585,-34.70723371162876,-19.26628823084411,-24.59219417130589,-14.314448220286977,5.761345912742399
2.048,-21.26322301735854,-17.217201911936172,-14.931663205874429,-34.77833290666149,-25.882075226427332,-26.59409965400755,-15.35851456475757,6.333812508783922
2.052,-21.353619443018943,-20.638952943606455,-19.670425712114593,-33.82029627912743,-31.878107663174433,-27.808319593326814,-14.515282415061847,5.570188083474022
2.056,-20.834002139377844,-23.652859831381193,-23.793933857174125,-32.0892985723076,-36.18648194154366,-27.79989682255018,-12.996741583570383,3.233168835276956
2.06,-19.996757489632728,-25.73765177512405,-26.39707998823269,-29.74925239841741,-37.683257004564894,-26.46203291610709,-12.094430676423599,-0.2767822988107582
2.064,-18.97696754532808,-26.37905758580655,-26.70830253380518,-26.770331208210337,-35.44738720840178,-24.034521703216342,-12.445425964356673,-4.055108550939622
2.068,-17.57276610892586,-25.233636068832766,-24.315605491256974,-22.986609001126453,-29.142334003001906,-21.01534236174666,-13.717095669830087,-7.173883230204865
2.072,-15.352182512772742,-22.336523049515108,-19.378927900193048,-18.31203919580821,-19.36999382273916,-18.00503491456766,-14.877547850867131,-9.224340228578285
2.076,-12.028530280709674,-18.238081287604473,-12.72202640843716,-12.986280750988954,-7.756766978649466,-15.527617878854471,-14.846656168708478,-10.539579834600772
2.08,-7.8493889098408545,-13.933296414292272,-5.688223814470803,-7.671875517974513,3.3953989580300004,-13.897961364330513,-13.142118797027933,-11.938487755797723
2.084,-3.7081213284218393,-10.547221607621395,0.24216415064529428,-3.3106242756712163,11.827251159079879,-13.191220611248355,-10.157181386367483,-14.155079402082265
2.088,-0.8438900973269483,-8.8912394983804,3.9475122793928676,-0.7860806693142877,16.12799458592508,-13.300064756353095,-6.9474959958845375,-17.300280268299502
2.092,-0.24638376220809732,-9.100616723884741,5.059165707748434,-0.5562956272578958,16.238599846656143,-14.039306202482749,-4.668895792474132,-20.692153318625515
2.096,-2.1073111726382194,-10.56328654112167,4.046759652921537,-2.463683954505541,13.368164602225988,-15.253818250337645,-4.006846177514944,-23.200533302024496
2.1,-5.653184742699523,-12.19365763939686,1.947866454155701,-5.821262115956415,9.367269015106103,-16.85999147470602,-4.885424881962535,-23.860602922105272
2.104,-9.502629458444972,-12.956094114853386,-0.15668693331645045,-9.73498435487818,5.846914500098137,-18.80476423494474,-6.584673808536081,-22.370447820185063
2.108,-12.354345829960039,-12.374807588374551,-1.658934199509531,-13.478464560641441,3.4779673416851438,-20.969959250987813,-8.155616957612665,-19.1842685466263
2.112,-13.598565638323635,-10.756385029241756,-2.65460758320296,-16.706723712989515,1.83047212791962,-23.07838592334565,-8.854320312933623,-15.154878745253427
2.116,-13.509512550643194,-9.01739837039213,-3.774381820695453,-19.416987309572505,-0.19490555729771586,-24.684950081521947,-8.39646639249554,-10.990447770240735
2.12,-12.947264427699338,-8.231031697071558,-5.744151574785974,-21.746343914739555,-3.630080681803065,-25.3091414164478,-6.977620807210542,-6.935661480086765
2.124,-12.79764816390525,-9.140266354944288,-8.947161930535913,-23.786031778433426,-8.817161310087613,-24.672125307890383,-5.138362681875151,-2.8929493320149504
2.128,-13.502641865873557,-11.872874944478099,-13.225110878620399,-25.54595458715812,-15.218595281588478,-22.920155768415952,-3.6085196598728544,1.1116693354624658
2.132,-14.941373343755913,-15.96336689730424,-17.99640271561293,-27.06417023218819,-21.717144360621205,-20.6822472266158,-3.1711345547103065,4.492768458341288
2.136,-16.685371283927452,-20.618415234899658,-22.586214271831523,-28.537936551678285,-27.183709691716558,-18.8857916889001,-4.527764266173335,6.080491492397869
2.14,-18.38220003594506,-25.033938646184197,-26.51823702610136,-30.31680884110301,-30.94283194345053,-18.383581349654378,-8.10709503762223,4.620526432715906
2.144,-19.984706723527324,-28.614077137697222,-29.598592733945225,-32.705787265953404,-32.8897354173896,-19.554315344787028,-13.821164894239246,-0.4397190311133272
2.148,-21.656181022769943,-31.012584071283072,-31.764022774195837,-35.66423538478466,-33.24452970084985,-22.07705145660202,-20.856382792183695,-8.342996319724534
2.152,-23.430964951180613,-32.05067354422977,-32.84357472848387,-38.60427263725023,-32.17114312480453,-25.015753768374452,-27.690374744932342,-17.033956352838686
2.156,-24.93154477871485,-31.632008801243956,-32.453048661296634,-40.48504015784329,-29.55662962293718,-27.2028135076971,-32.4633238421211,-23.883348162061793
2.16,-25.40753350025443,-29.741271284292907,-30.135886094323723,-40.220439490311946,-25.112209002114923,-27.740746422066877,-33.619969146443964,-26.793746552206358
2.164,-24.105244908857003,-26.50680310573148,-25.69484137789823,-37.202585105485014,-18.726587576785505,-26.372381719479563,-30.56234679972158,-25.10204371676673
2.168,-20.778085727132748,-22.265773148832977,-19.5129200322026,-31.66350047006199,-10.826719350856365,-23.54961033179552,-24.008468665540477,-19.81696404059676
2.172,-15.992410642271807,-17.548476679811756,-12.615077144555926,-24.65370853445711,-2.477887092286437,-20.17989967826543,-15.803696739472116,-13.100202654848772
2.176,-10.950893992760484,-12.930154167339424,-6.349341541517788,-17.586630749167853,4.916244667449973,-17.169320394131773,-8.196545436621818,-7.2406530854109405
2.18,-6.91470829832906,-8.845703531920662,-1.84550911418728,-11.601268831179823,10.162811005922094,-15.017127860199935,-2.935070638676507,-3.6735097643187373
2.184,-4.563166370424369,-5.493281903289244,0.4436238388570928,-7.120918437758974,12.75476476043741,-13.683852825642589,-0.6374033251840956,-2.552288971531766
2.188,-3.6697015204167656,-2.875029455374033,0.8748746344285792,-3.8401106357496246,13.01853587503706,-12.768500356659388,-0.7152931372115745,-3.0075719518902133
2.192,-3.3197423788496963,-0.9611833919586843,0.32377084517338517,-1.1449121149457824,11.83376816351074,-11.875550290757019,-1.8915529596471288,-3.8724457436636612
2.196,-2.5549204459252906,0.11929405241426139,-0.3898240059043019,1.2905371492270206,10.070269696532023,-10.938051369201958,-3.022539595243302,-4.43217505395819
2.2,-1.0314936631530145,0.032815120081522764,-0.9971299421076765,3.1395389734666423,8.106421972411226,-10.283545100928677,-3.713956956416723,-4.753911648033068
2.204,0.7216945392083289,-1.603982714137146,-1.9033809214633948,3.5386683695223837,5.724132328498172,-10.410540751544659,-4.409381311395464,-5.459071590842768
2.208,1.6034997012175154,-4.949427345066397,-3.871096742050213,1.6251814572378862,2.4276756707386085,-11.621081866152963,-5.936665162006193,-7.1416301387230305
2.212,0.639977054938754,-9.680709253719442,-7.430395804793079,-2.7944787610954336,-1.9882602507641423,-13.717564192368854,-8.780310817112763,-9.778438801888342
2.216,-2.345236727160227,-14.932242383190442,-12.380370462647534,-8.875033171248106,-6.995967542749213,-15.969226212152307,-12.566383322454612,-12.532502773213082
2.22,-6.5213039039153955,-19.511399460042412,-17.702260651679126,-14.939289224013464,-11.32872325769813,-17.40256797937809,-16.11900699248349,-14.093032173360825
2.224,-10.438381226327692,-22.311096496851405,-21.950145798777612,-19.178985047501328,-13.452153317005468,-17.26376102578388,-18.051209422072134,-13.334702463605936
2.228,-12.768570429110923,-22.708540314084757,-23.886311595263578,-20.47109952285109,-12.26614188949361,-15.399527118030164,-17.520896175767348,-9.923705552461001
2.232,-12.97165015156179,-20.77085636349898,-23.025681457870178,-18.866357385920765,-7.673261359451772,-12.351000339861457,-14.703175571006796,-4.550555324135871
2.236,-11.505366905507344,-17.181470169426348,-19.807324862401174,-15.485680369903093,-0.7066461008434999,-9.104556896955273,-10.725119313875098,1.3195622130199354
2.24,-9.484601889247188,-12.93592930977934,-15.317785825113106,-11.888211621771688,6.876204262827059,-6.626044775141509,-7.086794332147065,6.077261574269755
2.244,-8.036296431780329,-8.983618937087954,-10.75997326451602,-9.281294541739044,13.310616853450824,-5.425662916022247,-4.890101201137895,8.650025969781154
2.248,-7.733689750984013,-5.984059033094127,-6.985454018819837,-8.014930115840343,17.46387304366533,-5.385692207171587,-4.359091201104775,8.864810716748707
2.2520000000000002,-8.4363048274231,-4.256457945623538,-4.324629548183111,-7.608185544479511,19.10446655151668,-5.91854249329765,-4.888256094601047,7.3640965379481145
2.2560000000000002,-9.540567158821432,-3.84583940183461,-2.715925386163235,-7.217816548742576,18.735722298744577,-6.339792728252974,-5.527249526364244,5.1689648329019064
2.2600000000000002,-10.426611949253584,-4.61540816383922,-1.984403874458394,-6.238097466728277,17.144485468797257,-6.254330962689437,-5.607301268328683,3.1281192501411397
2.2640000000000002,-10.789741509430542,-6.272242841841944,-2.028804840713974,-4.654416783875604,14.971675367301145,-5.734489702910196,-5.096455376990377,1.5702366049708871
2.2680000000000002,-10.652037743469691,-8.316675942637971,-2.7808093446237763,-2.9532807746106755,12.553757994693342,-5.200557458982985,-4.494919103151233,0.31371736245966986
2.2720000000000002,-10.123789853482549,-10.032740210462407,-4.0195572254083345,-1.713296493938742,10.044434631136824,-5.105684339003119,-4.399935875004417,-1.0468215722876266
2.2760000000000002,-9.171206961936377,-10.630540407519106,-5.252130018547177,-1.1979599971730295,7.640917959545391,-5.64215536999609,-5.0623224614993205,-2.787844013704728
2.2800000000000002,-7.599304530325071,-9.545510245618516,-5.823646432910891,-1.2270401308647934,5.691765699434541,-6.635849289483758,-6.2247464186366415,-4.846466281000062
2.2840000000000003,-5.295682147485991,-6.779954397354459,-5.2629022435719435,-1.404336832328113,4.571775690700633,-7.688538897221861,-7.3501896311264545,-6.869808527052442
2.2880000000000003,-2.5510887375804714,-3.083619841901452,-3.679563161393048,-1.5270719297009236,4.375616120331642,-8.46282769586685,-8.07011581196491,-8.465039697901375
2.2920000000000003,-0.16417072577110048,0.21133597690879924,-1.9063743903449222,-1.8446844771616497,4.676641585609104,-8.900831164001602,-8.489534692803375,-9.438254016203018
2.2960000000000003,0.8274312054326174,1.6965542675325764,-1.2226794781860235,-2.9544804656436554,4.561441392289794,-9.223508236716611,-9.13972338955898,-9.868841835444869
2.3000000000000003,-0.31126851462738614,0.5178154137242927,-2.751778585931561,-5.373089201970743,2.9902278730552894,-9.709459626012801,-10.615565302258858,-9.985484041093912
2.3040000000000003,-3.5296504920188454,-3.19639239873095,-6.852295646663151,-9.067640652277646,-0.6822517225533034,-10.407486052595516,-13.133945805567691,-9.950472240722775
2.308,-7.863252099897068,-8.325015009697836,-12.819904675157318,-13.244916844017553,-6.282839696975714,-10.9718949499578,-16.29642537958364,-9.704432063423553
2.312,-11.797849914599396,-13.213923479927871,-19.112814448443487,-16.59330964715184,-12.761909626113606,-10.771616299093239,-19.23531951669338,-9.008128855830648
2.316,-13.948506036702156,-16.37707830165084,-23.991469591925807,-17.8640111930373,-18.543972568973913,-9.234749783771122,-21.057179798668074,-7.637631410082292
2.32,-13.686685870698739,-17.091282502793206,-26.241533143077277,-16.46692353487697,-22.12370884621953,-6.2384344397293034,-21.309241313520886,-5.6028619252580825
2.324,-11.362702049123186,-15.588051588210305,-25.59762349526636,-12.742878539652793,-22.61070541649474,-2.3064139432203774,-20.177689449662182,-3.2265570644493096
2.328,-7.990265685571671,-12.75284603131297,-22.65213663000759,-7.74720394240876,-19.96121849904148,1.5401687582525483,-18.275848031632677,-0.9991710178524613
2.332,-4.626195300338168,-9.555524139793874,-18.37912187461393,-2.7056348480514316,-14.851563952581728,4.2131254096156,-16.209505114300384,0.6809686759357874
2.336,-1.823560793520528,-6.5495209913154895,-13.586311500808279,1.5348591898782615,-8.318388120591294,5.057893083840554,-14.20290284446304,1.717127473489711
2.34,0.5076264263100256,-3.739856357946792,-8.643779642815616,4.7365583006412635,-1.4079505034529802,4.1492425877016785,-12.051986608797392,2.302104584936444
2.344,2.783776114027887,-0.8665679393392338,-3.617243126727317,7.08662740371642,4.9962273042950756,2.2090252277021136,-9.418805849056241,2.6822407008309597
2.348,5.21241540379674,2.113390835292421,1.3357027010463298,8.772085188490792,10.153788679448098,0.19891446679321234,-6.255353023036946,2.85844866377613
2.352,7.436751775660241,4.702286403325388,5.640627413125912,9.64634711598751,13.392449729222903,-1.171162918163418,-3.055656364191009,2.460853537691662
2.356,8.635950756427746,5.955626152655441,8.338747023100268,9.252654407397586,14.146198581923045,-1.7368520726961378,-0.7273141739366338,0.9322908001515771
2.36,8.034680403346101,4.975871216820792,8.504440369748863,7.1924636947831,12.154706039263147,-1.8369065903008277,-0.12746769235394595,-2.056532956312651
2.364,5.519697780239994,1.5341711574654937,5.819631799977287,3.597459422455131,7.721641228611816,-1.981324002763813,-1.5314023255277789,-6.201145501977749
2.368,1.9327637968006002,-3.5886199472055296,0.9203472078654613,-0.6528034680313795,1.8193000273345206,-2.4481352604528865,-4.380510415769891,-10.458335543730414
2.372,-1.21397571076227,-8.802909350536538,-4.74613392048127,-4.181046132919846,-4.123299477807677,-3.0718406405271708,-7.486764160010125,-13.384525227137033
2.376,-2.4797447537764583,-12.402258134295039,-9.533876790267186,-5.74511382586843,-8.734977564930318,-3.356104432514485,-9.605887945864765,-13.79594196909909
2.38,-1.2925783753178166,-13.394606768604604,-12.370749830649629,-4.911422398066861,-11.291764292245261,-2.827199241616995,-10.064037791856947,-11.407803458535
2.384,1.696335738341304,-11.97362754275332,-13.222784275937101,-2.3379572056906,-12.025279877188837,-1.3763615967785654,-9.05793310880864,-7.0636243084300645
2.388,4.939283197325267,-9.350733434117728,-12.975744384320478,0.5389602897423629,-11.943086811941953,0.6354062658979274,-7.460163329533032,-2.3827741798607462
2.392,6.823851190062669,-7.039961899475429,-12.807967073125155,2.2607425463745585,-12.225190262333626,2.574166377634583,-6.260291555935623,1.0130477340056814
2.396,6.57694837160966,-5.971747886080266,-13.396133523097205,2.151915550663034,-13.48220747889377,3.916583361975995,-5.9431193599779135,2.3034213109781376
2.4,4.7284170491229816,-5.935599030651929,-14.415571708877906,0.7252143980419987,-15.283563062615258,4.572521243408914,-6.168653297668357,1.8743264673084354
2.404,2.8079166903628447,-5.723049483712771,-14.682389476223989,-0.5956067883478227,-16.283511271044404,4.916978973999676,-5.973565535461489,1.0676097547010954
2.408,2.4405468238642243,-3.896452914282122,-12.860668852060371,-0.28296354816370695,-14.916128709802479,5.51390383861542,-4.356641919672256,1.4265793124151855
2.412,4.383390701678991,0.28412994776590494,-8.31584909393814,2.4262802576988634,-10.294474716758259,6.718351563143528,-0.8983319289189922,3.8507076966093337
2.416,8.060157129408253,6.318594128973928,-1.6194173361354842,7.091832627612121,-2.819107661780322,8.424214468380342,3.9324668952758657,8.11600842594271
2.42,11.873329026756892,12.63384936727391,5.597185082826854,12.312728490340305,5.862285890925705,10.13307104681303,8.956027340151763,13.019056618688069
2.424,14.111959726794112,17.37160824819614,11.373800099238679,16.49502681071226,13.550062968835618,11.29988206030589,12.833700348026127,17.026116052398493
2.428,13.930903762202206,19.35727899706808,14.343449248795423,18.699844538320576,18.47974393790207,11.721411622596179,14.684018956645218,19.056984740923212
2.432,11.843499244553414,18.698956484123073,14.349691946650182,19.088087334158672,20.080767325265015,11.706669859942167,14.445885453333176,18.972664219890703
2.436,9.39596284794834,16.648267349626963,12.403887994977595,18.687403569362232,19.07708814644684,11.881599965425039,12.798216103952882,17.517142611848612
2.44,8.226889881902935,14.832892243284846,10.05156074989236,18.649332303008578,16.90600595492424,12.740477833094019,10.734666355871923,15.792249687162098
2.444,9.09314855994785,14.331242607206036,8.526708231981956,19.466502971208683,14.816242559286138,14.24405421960364,9.053279347933085,14.61578763431703
2.448,11.436231729918063,15.120835525428106,8.164715320836876,20.627918612425447,13.172406858185695,15.753134678242532,8.045523164454835,14.150527309805057
2.452,13.733694601471143,16.200202311768976,8.376317217317592,20.918837412041967,11.360221193142706,16.36555026088945,7.508035451000751,13.980807511819762
2.456,14.436949825296779,16.29589681634684,8.16105881139947,19.204439044766104,8.34383245203162,15.474771227630526,7.025384692433704,13.541197363561196
2.46,12.931559688931884,14.706566225647748,6.816058367401638,15.22350220101248,3.5185581487596664,13.203800380610346,6.313740431713086,12.595937994905398
2.464,9.940530042642422,11.7786225337818,4.423843035996924,9.913176747863872,-2.669216914550134,10.421777961088765,5.423796420964777,11.45259374535567
2.468,7.122599400190211,8.734329004790197,1.8416203603860595,5.046457521860475,-8.737969369741677,8.297302381067539,4.695600207941766,10.77006031368262
2.472,6.1071082535895584,6.971166422952592,0.21274667691227478,2.3656831026239615,-12.843795250725861,7.6351686102646,4.5184706658225195,11.096051560932665
2.476,7.541207228854091,7.263691145934672,0.31539422183300303,2.6936273995988813,-13.73040656709668,8.400209176029648,5.073354798478931,12.437870328068925
2.48,10.72650003457602,9.341072366956496,2.1489944064157953,5.523290263379749,-11.397459489062157,9.728517433476782,6.2361152444213985,14.157395064596017
2.484,14.045660712639801,12.06371085769797,4.9762470036703235,9.30284982906278,-7.096557022950492,10.427402997825538,7.67509195971752,15.270959787764468
2.488,15.875645409854314,14.042908719567095,7.754834888609821,12.229968222407933,-2.666995957481049,9.668233368253368,9.048332141565652,14.974567959477554
2.492,15.436424834522768,14.326013625136056,9.688376693498867,13.107503084723248,0.4057679730376549,7.457470419565652,10.166992752853162,13.087730739550238
2.496,13.110205969086564,12.793052206833181,10.58814272436166,11.827701779889594,1.6870867985537643,4.622962683161177,11.04424549877126,10.172265352093063
2.5,10.082119778778633,10.090776495969749,10.851020317898929,9.265937119077535,1.8672174944892959,2.332357063649397,11.79733871134033,7.252803234430644
2.504,7.577875216636585,7.216836645975036,11.112390216370386,6.707126604382665,2.206283166870662,1.4393617021432874,12.500448530264862,5.310126392407938
2.508,6.197278959145478,5.041498269287558,11.816590327096492,5.165934033896974,3.711838093332517,2.0534351671381046,13.112065569874176,4.853859552417703
2.512,5.734838348801986,4.023987529322994,12.97082254212637,4.975361567036089,6.541853789998186,3.561723810841613,13.508299238036216,5.788733875158641
2.516,5.5308117584177126,4.201888089971362,14.20471052063158,5.8108447162585435,9.956094196988943,5.048914255289219,13.593194480911961,7.612720393614268
2.52,5.056185124431977,5.343348235856411,15.052012496943007,7.046919687138143,12.790257741309006,5.83524962991487,13.384280353582994,9.768760156850362
2.524,4.319080270323411,7.1029307497342415,15.256452958599311,8.176971110061913,14.13564897688002,5.801040770061263,13.013512200990249,11.933297067821854
2.528,3.8025436632856326,9.057212048142901,14.880382800768984,9.018835736557776,13.783931486692154,5.31587830768126,12.623687071872268,14.052898206060263
2.532,4.0152395756531405,10.671603850044221,14.16858752882763,9.628667075570775,12.199619782722039,4.873417744197695,12.225605202091629,16.150476019872485
2.536,5.027502546866799,11.357831284648682,13.29790860795356,10.066461436989812,10.10419239575458,4.718610973139221,11.649622091761671,18.09787992961958
2.54,6.314640138494724,10.671619746290162,12.191653349411354,10.20998669564051,7.964292022961899,4.703509084636153,10.64809440888871,19.533980605825263
2.544,7.031762600260208,8.584001655358861,10.552001560974077,9.76813418092297,5.741526478638207,4.45176091596386,9.08487055984665,20.020862065866822
2.548,6.546552336090826,5.647850800745346,8.102710225601186,8.491743329598648,3.0587775705671447,3.697886476123813,7.085641238685184,19.345341945413338
2.552,4.84468381916804,2.869273783556764,4.868033946986998,6.409357623419055,-0.36144106429810563,2.5351721790050306,5.051592920467215,17.741154601840094
2.556,2.5421119266547976,1.283683675229895,1.3044789954160478,3.912941090957702,-4.292195148919745,1.3958088732633769,3.5051316190508714,15.848944293940235
2.56,0.49263460209203913,1.4381991269419814,-1.808737287493841,1.6194040486029735,-7.910079616044641,0.7833603475585278,2.8324529615709935,14.39811094171796
2.564,-0.7508511605842614,3.0791313609377085,-3.6782500352696843,0.08088712583230517,-10.09708746628121,0.9497305361244344,3.07990937057059,13.797169498948392
2.568,-1.247848141835675,5.2666742090004846,-3.839843847280463,-0.46873681644456155,-9.969826376882793,1.7314433479625677,3.9233902418086473,13.89404055036357
2.572,-1.5234768745226575,6.9104723203302,-2.3245358088752255,-0.15004969694427928,-7.301519544379062,2.6691026263279127,4.850921441200171,14.095661734452733
2.576,-2.0888977520207845,7.408603341615617,0.41346268071265513,0.7369607903010547,-2.6279078025017952,3.327942864999841,5.437862684592119,13.782283620238786
2.58,-2.9790023390883107,6.995664827433529,3.7321234614701098,1.961264752670104,2.98871044375187,3.582930345605746,5.551258883435594,12.761911801537053
2.584,-3.640310228087401,6.576862520901159,7.046751674209645,3.5043292731479596,8.385317550145828,3.6712631837599474,5.366869567924141,11.467907859563866
2.588,-3.2719558941666946,7.1261678111759466,9.950538567893545,5.485063314749368,12.665380953085787,3.973953722324495,5.197882744148046,10.73529242820723
2.592,-1.4174133141336824,9.005438086870754,12.186005650508832,7.916676484066102,15.34879795303641,4.678138482295708,5.260985214675429,11.267644093295075
2.596,1.5850687664556062,11.63788694009736,13.558627276349853,10.480106447453181,16.31751169559061,5.571597784766709,5.533052621974321,13.134930837945149
2.6,4.608172992908294,13.75517266067709,13.898669916834933,12.494257611186185,15.669767764515427,6.131131190286851,5.785711594096938,15.623930716217728
2.604,6.2373196661337715,14.08889670609642,13.124773378584905,13.153928072854342,13.615672696808133,5.8735194479604615,5.77631538355422,17.58455824940802
2.608,5.5015174609884525,12.10716874363402,11.369891358459881,11.928089551672656,10.46435783550578,4.7471783471946765,5.448350301124037,18.091335768481713
2.612,2.386303129429052,8.331939064362132,9.029099268788286,8.871113301373043,6.631588344504053,3.2840781894838074,4.99296981189309,17.01136334444641
2.616,-2.1767195386373714,4.023015469241045,6.628271114872405,4.633526342826826,2.5577542769729007,2.36944159472705,4.707394932544048,15.09887799660737
2.62,-6.8024103611514875,0.433069763990261,4.563656234872724,0.16533825412579972,-1.4595219501261454,2.7309174960269047,4.747937837698828,13.528813683397175
2.624,-10.328773908692256,-1.9002726429939685,2.8722896864078393,-3.7209900085345,-5.405247098137352,4.443829529605409,4.944769941532741,13.136740603467842
2.628,-12.274819226665386,-3.3847625827370393,1.207745595371307,-6.669322527246095,-9.522236491746753,6.768293253538559,4.824981391438996,13.82243677352335
2.632,-12.849605646182226,-4.9780545726014225,-0.9133443522932794,-8.795204710047528,-14.060726171793704,8.450449660270351,3.8749217107758795,14.507759715124848
2.636,-12.59134629584878,-7.41625052037125,-3.703375599277024,-10.408923371810033,-18.895956783253496,8.353064644316419,1.8864563620129502,13.723386065212253
2.64,-11.922012330901453,-10.574039083206571,-6.790547796242663,-11.64553475781031,-23.270025840619837,6.082031895879936,-0.8227470286481093,10.495049858208176
2.644,-10.922705083288747,-13.38442545232374,-9.233801853390105,-12.267358311704811,-25.892931615642738,2.253570551688881,-3.4734052301209886,5.00054784609074
2.648,-9.445809690808346,-14.398399711806178,-9.919388439892828,-11.78535778458081,-25.44713677108848,-1.7610896539299574,-5.1846484365025844,-1.4021999786868946
2.652,-7.428970217101778,-12.66237610414646,-8.142631081948366,-9.826315724877531,-21.278935686011664,-4.490408150628809,-5.423091196820678,-6.8125912554025945
2.656,-5.131563237941009,-8.37669801919401,-4.058151208532763,-6.502802000722113,-13.90912475250434,-5.068582490666813,-4.290607316038859,-9.738849110140109
2.66,-3.094878446999246,-2.9186304492509407,1.278668875449057,-2.521785901390558,-5.03590564401793,-3.6059430560121655,-2.477255333285939,-9.818327472795318
2.664,-1.8438403334284885,1.8017434612988836,6.334309797959577,1.0659802089066943,3.043801108054595,-1.0515839053282434,-0.9090873663494676,-7.9180168728960325
2.668,-1.5375535614803084,4.290315870069662,9.772748228999262,3.3541926007792426,8.343139592184798,1.3574621466464123,-0.2842877129983208,-5.586448675737074
2.672,-1.8562771277602224,4.157957967524908,11.00509493906975,4.005236795838755,9.961578446234853,2.7356770797105128,-0.7603853787802564,-4.211339232645514
2.676,-2.2213488795468948,2.17723807767743,10.333012171246082,3.3687803298134895,8.353641489387883,2.9276837170427825,-1.967012170205635,-4.361532510913548
2.68,-2.211134031459551,-0.28356359055987923,8.641850656787938,2.228975757048829,4.974652565033466,2.4581100064779093,-3.316264628593899,-5.65248064244679
2.684,-1.9050658151982134,-2.08479290315654,6.83785148035804,1.3160032929099543,1.5088490252810516,2.1174920648145417,-4.3965712570964115,-7.150156864466908
2.688,-1.89989637177041,-2.905314345104671,5.359586592891901,0.8790375513808613,-0.9122998318948703,2.463193763559957,-5.206918809855097,-8.003521214497141
2.692,-2.9611388729117607,-3.282936307658929,4.02365799875588,0.5644721153294086,-2.1278530864601635,3.538520891914686,-6.099489362127542,-7.9090914998503195
2.696,-5.5224218313269375,-4.143249457188631,2.244254719525088,-0.34365864205574326,-2.8524520676360225,4.936210915635456,-7.469847150516216,-7.165456239412606
2.7,-9.363500285449845,-6.171418448061559,-0.5619829442803166,-2.487398276105523,-4.212640169643237,6.118284458704693,-9.428191750519773,-6.37904000343201
2.704,-13.68342030245276,-9.43280285757237,-4.644470395246572,-6.065986675171189,-7.198926934695464,6.76484592029874,-11.67147552617962,-6.066624892526988
2.708,-17.518644479209797,-13.428393786497963,-9.820307900120497,-10.71449262081569,-12.2754486248773,6.914238497557108,-13.64421510142256,-6.429246565344329
2.712,-20.216405573627526,-17.454715049735114,-15.581941038710283,-15.641622220762656,-19.22425573064129,6.835190560015235,-14.880363897627149,-7.392257226882975
2.716,-21.666685258261168,-20.963325848840668,-21.267890014664772,-19.914998051014663,-27.17673430354398,6.758301661195219,-15.284965505517448,-8.811249111779262
2.72,-22.157189395673413,-23.656605062717063,-26.156323749961302,-22.732726633676975,-34.74251142541834,6.673647385239747,-15.152003180842257,-10.631136373739764
2.724,-21.989502460301992,-25.318918321201636,-29.489260839137387,-23.595283548706902,-40.23666327995352,6.3402940200689955,-14.914011897008095,-12.864142911280624
2.728,-21.163048527429055,-25.601947294226193,-30.526806758115526,-22.3781643731445,-42.043117129182065,5.497896580307497,-14.806613133527208,-15.429434506612779
2.732,-19.36316559943316,-24.010208225590304,-28.72060165694984,-19.341856495664615,-39.102982207889454,4.1226827892160145,-14.661845063444389,-17.99886164718646
2.736,-16.28743612229391,-20.207947683224802,-24.01819327997373,-15.120023308254531,-31.43390151291669,2.5280361987142896,-14.010346139663852,-20.02773336368773
2.74,-12.081122956436047,-14.46875287349053,-17.116418093305583,-10.639347268708661,-20.407952946418845,1.22651952775459,-12.445412243736882,-20.979192634325045
2.744,-7.544794365435337,-7.917868718698401,-9.445064633966467,-6.913528835427314,-8.533890862983299,0.6283521511140862,-10.01031769252154,-20.594268135442007
2.748,-3.905177266810824,-2.2856044824509354,-2.7618409055407938,-4.713313952747285,1.3169802373849961,0.7815619661623714,-7.344045036031048,-19.019546907656604
2.7520000000000002,-2.2254699630007053,0.8113557568540273,1.5317507155741623,-4.224378895047266,7.00672816098313,1.353783250662218,-5.431888888230105,-16.6790502833735
2.7560000000000002,-2.8000102222154055,0.6940216517602948,3.009520472811346,-4.895842427716161,8.038440653089765,1.8785923802943216,-5.073032847720924,-13.974880451060017
2.7600000000000002,-4.923707474803905,-1.9501777460202447,2.3995117423114607,-5.636571150002965,5.770894431577744,2.1021261783494083,-6.400392815667146,-11.038696325250612
2.7640000000000002,-7.2122418582416685,-5.351748890795079,1.1672233568460797,-5.330182868846805,2.7481214218796595,2.1956482073946972,-8.750639607711946,-7.728317517443884
2.7680000000000002,-8.34274851524151,-7.589830224269463,0.6635973779134474,-3.4563264845096455,1.3892373385724568,2.65331119693883,-11.014358657066168,-3.916563671282347
2.7720000000000002,-7.768261482361595,-7.654608303794703,1.317442640844547,-0.45004223767455187,2.71427504771691,3.9186416335373906,-12.274046578532534,0.15300319105494964
2.7760000000000002,-6.012444811962268,-6.045970821606716,2.331388563471137,2.421852522835252,5.775550528931035,5.960592040848951,-12.364238438976827,3.7058111148680837
2.7800000000000002,-4.384324134481176,-4.546415467816132,2.072458984356217,3.6354120844671343,8.108633298854329,8.087117992638014,-12.018168749841152,5.640238295007293
2.7840000000000003,-4.266145738232353,-5.245896743427238,-1.0167541823907413,2.16454040685403,7.007553562281373,9.166644364027889,-12.459802820612595,5.046674901135702
2.7880000000000003,-6.3812621358688375,-9.348807306940671,-7.482778898842753,-1.983543279188325,0.9739532408179912,8.177384183009508,-14.668904973804274,1.7621079584037034
2.7920000000000003,-10.437891703261812,-16.415945110455596,-16.415684866262836,-7.741901386735208,-9.402647555500607,4.794647838707988,-18.707777483497694,-3.3793182229062495
2.7960000000000003,-15.290921174849245,-24.449032299636656,-25.737732824493833,-13.460633829088238,-21.58229787428445,-0.31131475517941,-23.505679622090838,-8.777519091461045
2.8000000000000003,-19.48363775690177,-30.773455531246327,-33.06053943275674,-17.599674645894083,-32.12622146998365,-5.652542267145691,-27.24572406853281,-12.67720879080889
2.8040000000000003,-21.83802862477296,-33.231756412871164,-36.63462157173399,-19.255207860576775,-38.09080688889344,-9.509484301767316,-28.155917020561674,-13.846253977686729
2.8080000000000003,-21.79445299315921,-31.075512725778253,-35.928535829672455,-18.28932811594359,-38.10107901337278,-10.64529414870276,-25.32065743313433,-12.000650087615668
2.8120000000000003,-19.41704784080048,-25.1438295523958,-31.593172676130052,-15.085984934583848,-32.64052665848112,-8.796593722853686,-19.088836665063354,-7.78138242694763
2.816,-15.19004899014135,-17.31973276816052,-24.930392578299234,-10.187335202381746,-23.54495317536248,-4.720311853190196,-10.91326031573385,-2.3701296784925034
2.82,-9.789362898205127,-9.608898614852023,-17.236617113530883,-4.08247425442687,-13.082665913477285,0.1837310899154545,-2.7299286053939795,3.0031686844979504
2.824,-3.980940475036732,-3.3554005436039915,-9.408126316915514,2.724661809058034,-3.1481690238622377,4.456713523421058,3.776535793658013,7.399476529611093
2.828,1.3946694960027344,1.0768185386709774,-1.9433826886215684,9.506096966048972,5.110150279571144,7.097864958713217,7.690586070844347,10.25669794530063
2.832,5.4709722721327125,4.092409302421629,4.77782850182939,15.215259220863572,11.197131101219156,7.807292521223189,8.969554704784287,11.295026699024902
2.836,7.5347459372706,6.349336656839796,10.236927486925197,18.703398005239706,14.97164363508682,6.923469896321421,8.198835256853954,10.431597050531082
2.84,7.322515365633535,8.285768577646195,13.793809463591515,19.21034000095551,16.43544755441394,5.162074710028264,6.214148676424884,7.8166506276515975
2.844,5.224843494846709,9.899399392927876,14.969512108158142,16.827904032437345,15.733216161648784,3.3079433138274226,3.788197780027815,3.9437392040525197
2.848,2.2152944854794896,10.832257489410608,13.797504008483202,12.613852555520225,13.291402017438827,1.9822700688180248,1.4986193916380444,-0.2974695204436557
2.852,-0.5597947280048174,10.622840648105694,10.951531249813797,8.17963731269947,9.874589647954508,1.5242348091826443,-0.2807927181497689,-3.7764937066842776
2.856,-2.3457470843354713,8.956725622576187,7.496879187980085,4.920355426615515,6.401330850167142,1.9643043937221591,-1.3506378162430792,-5.488589906297875
2.86,-3.183584377808984,5.805293750965802,4.366993573875789,3.3063433320394324,3.557710689628493,3.064627457464212,-1.7019599095365265,-4.975800269246861
2.864,-3.8760179593782595,1.444275621823408,1.8787346070321291,2.6716173049831013,1.4484016452977357,4.421236790537478,-1.5535170422361944,-2.5488030953114276
2.868,-5.477840573325921,-3.5968440532985824,-0.3964509695952074,1.669708103890116,-0.46806955436250064,5.617618009000353,-1.3313285898019558,0.8416082615353844
2.872,-8.568844363491735,-8.605242344348426,-3.289247093677659,-0.831020982784139,-3.053900711874576,6.387534487092353,-1.5140521653439691,4.047076692763994
2.876,-12.722712970290104,-12.762236401477594,-7.387914644674765,-4.906121445266763,-6.902968233375304,6.726570756103001,-2.3828104675545774,6.256061201478701
2.88,-16.525181957880704,-15.27709723868611,-12.481269040788447,-9.307164296444626,-11.831249760422224,6.873762753207075,-3.8107277495017797,7.3164966312738215
2.884,-18.203717203303313,-15.59780169610417,-17.46293514361514,-11.981576977144414,-16.777511807471,7.142010659452808,-5.242235843765229,7.662429859928352
2.888,-16.542208297359593,-13.628933451806233,-20.781650259209982,-11.129940070284192,-20.203787527273334,7.684235479865038,-5.920655609082132,7.896953584982043
2.892,-11.586217397518794,-9.852923016267596,-21.231225285755954,-6.239335891515566,-20.818965184051876,8.339662661643388,-5.282585688782888,8.286985184289051
2.896,-4.754562192396406,-5.263190000780924,-18.64038321586122,1.4759385304414536,-18.239070775792698,8.6645018491256,-3.295668518776779,8.488853818488678
2.9,1.741165804925913,-1.0805550603290612,-14.047644798322835,9.500587940219702,-13.216972331266106,8.160834727060319,-0.5416418901969564,7.678040255815063
2.904,5.90880150294015,1.6752443149689498,-9.222036937328994,15.136800088573182,-7.288951931418296,6.599541803532702,2.0480470568721785,5.032680837944099
2.908,6.892049902421604,2.577787134481241,-5.766367511734188,16.74727841455615,-2.026017563444384,4.239711778790706,3.682892353333955,0.3044478592410087
2.912,5.312127638751008,1.9617265650626905,-4.287211090682376,14.490796771906389,1.7118176229112123,1.7989596217510098,4.1594088201287605,-5.846732241175459
2.916,2.856098211855169,0.7583510875706452,-4.1265300225763895,10.15608616517693,4.088623459291739,0.14683728557952236,3.9806809444930877,-11.994308652476775
2.92,1.3289728433019263,0.04439885765486906,-3.8247892164040422,6.17852887907361,6.0028712323596665,-0.1300792077731785,4.0583022812870695,-16.516248699456014
2.924,1.6923424681724555,0.5171828811439809,-2.0477445562719367,4.370427177281499,8.395179659071346,0.9565928893073306,5.168340313860767,-18.302117818531087
2.928,3.584729171805975,2.1351086908202888,1.5332115159112618,5.005903490785158,11.550896891251341,2.7838304591507494,7.447092149748869,-17.243337528283178
2.932,5.551331791494022,4.10150769138329,5.918118006024088,6.7213239974569206,14.819544590327041,4.416146163828216,10.239336010174839,-14.258579097868278
2.936,5.828707871357892,5.198285205410798,9.215498013003298,7.257073768365217,16.91215461953061,5.050650031094392,12.388319955386692,-10.844219290684805
2.94,3.2904596850601138,4.34454075068561,9.625521683213037,4.664735523431091,16.619327140005907,4.374179869707405,12.845863496280685,-8.368955716561004
2.944,-1.9402194831002362,1.1277150392586464,6.432126817195922,-1.6402086204752777,13.535613723946085,2.6502295411676187,11.26619608944543,-7.469862802430839
2.948,-8.523305449683448,-3.954478406185899,0.44219957802738463,-10.50738208745588,8.362145145738964,0.5033476858554877,8.236962322484487,-7.845312283529211
2.952,-14.536566829927779,-9.672963842062359,-6.390049025283588,-19.540197473188073,2.6000666273802153,-1.4431012533896137,4.995154367648524,-8.531301810981631
2.956,-18.354383119852173,-14.578587314317815,-11.94037396894305,-26.169181494704162,-2.194906963803078,-2.853265559298734,2.795151184637348,-8.488591089716579
2.96,-19.344468696134754,-17.631979554408872,-14.982146274227034,-28.780533122919678,-5.196593489072825,-3.7653580015637544,2.2323863429548965,-7.215166658459452
2.964,-18.018797584948516,-18.619260062383205,-15.731153322866248,-27.31658450797113,-6.657483801840044,-4.443286570158875,2.924428221016342,-5.033163872648288
2.968,-15.604504181582115,-18.151283823032486,-15.581648989372297,-23.098684841315844,-7.6371974086411,-5.124469265950779,3.720710820260365,-2.929597671469878
2.972,-13.323672355810231,-17.27031631571458,-16.2067455498634,-18.035922783984233,-9.271566124699234,-5.8410366759673025,3.330499965604531,-2.0570623265742256
2.976,-11.766793109969058,-16.857517607496334,-18.524281105776026,-13.65398994934435,-11.991466443390209,-6.410019286188799,1.031655979228674,-3.1491705750245274
2.98,-10.686801982814586,-17.15437099000087,-22.123108945374952,-10.466373742145834,-15.158427348859163,-6.576788131656144,-2.9331702154532877,-6.162606572184984
2.984,-9.303180719644388,-17.656612007227295,-25.470357709504015,-7.988351295430675,-17.34111027761537,-6.206105812335636,-7.472054781746635,-10.315909261168997
2.988,-6.9186037312999815,-17.44619768986638,-26.77324338784524,-5.33032379903716,-17.095636722281597,-5.389809705502557,-11.213992397866491,-14.495571718395013
2.992,-3.4858299598286067,-15.78491176289765,-25.011641720984244,-1.9860389973866859,-13.824003012685694,-4.419215059238013,-13.235214390205726,-17.808229878248653
2.996,0.20574913200607625,-12.635045229769503,-20.563465713975802,1.662241278225565,-8.23377302341305,-3.649447603005683,-13.520788331858,-19.977526429753425
3.0,2.8307614332507,-8.813114121239437,-15.085540448861366,4.406135192452666,-2.1476730558922554,-3.360192376104692,-12.928556830308082,-21.39989186136455
3.004,3.1677097256956586,-5.661413659048662,-10.702094163375477,4.820038703646333,2.2835203673222395,-3.680866919794539,-12.674035517520508,-22.82574701849785
3.008,0.6937910522310631,-4.438541974868258,-8.989979776315522,2.019538912497751,3.5140982106430556,-4.601831153174999,-13.648324577783626,-24.910772653069216
3.012,-4.160267198744691,-5.725971797231068,-10.28080144037358,-3.8376952730893663,1.2372907251964307,-6.044440243758459,-15.928711309055018,-27.849163834909177
