Timestamp,O1,Oz,O2,PO3,PO4,TP7,TP8,Fz
0.0,-4.547473508864641e-13,3.353761712787673e-12,1.0231815394945443e-11,-2.5011104298755527e-12,-6.934897101018578e-12,-1.3642420526593924e-12,9.094947017729282e-13,-9.947598300641403e-14
0.004,-10.524438040631935,-23.722947814147062,-11.546328941319189,-6.1407255287573435,-15.473037315881811,-10.826651220825624,-24.724850232252408,8.109446756086719
0.008,-18.011795300750123,-41.3012893112475,-20.013698156826536,-9.954663263683415,-26.656813214770864,-18.95314369898017,-43.23439756718767,13.916613661244341
0.012,-20.720065062369372,-49.162433049457775,-23.612188397865452,-10.231266554702188,-31.206991581551847,-22.7748022643911,-52.03566904174275,16.26896856412366
0.016,-18.91071899049882,-47.65036987385736,-22.536035813989315,-7.463165820265544,-29.679613131686892,-22.372388896089262,-51.703362712678285,15.65222621327333
0.02,-14.66035854990082,-40.56280872277017,-18.77387001237787,-3.6365391781035896,-25.05967065127004,-19.336356941628935,-46.221018848706905,13.755122997396356
0.024,-10.861435980480337,-33.150377678685516,-15.122994661120401,-1.3258202301083202,-21.135712910367147,-15.935368732890993,-40.716309102321475,12.398746499944181
0.028,-9.909200039012603,-29.668603269262803,-13.918824323672425,-2.548370745670468,-20.652252185332372,-14.070414141766037,-38.87841937909269,12.492579322930133
0.032,-12.706515182049088,-31.705237111412544,-16.090797931552174,-7.9341644705071985,-24.201014756784275,-14.531956855316764,-41.418678442924346,13.643464139218487
0.036000000000000004,-18.443170349359434,-38.00065240533746,-20.961813173107657,-16.58875380691984,-30.346540515879724,-16.880531286188045,-46.270929872498755,14.610121365166023
0.04,-25.186262333860782,-45.6501998377305,-26.809051844139958,-26.64344295287674,-36.7715627821496,-19.913111953305474,-50.228791580638955,14.26039906343646
0.044,-30.906978242351897,-51.83230448592019,-31.8026781644852,-36.135457757188874,-41.638748240633106,-22.39198127648143,-50.91902289521491,12.384670213369326
0.048,-34.42223235598635,-55.12793136556007,-34.842506535652774,-43.77602780883683,-44.41444827075145,-23.6464774308364,-48.012353015678514,9.850921136399975
0.052000000000000005,-35.80397962566872,-55.85036127729251,-35.91340093865267,-49.26084660228878,-45.79628175710394,-23.772268141522147,-43.13452076559284,8.03490780634528
0.056,-36.11353117815963,-55.42548468451952,-35.86093789024949,-53.050736423057856,-46.940392714073596,-23.405678163627954,-38.730553893722316,7.920679908214211
0.06,-36.66528954046953,-55.35370166518254,-35.79514468500395,-55.82987425032468,-48.57577158835454,-23.273624642635014,-36.68356224939501,9.446825658636463
0.064,-38.19883993804126,-56.32848147309733,-36.4365844929722,-57.94293046584244,-50.51222197667062,-23.76793542410661,-37.443890416389934,11.506165619735192
0.068,-40.39075571516673,-57.94313283595159,-37.732556603144985,-59.102466300582705,-51.78828390552087,-24.738192789866844,-40.055339176382944,12.60196139665019
0.07200000000000001,-41.97276669909877,-59.05106712298971,-38.921492507593484,-58.51572965067032,-51.305208281358205,-25.586645104082038,-42.92636679240928,11.739652275815068
0.076,-41.396815900772594,-58.48443781127344,-38.978809152511985,-55.35072002702759,-48.52189879348748,-25.594120410018945,-44.7908629798265,9.009752887439667
0.08,-37.68662146712643,-55.702046725613116,-37.180974603022605,-49.271948235089326,-43.80555540527138,-24.29307470626202,-45.286533187621444,5.536422480885477
0.084,-31.019813363155208,-51.0235473123567,-33.4890493185805,-40.75810761076775,-38.25574741621125,-21.704501251093177,-44.879582442795794,2.8219434423108822
0.088,-22.739265911462894,-45.422198052092654,-28.587407171364305,-31.043132087864137,-33.17281212142575,-18.348961940263052,-44.33558144329294,1.9085511209116959
0.092,-14.803367369533476,-40.081963009670346,-23.592990844474457,-21.726615409602232,-29.516819539164374,-15.050422400416778,-44.16654115416716,2.85465365587811
0.096,-8.969419849473866,-35.97810703048975,-19.60853603621092,-14.248435327061543,-27.637096033818693,-12.633504089162102,-44.42306146164398,4.789100526611961
0.1,-6.11950282653396,-33.65254888807053,-17.345341247955503,-9.465555294271098,-27.353135166088578,-11.638866662252497,-44.8848152988233,6.4575085648924215
0.10400000000000001,-6.036891280242287,-33.16867017287521,-16.942591812826777,-7.49220128483222,-28.213900275057142,-12.154694062480758,-45.379487967879285,6.89814950643494
0.108,-7.70964950268916,-34.20349422755365,-18.023586983460973,-7.8399704801823304,-29.74536599917866,-13.822010639606162,-45.95742095618148,5.879262287655685
0.112,-9.983726075268407,-36.22857838298839,-19.935060602963063,-9.771283983358217,-31.574508667715577,-16.01545969516644,-46.80006680316127,3.904857574765259
0.116,-12.19973557562048,-38.71912345963452,-22.03124106581896,-12.68313731697549,-33.4297184042656,-18.11826475233812,-47.95070919679405,1.875230674262582
0.12,-14.46626357315057,-41.330728874680005,-23.87441568035524,-16.331980044932266,-35.11295475444297,-19.76244997479003,-49.09917320415836,0.649625127561972
0.124,-17.416738735982392,-43.93771308562518,-25.26775981208283,-20.79341760243676,-36.47673425636111,-20.92249058293004,-49.565176020639754,0.722832656565906
0.128,-21.630223512485827,-46.55092619864337,-26.171929715002875,-26.218812915700767,-37.4522238726405,-21.828353007222972,-48.56065636967705,2.12409532673826
0.132,-27.090460570347943,-49.18448313772339,-26.61233139722941,-32.5610248547444,-38.09749145107696,-22.764505010512266,-45.61969938327803,4.5002341551509915
0.136,-33.0244977082408,-51.75524130660705,-26.65634334393752,-39.44104577354227,-38.60232004481327,-23.8726078314715,-40.96208153566975,7.271013868422713
0.14,-38.218664709035636,-54.082910890579456,-26.46240205606432,-46.22268833164435,-39.22350734943649,-25.06346012486449,-35.57991570808903,9.774810614336317
0.14400000000000002,-41.59000879235259,-55.93057105230548,-26.29479426150101,-52.21144547802328,-40.12600458387101,-26.067773666642438,-30.918518847701137,11.387483101118413
0.148,-42.6805328117739,-57.072345320080615,-26.447257692743506,-56.85682959911776,-41.23256155617361,-26.573750634919975,-28.294228490603132,11.659728324795559
0.152,-41.79587601289347,-57.356006975922526,-27.083598119767657,-59.84618904533659,-42.19294787479896,-26.375631592747254,-28.353369922420853,10.483485124308345
0.156,-39.73799918734471,-56.733913766084925,-28.088558066066184,-61.069828982687454,-42.51762655322898,-25.461915055091254,-30.832241912698436,8.202030270223943
0.16,-37.322654274639945,-55.26040922318879,-29.051237604110838,-60.52171640485551,-41.83263103594538,-24.00488501246275,-34.73053898171389,5.55564781276837
0.164,-34.96017672879566,-53.01944981192702,-29.408903302247722,-58.20991465374573,-40.076817926123454,-22.27116323148948,-38.755107289936575,3.403104143947978
0.168,-32.54820238651246,-50.063035245923345,-28.715085268133976,-54.159558221819566,-37.555105708084454,-20.5098960390726,-41.83286430964344,2.3172762173910044
0.17200000000000001,-29.737324042179125,-46.44293471739661,-26.915708656000902,-48.52946474544183,-34.839357472830216,-18.89043498981846,-43.48773709242943,2.2742082746195535
0.176,-26.360234536458165,-42.30156159103905,-24.453234517882493,-41.73552006150487,-32.54123681984959,-17.490994769379938,-43.908992030386855,2.6516169438177286
0.18,-22.711418062232156,-37.94211068772438,-22.095613476489348,-34.45748683170598,-31.063467257017578,-16.311590957318117,-43.70404892979559,2.5809164814623102
0.184,-19.463251669320698,-33.75581337608219,-20.533903347847172,-27.466527114989162,-30.40522403888656,-15.273614027379153,-43.43725784701974,1.4725520566764203
0.188,-17.287731252647518,-30.058343206934467,-19.982739199959042,-21.364186431171902,-30.145937806397,-14.218302041723291,-43.23129784838787,-0.5844561016064276
0.192,-16.451009317981516,-26.962654437660262,-20.031104163900864,-16.395490439809578,-29.638454360904007,-12.947525849910448,-42.67844400463818,-2.7898770332641405
0.196,-16.65904897682617,-24.390101097249897,-19.85406459291562,-12.464998873453283,-28.326985898680505,-11.316698075865474,-41.11411056920741,-4.007998982063029
0.2,-17.268455713241565,-22.235130737732902,-18.6928495161294,-9.362660219587042,-26.053529928135163,-9.356404960147302,-38.09959176793899,-3.3638342773083565
0.20400000000000001,-17.71056736281605,-20.536113821242566,-16.311372255946367,-7.044832663778379,-23.153800439230167,-7.333034403653983,-33.78121068457108,-0.7339676452240269
0.20800000000000002,-17.861539502991036,-19.544283765254363,-13.172769250530223,-5.790110845136724,-20.305920825982298,-5.67905356543497,-28.920870913095087,3.1541515743000303
0.212,-18.13491450315655,-19.637742536564133,-10.244562522963179,-6.126398963633392,-18.229831824406688,-4.809087451325695,-24.588793904436216,7.079872380925821
0.216,-19.24364465452618,-21.11581771064664,-8.539415041845814,-8.555446962531732,-17.39061812797422,-4.907054145769848,-21.685815678614574,9.941045135798689
0.22,-21.75755301569552,-23.987139214217223,-8.639449604256242,-13.207372061545357,-17.852692978512323,-5.794735049704514,-20.560681259406067,11.274807668858145
0.224,-25.69370741942339,-27.83757537371389,-10.435486055595902,-19.6033139802571,-19.29744667276509,-6.967483048533154,-20.899795302819598,11.3892312290469
0.228,-30.38189222242204,-31.895400413938887,-13.211924068669987,-26.673831296226354,-21.1893709865177,-7.803271194520107,-21.95779325389168,11.07386918375748
0.232,-34.68012867674952,-35.27809739036218,-16.00502963109443,-33.03969492488454,-22.993086339077195,-7.853131576438159,-22.997768994287753,11.092552217367057
0.23600000000000002,-37.39733277382629,-37.25946642599001,-18.006725030116286,-37.410486862553626,-24.30180122305353,-7.047224316640836,-23.646089431376367,11.757629000015157
0.24,-37.71655292577361,-37.45216176851238,-18.819711741825813,-38.92957240784722,-24.861859102844733,-5.707103194873639,-23.98246075329388,12.83472381364453
0.244,-35.45899866439618,-35.8540117218397,-18.486036262019752,-37.355832815956546,-24.543952136637017,-4.375227109896741,-24.358490376278326,13.788181183463749
0.248,-31.090634549037077,-32.753502211514046,-17.326177586134236,-33.0399234776944,-23.314292167239728,-3.5472460052014867,-25.062527368712153,14.182240614820245
0.252,-25.504855864260207,-28.562276383794483,-15.713105951700072,-26.74246104370377,-21.23507467326897,-3.4397187668791958,-26.046470656506926,13.972539895927568
0.256,-19.70284281783961,-23.674768428189054,-13.905956845254877,-19.39738851788752,-18.472284360405524,-3.9015308386580045,-26.88845113982069,13.526498065669983
0.26,-14.520118685338957,-18.450738331905995,-12.024826939385093,-11.926296257888453,-15.30950720006058,-4.5179820006590035,-27.037114878261264,13.398038388841556
0.264,-10.479644354877792,-13.290692521205301,-10.13345389433357,-5.143096037740406,-12.126557745065838,-4.8412246894727105,-26.19480969908693,14.00700234805339
0.268,-7.744892367218654,-8.680742327078178,-8.322627551713595,0.3101878147665502,-9.300725745804812,-4.597721367036343,-24.559276584661177,15.428476947800561
0.272,-6.14497853707644,-5.118835474052844,-6.722815486975378,4.035170420254644,-7.069437415631683,-3.780338048504518,-22.751440060187747,17.38989645088658
0.276,-5.270344159583146,-2.9564474696935577,-5.460369125018815,5.937579551336285,-5.451642218025427,-2.614578807655107,-21.47798443444765,19.43494806680947
0.28,-4.654056957087732,-2.2874605022665264,-4.6233420432618,6.224265088817219,-4.302733155644773,-1.4444028271323077,-21.153124265566248,21.151432781341157
0.28400000000000003,-3.984448751345326,-2.9343434084702267,-4.252527133748117,5.316875477619078,-3.445508715009055,-0.6039503524505108,-21.680317767148324,22.336088372828314
0.28800000000000003,-3.245704538068594,-4.517722565795111,-4.344255410300093,3.711914137402573,-2.7762695854059984,-0.3120810786497259,-22.502257459400028,23.02667202634123
0.292,-2.7174498045960718,-6.560230336665882,-4.838318560889547,1.8299855042710078,-2.270540960346352,-0.6192108491159161,-22.871731016521665,23.409301052042593
0.296,-2.8199362379052673,-8.579088228094406,-5.582758846185925,-0.08631749206324457,-1.8857074267300504,-1.4046141420519689,-22.199238144492483,23.694065615689254
0.3,-3.912470984046422,-10.208863079921116,-6.351535143282717,-2.024546748963303,-1.500208400019801,-2.4363261186815635,-20.356622066760792,24.03437599506131
0.304,-6.15285949003146,-11.333938151334223,-6.943705953654671,-4.198662230379796,-0.981392533616372,-3.486456706649051,-17.799897805620333,24.497643460744314
0.308,-9.447877549399891,-12.150222083378367,-7.311977457496141,-6.95789159028709,-0.3424166335321388,-4.434243385366244,-15.420107531420626,25.067745620207575
0.312,-13.49397819004298,-13.100581678325057,-7.647273055345067,-10.62659395305036,0.12774363761923269,-5.303441118058572,-14.172916778869649,25.638936965580143
0.316,-17.84978235442418,-14.67100406281645,-8.333865045210814,-15.314518739585537,-0.1041915482121567,-6.206055406786618,-14.635904384406444,26.00259639074747
0.32,-21.999342123348924,-17.137203114912154,-9.766377157249508,-20.76561629393882,-1.5909774803285472,-7.221192824974651,-16.71930035246413,25.87836964981267
0.324,-25.382103139841774,-20.350416607544958,-12.080344739135853,-26.305826917849572,-4.555338490848044,-8.264900454756116,-19.656622941110584,25.016036636473928
0.328,-27.403911822538703,-23.65813283037869,-14.932845487081977,-30.924860784487237,-8.596209471946395,-9.02722110846753,-22.267208050131103,23.340616005788803
0.332,-27.503335283309752,-26.044144335912506,-17.499537972684266,-33.508746248836815,-12.664482617645945,-9.05332491368722,-23.393714769782036,21.044118522143577
0.336,-25.325039035200007,-26.491508720863976,-18.761019442465113,-33.185352024280064,-15.40952555753347,-7.96122192035773,-22.361707436947313,18.551493826499353
0.34,-20.96618413293163,-24.47385185966573,-17.9961603991419,-29.682667676887377,-15.801176059790805,-5.7008670767863805,-19.303923276660157,16.359915064349877
0.34400000000000003,-15.149272416367012,-20.327576158158763,-15.236229533654978,-23.543150199790034,-13.707702328312052,-2.7038149482980316,-15.183970473221393,14.819385332599694
0.34800000000000003,-9.143969632504422,-15.255681136739781,-11.392551692011239,-16.050408767472163,-10.076567992941591,0.2042520595937276,-11.459823813730338,13.965878787885316
0.352,-4.3653441079347886,-10.869974521904282,-7.915587125298998,-8.832811850307053,-6.541543874382569,2.134011136821755,-9.483518996166254,13.508434891017629
0.356,-1.8006590906788915,-8.454225267517813,-6.116215828511258,-3.2837638854739453,-4.612978956467714,2.5498959257356546,-9.895696799370398,12.995379581750115
0.36,-1.5645030661726196,-8.358539899483276,-6.510544029729317,-0.06615076721755031,-4.898600684374287,1.5462584542422064,-12.332034963824867,12.081366596707227
0.364,-2.844903129039267,-9.851873125576049,-8.544063509298212,1.0648249884079632,-6.772219075732437,-0.18818205784282327,-15.60223703767349,10.746881495334009
0.368,-4.313929704900602,-11.52559849636441,-10.857370737424844,1.0342242621004516,-8.69338523743022,-1.7181966372627357,-18.24754482980302,9.33439094669501
0.372,-4.80576024297261,-12.042248243962604,-11.968798898292789,0.9278524451719932,-9.020284282910097,-2.340373913129042,-19.193712646746576,8.36566477243187
0.376,-3.919556710487086,-10.836227777328759,-11.024531938906875,1.4313347594520565,-6.881021199760198,-1.934245443910413,-18.183525325313667,8.24017919037206
0.38,-2.232042647711296,-8.419420627739328,-8.230796951132561,2.492509742778566,-2.6675736419520035,-0.9952368727310841,-15.811551359085229,9.000029065385064
0.384,-0.9893809220156982,-6.1071124562040495,-4.7343683996577965,3.3730986025989296,2.1259887671587876,-0.3399161430750155,-13.158015660410229,10.297453381936123
0.388,-1.4269636767303382,-5.30143491567901,-2.0207811241398304,3.0597347767784413,5.636133168379274,-0.6412647126096545,-11.216475810290603,11.577930099571489
0.392,-4.078861589413464,-6.707003320718741,-1.149347492151719,0.8244333653969989,6.551550005302033,-2.04546378452892,-10.3981979230673,12.376827387338295
0.396,-8.466667606635838,-9.910602509907221,-2.237742983949829,-3.367366749786015,4.736339637948731,-4.087759875211077,-10.365971832921787,12.559793936093001
0.4,-13.353803117143798,-13.597824686624563,-4.486015171602048,-8.82272104581898,1.208965589612717,-5.956956147147821,-10.297079352684932,12.375553846137535
0.404,-17.418733996003084,-16.277313371125047,-6.696251679739817,-14.456935531121417,-2.471559674075479,-6.95023878052757,-9.41239984899346,12.29715468112974
0.40800000000000003,-19.924116992671316,-17.06920278212783,-7.9520859527583525,-19.27270176074262,-5.034611061339547,-6.833331770036693,-7.44506460553589,12.749896754338835
0.41200000000000003,-20.99302338782536,-16.101432296388566,-8.064429243978338,-22.712709240846834,-6.073530368923002,-5.907852720158189,-4.780598775314729,13.880849327208551
0.41600000000000004,-21.352804999257387,-14.306541288218568,-7.556779259731684,-24.715049965924663,-6.084606000909844,-4.776027141323084,-2.2277675689786065,15.487555073639925
0.42,-21.746707222956957,-12.801944884252407,-7.256394242306669,-25.499576947077458,-6.036595474631213,-3.9611487853085237,-0.6030702612291634,17.140482296075618
0.424,-22.398672836496644,-12.231092611067197,-7.756650763916696,-25.264557602793502,-6.754296682816857,-3.618957530635271,-0.36730776131912535,18.4178755544759
0.428,-22.859583256378755,-12.443365122292107,-9.069162931860319,-24.006188177877448,-8.481098550535762,-3.5047145577000265,-1.4900975419326414,19.100523789224525
0.432,-22.329021098275007,-12.686191682840217,-10.663093397757166,-21.584918344396556,-10.84498033858381,-3.1950503601508444,-3.568978375888264,19.192868995978756
0.436,-20.25218709430237,-12.161239779187554,-11.833945304824283,-17.986466690087127,-13.183646945198689,-2.4173999795657437,-6.084824595129476,18.7762755257514
0.44,-16.809603715694266,-10.608100029907519,-12.164448243242532,-13.585635000456023,-14.997489871587732,-1.2791002003939411,-8.644648162843168,17.82249417315245
0.444,-12.976898367335707,-8.548372146646898,-11.790159723451325,-9.201414423474944,-16.234010952882045,-0.2597458110524258,-11.082314237212017,16.10692524404425
0.448,-10.072487750757318,-7.014918127649253,-11.295048716339807,-5.837743220617995,-17.22816636935204,0.03693323924926517,-13.37184825830684,13.30951198155887
0.452,-9.031283682618778,-6.912237360146946,-11.297876845643259,-4.209793446169442,-18.350440849634197,-0.7682114187487059,-15.432066248180945,9.267121939454
0.456,-9.835884303959574,-8.397952376381681,-11.993276562261599,-4.326081783023255,-19.610592145456167,-2.5884352108014355,-16.9801539143034,4.228267213650838
0.46,-11.472952099220947,-10.701409650815094,-12.952235467048013,-5.404866284788113,-20.51993047521364,-4.886011325006848,-17.580236049881705,-1.0603460173903159
0.464,-12.461482093041013,-12.500483688403165,-13.312557827675846,-6.2181217648712845,-20.311466237953482,-6.9299234371565035,-16.86365345413435,-5.526819355663633
0.468,-11.65319779052561,-12.636867736370277,-12.247400935059432,-5.700347758737735,-18.37862163237787,-8.136873092782253,-14.76986930384453,-8.159900328865064
0.47200000000000003,-8.845239027992193,-10.740814503330057,-9.43175683165191,-3.4890342701742156,-14.64548684127044,-8.29938070583762,-11.653847204277099,-8.43435445109185
0.47600000000000003,-4.87077804320279,-7.405524661778372,-5.2433512092811725,-0.1062015636975957,-9.635001135630091,-7.599947051263143,-8.175457237292221,-6.557099378654385
0.48,-1.143633849253547,-3.8458951375307606,-0.6041962188310208,3.309992385802616,-4.225709609555224,-6.436077926546886,-5.053113882006187,-3.387264569151313
0.484,1.0561316444200202,-1.2557083386054728,3.4276635675537364,5.565271943722564,0.7437366014021336,-5.186169914165703,-2.812745102481699,-0.06660659349643083
0.488,1.1598196818886208,-0.23019192976926206,6.088938668617175,5.960213035759352,4.7820342428869935,-4.056843228406251,-1.6474904624813007,2.451615168473552
0.492,-0.5455071820815647,-0.5703259239121508,7.136309699341837,4.541360660593909,7.786864153730676,-3.0858644578584062,-1.440763845169613,3.7224990605277526
0.496,-3.2389872734593155,-1.5502549100935994,6.771675632041024,1.935496908636651,9.828438751989097,-2.267690960130494,-1.912831781428963,3.825251352128049
0.5,-6.112170028106448,-2.470365360180267,5.361880591915451,-1.0978288162518766,10.848528758561542,-1.6885336154653032,-2.812065111202969,3.124263689700655
0.504,-8.794348902259571,-3.1340468866742413,3.1685932077803045,-4.10205350814158,10.527596075657812,-1.5580428688840584,-4.031364702859037,1.9504339481356396
0.508,-11.398954998733188,-3.936014518970069,0.27470753114312174,-7.073367562803924,8.451599319730121,-2.1003443323909323,-5.581524884189889,0.4080529225466307
0.512,-14.199193104712776,-5.498328676881329,-3.2512563996151584,-10.241823062910953,4.505096574683876,-3.3648783760490915,-7.441343322561693,-1.571814013140255
0.516,-17.189510719341797,-8.090138489249966,-7.089717935501085,-13.652192757078865,-0.7617824264932551,-5.09017548261204,-9.387000453368614,-3.9923258469766267
0.52,-19.8700342144939,-11.253641803516075,-10.555278216175793,-16.868921829919145,-6.116150978830547,-6.7491570212134775,-10.959434030359944,-6.552356440149964
0.524,-21.42985253372899,-13.907011642663747,-12.775080753023758,-19.041879147463078,-10.061604222802771,-7.790007010960608,-11.62770632828449,-8.613315374751465
0.528,-21.217173480596102,-14.888536821277057,-13.102264860948708,-19.321073685392548,-11.505818351252856,-7.939100880036904,-11.068954396161985,-9.44999910334215
0.532,-19.184921850266164,-13.62356058067894,-11.526680798216148,-17.37215334280245,-10.311636484405653,-7.380506270753813,-9.408689637541556,-8.668739015442668
0.536,-15.988829806182821,-10.492323469231906,-8.780767421597375,-13.642290434163897,-7.3676998574906065,-6.682101528250769,-7.243348695049917,-6.521950793151291
0.54,-12.663173991333224,-6.686298477387481,-6.046035571147513,-9.194492130384333,-4.126744439798131,-6.491428962624468,-5.432893287368302,-3.9011625098392813
0.544,-10.05864016182295,-3.6104383402305302,-4.369942978023573,-5.1749780363179525,-1.8327807581547404,-7.163332727917577,-4.737571961925482,-1.9575867084920162
0.548,-8.38334466050128,-2.1599958991546373,-4.096025664953231,-2.215577900176413,-0.8646758916545423,-8.527390325963552,-5.450655911066178,-1.5371204538054997
0.552,-7.132192719845079,-2.2703283460550665,-4.635160438779167,-0.12889670974846013,-0.5678764882475207,-9.93239703618292,-7.209567190817552,-2.74988409130998
0.556,-5.460869336569431,-2.9891883538941784,-4.73789006813513,1.91043195713155,0.33276615473414495,-10.565908443028093,-9.083407532844149,-4.925468444667757
0.56,-2.788277493856185,-3.051459599910686,-3.164715606835898,4.7854007774658385,2.948449117321161,-9.890383583806852,-9.950134698793704,-6.9819741363775165
0.5640000000000001,0.7411881635748614,-1.6240481637682933,0.5951742941322209,8.793159553508303,7.518879693285044,-7.959803094948484,-8.995256630601148,-8.012105587239148
0.5680000000000001,4.238772470306685,1.2093737913107816,5.950603276099173,13.334370567399674,13.189658925326285,-5.442272413704359,-6.092960621391057,-7.761262603854675
0.5720000000000001,6.535170042325035,4.502869898957442,11.410710459799247,17.14726905847556,18.413946618020873,-3.3232854047703313,-1.8786835845263568,-6.725644936135808
0.5760000000000001,6.851025733209326,6.993113871466676,15.270597542936457,18.962034529753055,21.75090184118244,-2.4427527098303017,2.5226579169923298,-5.825145290913326
0.58,5.260100296045721,7.77467078631048,16.40404301554463,18.189569392518706,22.572156463403644,-3.1132355020488376,5.947211784870092,-5.8468652947901205
0.584,2.646556976216516,6.712395895790451,14.742092153619978,15.233562008035506,21.28340114825437,-5.015688576103003,7.603072785845484,-6.988909771359857
0.588,0.1807724584737116,4.3919177040297654,11.205817227196121,11.25270243524119,18.962495257842875,-7.399854547157929,7.280533269825753,-8.763146506211825
0.592,-1.3658898782373399,1.691541458966185,7.1552627436253715,7.522907233567366,16.66173357079333,-9.457754346306501,5.3107543070451015,-10.305616390099544
0.596,-2.04138088649961,-0.7138770198455404,3.6894165642413554,4.785480249518741,14.816286077244513,-10.663968647657612,2.354574049384894,-10.890469169994361
0.6,-2.6116096836638008,-2.634946803510161,1.1726832945555543,2.9622775048130734,13.09110133092122,-10.9188250324396,-0.8559310239900242,-10.329060887266706
0.604,-4.002922578213202,-4.294132246725667,-0.7789565809905525,1.3823412628980805,10.734487171431738,-10.466953182285351,-3.7055494218168974,-9.027033267796583
0.608,-6.624217026067299,-5.9868778676777765,-2.8888854640454156,-0.6354170058139061,7.198209657965435,-9.67888923469809,-5.770125719622342,-7.6929303774176105
0.612,-9.990854624687927,-7.73504634375081,-5.655412270195029,-3.217309665086532,2.625504666864117,-8.848117497113662,-6.811800391838915,-6.905301287687195
0.616,-12.898141516894839,-9.1732880140313,-8.968183278172773,-5.746469416350465,-2.089116667933922,-8.117126567396326,-6.76531923760399,-6.805345573999489
0.62,-14.072385560892144,-9.769816847742504,-12.132611396834363,-7.1779175727917846,-5.72463683463593,-7.54304227087141,-5.775822250344504,-7.089705496101146
0.624,-12.915595365798026,-9.209464548011852,-14.244113783668126,-6.659329122466943,-7.35597874637233,-7.212384960392683,-4.2339418775231366,-7.269444848045566
0.628,-9.874494011961588,-7.642700924862197,-14.644569324669192,-4.0576231912157255,-6.77122751907018,-7.280984942178293,-2.693254090166306,-6.989561816453687
0.632,-6.201551098506343,-5.608480208807919,-13.189596826340221,-0.06829933617723327,-4.441485131796981,-7.885052333499061,-1.6310447598394262,-6.211115840090457
0.636,-3.235608341066836,-3.654377470079339,-10.182447015079333,4.161518985592238,-1.0809183507999478,-8.973042067862707,-1.1363158662045976,-5.152019330448184
0.64,-1.6214086631750888,-1.918697502400164,-6.065117532688191,7.662682778173121,2.876415439724269,-10.181090565503041,-0.7320853161172067,-4.043999331046621
0.644,-0.9596737165513787,0.010330388393072099,-1.1272875570039105,10.117648089599925,7.499410486513398,-10.896659805114723,0.4811953070880577,-2.917748644341941
0.648,-0.12199148486183731,2.8023392331712103,4.535854271616245,11.87794239672803,13.097954417371284,-10.525205119095858,3.3300598004416884,-1.6045219630219378
0.652,1.9445944338117442,6.797194680176403,10.774350258784352,13.5220240616502,19.639941083562462,-8.84313963859006,7.9388764468851605,0.020410530844358732
0.656,5.408339651336064,11.497455869400028,17.029929558461163,15.249264225872366,26.25815822316781,-6.248287967262854,13.337220063467726,1.7171784558092327
0.66,9.233620555480684,15.485617710654083,22.157428110087267,16.51863905393975,31.224512169823697,-3.730087127707179,17.59054642944028,2.7456206901834435
0.664,11.586915370909765,16.917761828450807,24.647515649611705,16.208441677126757,32.54399886659587,-2.5203225910423726,18.52366541509309,2.084882877689907
0.668,10.792908945974887,14.405583650366452,23.230819744923792,13.256949584296308,28.92251485386396,-3.562000349796449,14.772778049851752,-1.043082487824293
0.672,6.3396144193018245,7.857793265259943,17.599296148708163,7.444631290346251,20.61179571501441,-7.025618039779715,6.655159024845318,-6.593821224687275
0.676,-0.6435927202173843,-1.1944984892489856,8.840289492053216,-0.16158484055358713,9.626438316719373,-12.115156326652368,-3.6409067542470552,-13.412448652038194
0.68,-7.756152381339007,-10.059373213857839,-0.7449332529888579,-7.433937991713947,-0.9064251096297085,-17.294012467243192,-12.772272580787273,-19.458046159020952
0.684,-12.399919341781242,-15.977890927166754,-8.44907614681756,-12.042068533308338,-8.009258100355964,-20.85894481846094,-17.608844011730127,-22.511883106976754
0.6880000000000001,-13.013122117453577,-17.337989311430647,-12.260056937198215,-12.530738399439997,-10.127537902543963,-21.604707291834757,-16.613916143968027,-21.077465248989938
0.6920000000000001,-9.81994869505047,-14.396746851668695,-11.72746235210343,-9.05307788130608,-7.774428737561152,-19.28206489554009,-10.536664438362038,-15.04537665359139
0.6960000000000001,-4.698508484337253,-9.12851035201868,-8.144308115169451,-3.3584341947487246,-3.2100049854847157,-14.654040142155395,-2.0404793689166354,-5.794983041925406
0.7000000000000001,-0.24026364844121417,-4.285684579664803,-3.9398608395483734,1.984085541090053,0.6737744257064833,-9.123188153287742,5.536761368667953,4.3350528597703715
0.704,1.5113119798133994,-2.1329618447178973,-1.5588054470424595,4.746863393505691,1.7066792986294104,-4.1291668474317476,9.688123107702381,12.966861303698849
0.708,0.002589879295328501,-3.473214145521638,-2.362171766701522,4.0103992636684325,-0.6425721574771615,-0.6037623368432605,9.760177686177201,18.560390376940703
0.712,-3.6625246643782248,-7.414355855166605,-6.072962559271673,0.46667535391293313,-5.196349550039031,1.2861085624566613,7.015464007946775,20.860738089589447
0.716,-7.3635817527251675,-11.92598632512204,-10.997208262090908,-4.045910643663774,-9.798280185334875,2.0276868893471374,3.790068961113491,20.75308157329671
0.72,-9.047969687300338,-14.87503888363699,-14.886710722994849,-7.503788502164298,-12.443155318930508,2.3770509265455075,2.2185594261178494,19.64393472403806
0.724,-7.690067075405068,-15.0005819172585,-15.990794370071058,-8.644785974397337,-12.198130708579697,2.9220473182548403,3.2115474312812466,18.70674876455203
0.728,-3.667392058607902,-12.362804893896737,-13.783894985660936,-7.432977378954547,-9.484078537436972,3.8173032294967015,6.180462638928873,18.361625397862724
0.732,1.5898226760546095,-8.104804637346092,-9.054594067972857,-4.851204358111545,-5.649848740940797,4.80685001350048,9.566337608898095,18.21047930141775
0.736,6.40791239027817,-3.73429669938389,-3.3853248722457465,-2.2164729196788358,-2.146307601941544,5.467992388507355,11.793509352686897,17.398096724729143
0.74,9.669304776852755,-0.36942514712109187,1.6506293338411524,-0.4381312325261888,0.2060302616273475,5.512174657775745,12.076975398678883,15.184723246106302
0.744,11.189721662916668,1.6575152910548923,5.145965357179875,0.3711261985308738,1.4946685685414423,4.962004785849899,10.673044697208354,11.426298838127565
0.748,11.535799850068656,2.699090441196063,7.074992341390043,0.7657564475468916,2.4509453335591616,4.116421990014487,8.531574058023125,6.7297615952871155
0.752,11.491929634236726,3.3671479683564485,8.062454188043375,1.477338413256689,3.8826309004663244,3.360824141895023,6.663163425140368,2.2428641853664146
0.756,11.541485899795134,4.104775015473706,8.914483506371994,2.902179013008208,6.18002988724345,2.958855673543212,5.641904170626077,-0.7978402090516283
0.76,11.643377105656441,4.983950503473864,10.170912848906255,4.864584334914412,9.120375434909988,2.9487960883230926,5.468296370700074,-1.5449527486690329
0.764,11.390530888070202,5.797457958610494,11.882610558407691,6.764091587446387,12.024140764501794,3.1840224573226124,5.76820446109943,0.15719426048974583
0.768,10.399546017955913,6.312834960818975,13.656269685036591,7.98275811651763,14.106145024695252,3.4721332455487754,6.110111138637961,3.757084799575793
0.772,8.654180626295783,6.469249850409028,14.877158563031571,8.279525573097544,14.794711253500623,3.7142067321656214,6.206942608533552,8.243946100810845
0.776,6.576788645598754,6.377483051848799,14.960642664512534,7.920350442871154,13.87269693362623,3.954651234339053,5.9040017361903665,12.518796593896724
0.78,4.7950337903148466,6.134025528128234,13.519891948378813,7.480787580767355,11.413329452946186,4.318898734027471,5.035293264085652,15.742740460681702
0.784,3.774606497289824,5.626960787707048,10.454392162401291,7.465495379818094,7.64790898381932,4.89682584789125,3.3437536503291767,17.544928095824318
0.788,3.5583949803370842,4.517918959053873,5.991192159887191,7.987337073271874,2.898270518355389,5.665422160981734,0.5938673188653922,18.0312873264852
0.792,3.7804067021905894,2.455438998277998,0.6969739777314317,8.701688544315516,-2.3923769375046504,6.504754974361163,-3.183692995304966,17.616375552109034
0.796,3.937141481049821,-0.5946171029136167,-4.561873448595406,9.015380592171027,-7.5934541469328,7.278892307323758,-7.507801005401092,16.755564907178936
0.8,3.72197239774448,-4.153270324818948,-8.774575800965863,8.419116619284523,-11.933334929818784,7.914088447743552,-11.516135169302942,15.703415741987982
0.804,3.1859570965484636,-7.347997462846649,-11.075060093275056,6.723006344779947,-14.717283419337605,8.393791542699091,-14.318874452528519,14.392568979744254
0.808,2.6412190302480667,-9.309534265958916,-11.060547484462973,4.081992622321195,-15.620655399790849,8.675525577463077,-15.442854637825775,12.492393118894597
0.812,2.384902966180789,-9.624807959340558,-8.978214139747706,0.8437865438877452,-14.878563780028117,8.60256275017798,-15.077945609743807,9.623779315081038
0.8160000000000001,2.4484840824435423,-8.552083263894417,-5.650701561218284,-2.6390248472898747,-13.202854902748413,7.897606527816208,-13.939940624228285,5.625454281066354
0.8200000000000001,2.560061982835691,-6.857956652874577,-2.138156209097815,-6.0872641817401245,-11.422630072749257,6.283795467977029,-12.823332089116036,0.754939804100303
0.8240000000000001,2.3514517053538384,-5.35946327680432,0.7127813725152237,-9.234208373541605,-10.025562675446736,3.6841452716329286,-12.125732529826337,-4.2975253555083555
0.8280000000000001,1.6881619160681112,-4.434508093271688,2.606048679878768,-11.697621169192757,-8.866817005991777,0.383956568297549,-11.647548666677551,-8.606961571819483
0.8320000000000001,0.8984050103362051,-3.8001364706034337,3.8482172077054884,-12.928608136025218,-7.244570347535671,-2.962471844389995,-10.798235061356763,-11.346553949523624
0.836,0.7148332614148103,-2.703811159760903,5.0860777630828125,-12.344654193485553,-4.334462469228356,-5.528775658532766,-9.080515830847105,-12.119370361970681
0.84,1.9114217610722335,-0.4447690594554956,6.8647637292697254,-9.620736139382757,0.22417619045177162,-6.6462589795309555,-6.548638843460111,-11.129163663108429
0.844,4.828902774055223,3.0943699709786188,9.2690001775768,-4.97515011182611,5.9349761444750015,-6.1026793626294875,-3.9215102560137893,-9.10031394328189
0.848,9.058032264277585,7.2301799030220195,11.842093292814411,0.7428308270031039,11.497799912105222,-4.2484735988952025,-2.251188745753268,-6.976385002110149
0.852,13.497845415142251,10.726066590482048,13.823199677162393,6.264831450019074,15.317523765002932,-1.8462118243062946,-2.3331813423612004,-5.533947738531552
0.856,16.792390510429755,12.38116085470125,14.551887295050733,10.343009216372138,16.23187352563616,0.26538589530156287,-4.208260099596146,-5.092578160950815
0.86,17.914603047457263,11.606370211255808,13.781125864604633,12.194838235683505,14.044330106466703,1.5131536085764878,-7.095646316909239,-5.4473602007009205
0.864,16.590058028804492,8.665287192897608,11.72038328278893,11.724815598898317,9.572430724405706,1.7674366356085898,-9.813723118495005,-6.042327106278094
0.868,13.347793570943168,4.464892932550015,8.806236722833432,9.428948358062371,4.183705234106071,1.28318707261775,-11.443534693714412,-6.2879010190238205
0.872,9.191446892892941,0.044838772064053956,5.377417174315042,6.060242439889521,-0.9240952981323289,0.46793643060868817,-11.847197329857266,-5.86170511764854
0.876,5.092324534203499,-3.913294266714786,1.4793111589367527,2.2595042916448165,-5.281671403049472,-0.3755234680349986,-11.717954658654264,-4.862820325422284
0.88,1.5833503344993005,-7.290654160674137,-3.0743855954800665,-1.6456833496666832,-9.248632613275333,-1.1866581513593815,-12.144492738250818,-3.758663441340623
0.884,-1.3351569334221267,-10.361563906955553,-8.415028732732594,-5.586833658578485,-13.60460197710512,-2.101208712196012,-13.940927385090902,-3.166959698320973
0.888,-3.9632125807803504,-13.39847171813085,-14.301226314547762,-9.525164159106794,-18.892069778907796,-3.2724027030014895,-17.134868982119684,-3.5841512709951218
0.892,-6.530502638546636,-16.342422208254675,-20.005891807988178,-13.240740345403424,-24.921374054988064,-4.692266511778882,-20.89845536748578,-5.1896370028970935
0.896,-8.928395916906197,-18.742208173859694,-24.50134719483333,-16.29418746177089,-30.723708355864915,-6.1306848377097936,-23.9474031147615,-7.802528418589581
0.9,-10.712183257738843,-20.001374982926166,-26.870631113127388,-18.198639951050154,-34.997551952670904,-7.22945401946896,-25.187959122249254,-10.982677535251199
0.904,-11.373329779945152,-19.768455228067467,-26.731117030986525,-18.697670457379218,-36.78571180219063,-7.699206584401622,-24.25561396002726,-14.215802141804105
0.908,-10.698892998726024,-18.20912959445542,-24.437578265654565,-17.966995163751335,-35.992160822770074,-7.502217724591048,-21.674526656870967,-17.09693052003483
0.912,-8.964563623797176,-15.97006820529009,-20.923946443969612,-16.577880825132297,-33.41835301090805,-6.897560076804666,-18.5700103172656,-19.423544879621502
0.916,-6.8353138103934725,-13.839305152182192,-17.26058602658759,-15.227264626897295,-30.282387881189607,-6.321092453189976,-16.10923821823141,-21.18524419120814
0.92,-5.030914564515683,-12.324516263008888,-14.175244510230641,-14.38841180771135,-27.521409861714346,-6.161342895611142,-14.980486478937024,-22.473829704528015
0.924,-3.9530047667706185,-11.39989757588205,-11.779047241115677,-14.080989436128903,-25.28697856517374,-6.545619709766015,-15.16247184545034,-23.36638648456939
0.928,-3.491220126025155,-10.564126014933208,-9.632127058738888,-13.890881345326761,-22.934057898065248,-7.24890845599657,-16.045857442200486,-23.841643230768227
0.932,-3.1273361086516616,-9.170906112608122,-7.102795398377566,-13.22897774827402,-19.515611883012753,-7.774658777906325,-16.792792339214543,-23.77483557482539
0.936,-2.2559044370220818,-6.815307616289147,-3.8054893761923267,-11.666550374524604,-14.481942496856732,-7.565130876951002,-16.726576006461585,-23.01678375709848
0.9400000000000001,-0.5373589211942544,-3.5692740206533244,0.11082729455733897,-9.160995536311702,-8.183169909610683,-6.252130571742782,-15.578080234971594,-21.509941098116528
0.9440000000000001,1.9095154306176028,0.045923735122073595,3.9705138517197156,-6.061811204094283,-1.866633178021857,-3.845411294181531,-13.508617893891937,-19.377187859435452
0.9480000000000001,4.576784709318417,3.3122470312912355,6.853469822201987,-2.9146793627965053,2.8407929929505826,-0.77417681686984,-10.964137878993824,-16.930678876355188
0.9520000000000001,6.832226225570139,5.616744686933089,7.986923331574417,-0.20365419980112165,4.679620900955797,2.2424721877870297,-8.465880959752326,-14.589156996848644
0.9560000000000001,8.213237191263033,6.649618603344379,7.059025829945767,1.8151557379592305,3.3461106835977716,4.443762920606559,-6.435748357053058,-12.737102598764665
0.96,8.583013872643733,6.409562699816888,4.3121158231069785,3.1058019462029733,-0.39656873420426564,5.2908500785931665,-5.119142416948819,-11.586743253877714
0.964,8.089940609269888,5.071634154456774,0.4018749714327896,3.713195746915062,-5.117286421825838,4.642117219198553,-4.595881560340899,-11.112504132874477
0.968,6.996871682745677,2.8439796795369148,-3.8722791908082854,3.621366425889164,-9.387936630499553,2.7768774730902805,-4.823578886793939,-11.084967156878918
0.972,5.513088838895783,-0.0814904558434364,-7.822253560165791,2.7280231812887905,-12.357370368939428,0.26215975571449235,-5.671152878023463,-11.181077155504937
0.976,3.7467109656945468,-3.4573661950453243,-10.99811498135523,0.9710432991162179,-13.933409213770574,-2.264757309319066,-6.9220752443596325,-11.12112353295538
0.98,1.7943790672168234,-6.878492655118521,-13.163184157669093,-1.4777492297021126,-14.549810733920367,-4.293433226986053,-8.262946650172182,-10.759597335953742
0.984,-0.1186163232475792,-9.75351704625973,-14.188383808415892,-4.102854136266615,-14.699066156787012,-5.544388991696451,-9.294119102342734,-10.094448276448617
0.988,-1.5826962137812188,-11.41972591656895,-13.96843250619304,-6.137855181461873,-14.5355977258464,-5.945734345583787,-9.603501341993706,-9.215889261688062
0.992,-2.1181078744564275,-11.389475643738933,-12.433408410543962,-6.8631344726427415,-13.79133825312124,-5.546015557670671,-8.908896364262773,-8.24835083233262
0.996,-1.4197423393657118,-9.592139703415342,-9.646338969327644,-5.966921700970488,-12.013200688652887,-4.44657710784827,-7.199931397425416,-7.332046921468532
1.0,0.401493908088014,-6.484808915992289,-5.921144275124789,-3.768768456777252,-8.960883026374404,-2.7999733807741904,-4.819156772095994,-6.63801299259967
1.004,2.7412609581733705,-2.9469617245656536,-1.857089312070002,-1.1575381141788057,-4.900651395034174,-0.8677773639374209,-2.4203348446493465,-6.373673405127192
1.008,4.672474958149905,0.010035209697889513,1.775242569220154,0.7613718719085227,-0.6127605991487144,0.941799187795823,-0.7773516947104326,-6.737305566359851
1.012,5.306033581049633,1.5916555084770607,4.2667882716368695,1.1526724306613687,2.891837689780914,2.142270969866331,-0.49953522049338517,-7.815012716668633
1.016,4.198620849470899,1.5052010789968335,5.242403481031033,-0.14672821367321376,4.818108321200725,2.3699659787152996,-1.7477041737698755,-9.462528516123541
1.02,1.6162133144525797,0.06283338283742523,4.84638415110021,-2.5090267549085183,4.9561471171205085,1.6366483598110335,-4.083567175256576,-11.248021186691489
1.024,-1.4910910236826567,-1.9362657020290044,3.738056191755277,-4.750369616830085,3.794898153525537,0.461679157661365,-6.5577549092488425,-12.530170392686188
1.028,-3.82094334516205,-3.5037022762785455,2.862397333494755,-5.625716662189916,2.3232412554052644,-0.25987270698101383,-8.026280562496481,-12.672165678335148
1.032,-4.228919464102091,-3.827948387297056,3.0663180539118002,-4.362473308110566,1.602831321616577,0.3401055918207021,-7.594634874603116,-11.309039331945826
1.036,-2.210065882204617,-2.5651519221780745,4.714865313936571,-0.9977926065885185,2.3101293317072304,2.598515616556824,-4.9996281821681805,-8.548352383875994
1.04,1.8540561318800428,0.0442764172275929,7.481004606369424,3.627460756927121,4.432927415687118,5.995371816168017,-0.7659051064987352,-4.980688402981855
1.044,6.797635471138165,3.2731014176847566,10.419920261835614,8.210897577885135,7.254266450279374,9.236428541536498,3.944827254134111,-1.4712030773061429
1.048,11.08896620041196,6.174279981751852,12.313230133056095,11.504575721591664,9.626508987104899,10.777617136375738,7.7396147389484895,1.1784250834522823
1.052,13.396934609424534,7.913346258397723,12.15108500307997,12.779023120026068,10.420017685332368,9.57351793413136,9.485418487539619,2.540982981374839
1.056,13.08499593338911,8.059315917555068,9.564052663860366,12.056168172004163,8.995553386665506,5.678391938732602,8.7138387982626,2.6990231173901407
1.06,10.432603187107816,6.711932432105641,5.015721888679309,10.028025878582412,5.498747907790403,0.35741653876948476,5.787982583263897,2.151384032688952
1.064,6.498315865065706,4.429272716022979,-0.3296517724302248,7.723806253196926,0.8583891489379312,-4.396292202500263,1.7772689420263532,1.5515424178138915
1.068,2.6801020398334003,1.9947707044029812,-5.013638390102642,6.078030997434325,-3.5206391583378718,-6.729698009801723,-1.903636617513257,1.415405895743902
1.072,0.16095723742910195,0.12483369571509684,-7.792550958688025,5.58927662438964,-6.2638590320711955,-5.768432301505527,-3.9579834399627316,1.94391456415957
1.076,-0.5170379312958175,-0.7489089921409686,-8.0328281700954,6.200927122120902,-6.5270420135580025,-2.0045134060169403,-3.6150032242283032,3.0067479783033946
1.08,0.40730041332290057,-0.5668907827889598,-5.86255169542892,7.407873880568786,-4.302580989396574,2.9569657659189943,-0.8741483727787909,4.257874882783881
1.084,2.1064034201767754,0.418474375457663,-2.0414881429642264,8.518147426201722,-0.3905650490773951,7.153846408857589,3.500743723782307,5.3060879055261125
1.088,3.576304593760142,1.7830602730118699,2.3565294632708174,8.929861185922164,3.93396125352956,9.13585221540734,8.235644144603384,5.842111762335094
1.092,4.062884034436138,3.0674996407992694,6.294253082543037,8.305882123384436,7.400608670025576,8.521567842698914,11.96767679441973,5.682833331488212
1.096,3.3301018955389736,3.8835970822351555,9.036886083020363,6.610037849779474,9.184926649900717,6.015813697276826,13.734999423013505,4.761348869245637
1.1,1.6749725283698353,3.97738512586011,10.271767704657577,4.0377435814907585,9.12236559289704,2.938948553572118,13.354007486113005,3.117945586532528
1.104,-0.2758232502719693,3.2795168188113166,10.100749639526839,0.9198500362035702,7.64573686376616,0.5618590344620316,11.519103626274955,0.9160695021599281
1.108,-1.8549553775483218,1.948782597159152,8.962455115773992,-2.3386955929836404,5.523163292834397,-0.40957719044445184,9.543734047903172,-1.535041828993883
1.112,-2.6009741895340994,0.36018130643378754,7.504130429493671,-5.290936946620604,3.5121862506985053,0.002994308893903508,8.79888091906605,-3.8101172749662737
1.116,-2.3603948601548836,-0.9744845532750332,6.42428414206006,-7.472617892208291,2.1046162699203705,1.2451499145367961,10.085360660420747,-5.479796424426752
1.12,-1.238983634104443,-1.5727327035733651,6.282461261223943,-8.464220681544248,1.4317694054516323,2.615429948547444,13.210751701228219,-6.27201837900526
1.124,0.4935374078540917,-1.2050763148158694,7.2813809121144,-8.025292051949691,1.2982566788355143,3.5938637042090704,16.983242373824623,-6.21791907356419
1.1280000000000001,2.4833450495243596,-0.0612049941191799,9.10389084889539,-6.237546559263137,1.301060396749108,3.976655387451501,19.67210763952562,-5.673362155765744
1.1320000000000001,4.344987210614818,1.2565127488451253,10.91448649315862,-3.5572861108776124,0.9736666253288604,3.829202068095583,19.74822988129563,-5.169151624224924
1.1360000000000001,5.699580725495252,1.9667144281920628,11.594987046486494,-0.7106479397334624,-0.0731874233306371,3.343512655201266,16.580385614857278,-5.151686975402924
1.1400000000000001,6.248042452527443,1.4938962631117647,10.183569446449837,1.5666291110801467,-2.02368292658457,2.7091448897554073,10.762374483070516,-5.732216640616684
1.1440000000000001,5.879270496753634,-0.18555371240154273,6.349871622161118,2.8390730803876068,-4.758627811789665,2.057193415353595,3.902920033304781,-6.591058694477056
1.1480000000000001,4.751244760391273,-2.450744866718651,0.6620408244343707,3.1623139748817266,-7.8328588223143925,1.46340912999176,-2.0321427452249736,-7.113846613758199
1.1520000000000001,3.2827336049285805,-4.278269731395994,-5.518990754052538,3.0428760384274938,-10.565949942986208,0.9729093260257287,-5.508542228465785,-6.702621807159346
1.156,2.02024727117805,-4.710417932994915,-10.511616663592577,3.164427284758858,-12.226127631605777,0.6061859159026426,-5.968101079282633,-5.114272609308614
1.16,1.4133660025136123,-3.3285417752472313,-12.968567967905074,4.009158233941889,-12.273759281677485,0.3575827760514585,-3.9083749144608646,-2.639421502276548
1.164,1.6095727077008632,-0.46316852522068075,-12.3996871158879,5.58184415102005,-10.553404964113724,0.20780006504264747,-0.4950882633340825,-0.008113625420378412
1.168,2.38340004735619,2.973669910993067,-9.313374350058439,7.383242402384894,-7.34133641383778,0.15754978265613317,3.04939089146319,1.9420757913555349
1.172,3.2492052463658183,5.935904988962648,-4.913811673493001,8.649474409336108,-3.233766214935713,0.25747668499388965,5.953699692867531,2.6712032005964943
1.176,3.712249626368248,7.744987652671625,-0.5145522300790617,8.731615978808804,1.0780944954049119,0.6004933805152177,8.086974293954881,2.2022792288264554
1.18,3.5137252071081093,8.35136385543592,3.0090067868095502,7.394876751807715,5.010177692662182,1.2588782272368917,9.791163633879023,1.1009986200391495
1.184,2.719167285345975,8.209357098955024,5.450261064342158,4.861451251923427,8.154030957225586,2.1890486004213017,11.497984466422395,0.1684062630322387
1.188,1.6056286002776687,7.863005873131897,7.100948483362117,1.5968388118144503,10.208626836733856,3.167526864181127,13.378702669303493,0.01288362280797628
1.192,0.4180124679860455,7.503306908416107,8.319444712863515,-2.0122210502040616,10.857214655539792,3.819170680150819,15.20624150271351,0.7340116618070169
1.196,-0.824435531158997,6.810719470537606,9.155281303144875,-5.852048281163661,9.756352378574775,3.7576382969436963,16.48994982364252,1.8936294076841023
1.2,-2.3250509637846335,5.191359702734644,9.277798610303762,-10.003978179330261,6.704833632884402,2.774316668593201,16.784542258465763,2.7957471084371264
1.204,-4.299358356467565,2.264989725538726,8.248291889984102,-14.434816651618348,1.9215226056485335,0.9820627624458211,15.96829675154504,2.911885939139893
1.208,-6.685045496516977,-1.6974571647024277,5.946104834788457,-18.671721692641768,-3.760413379487545,-1.1717964484714685,14.328615670465297,2.2091279882035906
1.212,-8.962338006490427,-5.686218334158184,2.8514148040358123,-21.71220014337905,-8.976956511362914,-3.0416896996357536,12.429023892750592,1.189664710021134
1.216,-10.242932317676605,-8.306563850062957,-0.02843934027623618,-22.304709233133508,-12.244589767164143,-4.015857324705394,10.853625637316327,0.5932929966611482
1.22,-9.62900244573575,-8.41482027426082,-1.5932397555543503,-19.51163333101431,-12.562319538496922,-3.7284903263962406,9.956910828677792,0.9308547775013949
1.224,-6.667469489514588,-5.693553359448742,-1.2197321126695897,-13.269380964131415,-9.906763873776072,-2.169665349520983,9.743083933477465,2.1194066350718685
1.228,-1.6557462456748908,-0.8468179619967486,0.8692972633725731,-4.61862892125464,-5.3308914015769915,0.3397234310896238,9.9175427662135,3.450475858367213
1.232,4.381517878582599,4.6937157302354535,3.667948280184646,4.566876911310828,-0.5661224255518391,3.280467299081465,10.062185517293983,3.944378477060468
1.236,10.059891964310737,9.413124848033476,5.867949592080549,12.26761133175205,2.728271346170004,6.107328871502432,9.851866969273033,2.90632911699754
1.24,14.170310157653148,12.358502375497665,6.501131554554377,17.092054176697275,3.6926328159079276,8.38883658976465,9.210847709138307,0.37966312760920573
1.244,16.114111811764815,13.45244980994812,5.399405797943473,18.753713723774126,2.5993505914639172,9.881360291388773,8.34312364894322,-2.7770944644098563
1.248,16.036407893376236,13.353959471143753,3.235961028436577,18.026080600600835,0.6256352915988828,10.540036498404334,7.63665070779507,-5.2633532909011365
1.252,14.622854522282069,12.985407165138895,1.1426776669104584,16.22567687614537,-0.8075776079140269,10.486286458066388,7.485354399661446,-5.977580007774691
1.256,12.705148039949563,13.030984108545454,0.14280132778185362,14.522236981018068,-0.7595973409697763,9.952411464913894,8.119908311485233,-4.592066946633167
1.26,10.89374527453765,13.664264113269383,0.6952565380761371,13.432591396880525,0.8115092350071791,9.215896345720466,9.51625080593658,-1.7499387263657127
1.264,9.41739717436576,14.618936824993398,2.5755517177694855,12.737623113933296,3.144217155771912,8.532445023627588,11.419263539971325,1.2458418617763982
1.268,8.202801023462598,15.485082216737283,5.099831278661441,11.80217787472975,5.176254173529742,8.067281519351127,13.459562562039537,3.084282044490351
1.272,7.075515848038776,15.985785481717357,7.5005854477094545,10.052281485086496,6.118447635000848,7.846745688161718,15.298172589583373,3.089042785653305
1.276,5.9367040975794225,16.07730770393846,9.244053466711193,7.326193577129743,5.78678628585385,7.757180583979789,16.740659415431765,1.5124199682861672
1.28,4.819387617200846,15.8453820914674,10.149881329583877,3.9324982857815485,4.537737443044534,7.598487290162666,17.76516380783687,-0.6646221743214937
1.284,3.809985460871758,15.309537080974223,10.298552489752183,0.42816829696857894,2.9037830119132195,7.164853008843238,18.448576846318247,-2.3095695054206544
1.288,2.92488662602409,14.311252716520357,9.848418128412959,-2.701704871513357,1.201252304821537,6.3155661955461255,18.833730681418274,-2.7635348076746595
1.292,2.0540532475861255,12.591836289627281,8.906800993059733,-5.240782476785171,-0.629881237169684,5.01535498715657,18.82557526674418,-2.1638914953094854
1.296,1.0427297142323368,10.046352989033949,7.543570047666435,-7.193011959383512,-2.83704346974082,3.3441305071992247,18.208314959824293,-1.3047261380074815
1.3,-0.13028903146368975,6.976206535094207,5.899076684849206,-8.547990483062677,-5.465581860198654,1.4841618968621333,16.800264544635866,-1.1341405257672932
1.304,-1.2065133183405123,4.145596440193913,4.274355811392525,-9.049962949049586,-8.05650338821124,-0.3020855465392742,14.653857864417205,-2.1908134956573804
1.308,-1.6423036955420685,2.55842321873115,3.10555744528574,-8.155475493942504,-9.6692594093538,-1.6971927019103532,12.16977957177869,-4.302763443217032
1.312,-0.7837508484935825,3.032264888415739,2.8088536734467198,-5.244704406792152,-9.270962671597772,-2.372180219292204,10.023516236883097,-6.70347006412328
1.316,1.842562729234487,5.791545281116669,3.582091840691646,0.012216808196171769,-6.284140960670811,-2.0604953266183657,8.913789908015588,-8.476071929002615
1.32,6.245415985769796,10.28121838896277,5.2707312837828795,7.327973464452953,-0.9918704730462196,-0.6552683224754219,9.229266431605993,-9.050333006839423
1.324,11.833186716343334,15.312734365442338,7.382713923476331,15.699306260556114,5.449362298775668,1.6953113134259183,10.811819436420137,-8.463091120787908
1.328,17.497108935855067,19.47894091872149,9.255286549945595,23.610698464930465,11.427729452483618,4.554619907234155,12.962001777516434,-7.247345546242968
1.332,21.906251258831617,21.650485107940767,10.297063589943718,29.471344863932245,15.52468236495406,7.2803467751127755,14.714235216843463,-6.0364239220122045
1.336,23.918673564327037,21.351885199004755,10.195932688491666,32.113412184640765,17.07482860905111,9.216394387725813,15.27032924153582,-5.158404827533559
1.34,22.973190892033017,18.870290239214228,9.014831202934147,31.159815491335394,16.36234890197011,9.93609925029159,14.364225975896716,-4.465964010894481
1.344,19.31159239007502,15.077398388889378,7.147554308739927,27.118097420037884,14.378406014002394,9.425201562853545,12.35070352354478,-3.4987399534824135
1.348,13.932507290603098,11.06932129199049,5.161079231404074,21.179318505621268,12.289316692558714,8.094668474315768,9.990473646575992,-1.8519266795615295
1.352,8.263295903170729,7.760582638325104,3.573863936635462,14.793863239940038,10.876251405639778,6.587936142723265,8.028659003950452,0.4943454777685474
1.356,3.6708394666202366,5.602880856465163,2.669527730469781,9.19833218394524,10.239860752109962,5.47754205073943,6.828500185847588,3.10958539051785
1.36,1.0026519221955823,4.521386610283116,2.419272675500906,5.07724779236014,9.894007662660442,5.0054235598781815,6.274628414498693,5.372714876220471
1.364,0.3157600188642391,4.0396100073576235,2.5182412716094404,2.44341635024648,9.132091310924807,4.996126119434848,5.967584957787949,6.861356934463402
1.368,0.9210708517330204,3.52082969834737,2.5284146359244914,0.7740513119806565,7.447364674480923,5.001580778942298,5.564996307326055,7.61419050300583
1.372,1.7314697346810135,2.419578353736142,2.0712027563004085,-0.6686595549927006,4.770505934708126,4.594703021406531,5.031216822820625,8.077618069634582
1.3760000000000001,1.7619290878483298,0.4715730516063559,1.0005231384493527,-2.4718490923387435,1.4456519375671633,3.6402497078106535,4.635873387374886,8.735002890716942
1.3800000000000001,0.5632466501574527,-2.23472392245003,-0.5265277546441212,-4.812631716375108,-2.002434953719785,2.37809496506452,4.687045541106272,9.642997329781792
1.3840000000000001,-1.6139255759699154,-5.310167711567374,-2.1181323443706788,-7.410694568601684,-5.141691122889824,1.2492354119840456,5.177355424155394,10.191281335382882
1.3880000000000001,-3.993921023509756,-8.211308939196897,-3.322825688035664,-9.693046998922,-7.782736191385993,0.5608567553608736,5.601905528640145,9.287877632887103
1.3920000000000001,-5.692656119945241,-10.432978686169008,-3.837838620180264,-11.084615678180853,-9.95568004004781,0.2015720020954177,5.098155774679071,5.917243705471037
1.3960000000000001,-6.154551533039921,-11.660146748507032,-3.646800233895192,-11.275224296201486,-11.751643511153816,-0.3866298972752702,2.872345758879419,-0.22390909683213067
1.4000000000000001,-5.3904561915151135,-11.839816538216837,-3.0132803990236425,-10.330034568711199,-13.159634816016478,-1.9102524520931183,-1.3105645909836312,-8.372287910066461
1.4040000000000001,-3.899301601031766,-11.14732266871033,-2.326908711289434,-8.598117362633275,-14.00775525699828,-4.745015897193298,-6.8561262899984285,-16.853353811169654
1.408,-2.3385752155936643,-9.870418964799683,-1.8889093036341364,-6.488451117196746,-14.041997722955784,-8.547577749926859,-12.473804491075498,-23.702245696525324
1.412,-1.1440781082510512,-8.272244677586059,-1.7454527511399647,-4.24923554988527,-13.076285791083137,-12.218884036796226,-16.662233757796457,-27.431853209768633
1.416,-0.31073339182512427,-6.478024131056372,-1.6506809081238316,-1.8757015952214715,-11.085436076486076,-14.30221850829912,-18.285767495068285,-27.56057883940821
1.42,0.5430748482795025,-4.448064822974629,-1.1911323855874798,0.802757631012355,-8.19275672677577,-13.650642586777394,-16.968155926370855,-24.654712916993503
1.424,1.8781057889682415,-2.050591147310115,-0.002388054988841759,3.9161309513619926,-4.576933890462897,-10.024946852980065,-13.13100785575898,-19.903347090209536
1.428,3.8803707046536147,0.7867632994384621,2.024541959443013,7.351391193933523,-0.3910617814908619,-4.292880237131612,-7.711502052416108,-14.50009706453875
1.432,6.249167073761782,3.9100624729435367,4.634700793760203,10.670528630122135,4.204313431737319,1.9049292209238047,-1.7766830120090162,-9.190322102416758
1.436,8.249505545245484,6.853754242578361,7.258426077383774,13.202841881400673,8.907482270462424,6.8583578033831145,3.768191576681602,-4.20989460153146
1.44,9.006307323743385,8.905845762525132,9.193274917355666,14.272208537451661,13.134709147481772,9.505035116537329,8.274157720722542,0.4352354312118223
1.444,7.885695383338316,9.33328927711409,9.841132643901801,13.447302631328057,16.013646348477778,9.796761453975705,11.30475868884605,4.600125376327924
1.448,4.77549015833938,7.692095214180881,8.910385470797337,10.69815815570837,16.594073760470565,8.540004547068747,12.588494534815254,7.831148704319048
1.452,0.13861580282173236,4.084354357581105,6.508389120877837,6.3965647838158475,14.220901037198928,6.833011265056484,12.060318408915919,9.533679431218616
1.456,-5.170902267545898,-0.7728486199939653,3.0923644257272827,1.1731590656963817,8.898715513234492,5.4353503200491105,9.978395463243942,9.343889380491419
1.46,-10.225119620954501,-5.7532309489997715,-0.7048143977481232,-4.292234363620082,1.4236548780099838,4.42426412610439,6.97680999944987,7.429771253418039
1.464,-14.31019854000624,-9.729924812978425,-4.287606466034049,-9.439479782799026,-6.8150529555969115,3.3133206884394895,3.9321773199808376,4.4979316570854735
1.468,-17.06897706295058,-12.00937755493942,-7.261919573586056,-13.893591197516798,-14.295056623612254,1.523811515997295,1.640033243695143,1.4623032615118063
1.472,-18.469415429492074,-12.589974490570967,-9.486581490367826,-17.42150365643829,-19.866069656432956,-1.1020183550062939,0.44761732277856936,-1.0338648536526307
1.476,-18.640150998522586,-12.074493067186268,-10.982503024919424,-19.81597547754427,-23.027901065170227,-4.066375156609865,0.09185274350147665,-2.935940738260797
1.48,-17.684319288662664,-11.25985916001082,-11.758865655592672,-20.785243029535195,-23.86495595559063,-6.398827321942008,-0.11511927887659112,-4.721271043042634
1.484,-15.58740433719504,-10.62375672138296,-11.672758384309418,-19.933337443042547,-22.718759841049177,-7.15048982926055,-0.8308960494405255,-6.994963685140192
1.488,-12.265788556389452,-10.00033136174352,-10.43412921284471,-16.87158072999955,-19.831695793847757,-5.91749853611509,-2.219082210358465,-9.996754267293
1.492,-7.724159801655333,-8.667717034597445,-7.79334151313742,-11.437183464589907,-15.225824510744133,-3.1006576573963684,-3.7933725473503728,-13.342110887989747
1.496,-2.223546279594302,-5.810995715768513,-3.8162601557814924,-3.9167097255376575,-8.881113538524005,0.24797689491970232,-4.687071985390503,-16.177490915241833
1.5,3.641316220888257,-1.1246724776374322,0.9141535750313778,4.846879945722321,-1.0912007282240666,2.903891967909658,-4.220404868965488,-17.660428436794064
1.504,9.028258317252039,4.798042810039988,5.3385814346474945,13.559005300969147,7.276452106270881,4.017649140936555,-2.4192714696027906,-17.454188689847342
1.508,13.07959400513937,10.556468285431038,8.25827340153046,20.792030417022033,14.855665998435143,3.4584823177174258,-0.13580954253848176,-15.908524694258176
1.512,15.203579717013781,14.50413430057597,8.84614418687488,25.415393211933406,20.217049573791883,1.8025836684137175,1.3573258802789496,-13.798508735896121
1.516,15.265133109183807,15.50849949961048,7.074142527701042,26.952440277305868,22.464870325668016,-0.007061525147946668,1.0969420408973747,-11.794017732319162
1.52,13.58522173196252,13.487507061136057,3.7989764292360633,25.686256451859663,21.64746968356485,-1.143380694256848,-0.9540092922807162,-10.014855888633974
1.524,10.72984506825378,9.401191812066827,0.4041234927899495,22.441250508814846,18.72054821720485,-1.2835931625741068,-3.7930161420945296,-7.982576924054911
1.528,7.194735373916046,4.699067283241675,-1.860667817407375,18.138049753881205,15.057303984041937,-0.7326581186171097,-5.876769997448719,-5.023868978134487
1.532,3.1651364486388047,0.5262270262319362,-2.512018460660329,13.350983443742734,11.749735181603683,-0.2453878148662625,-5.986501674511601,-0.87856962311389
1.536,-1.4997668939067808,-2.836283478583937,-2.0748812001656916,8.110875500518887,9.11104721215088,-0.6503599683092034,-3.9453739806094745,3.886290030506416
1.54,-7.018980758079124,-5.965447314603807,-1.7745019369831425,2.0775766489095986,6.656311858045228,-2.4452010596705804,-0.7583781758057739,7.964628308404372
1.544,-13.307974469134933,-9.729978230880079,-2.82151388276543,-5.012042874499457,3.558596250888513,-5.545825321099983,1.9225913585360104,9.900925245444341
1.548,-19.702278222517634,-14.51238851346352,-5.671851908431563,-12.883098252390482,-0.6916141864185192,-9.294673356394924,2.703484590786502,8.862974105674539
1.552,-24.9876394785133,-19.719602272336488,-9.680274227739574,-20.538094597719464,-5.820041864448285,-12.71917639878302,1.198816091756271,5.147292096150977
1.556,-27.792096009005036,-23.904683051430766,-13.354101571254432,-26.50412703881011,-10.768355205298576,-14.924979737133981,-1.7933715042308904,0.09118214903310218
1.56,-27.180516007574624,-25.468525273263367,-15.089918972022133,-29.415648892587342,-14.170066571852658,-15.450142568526644,-4.785244998708549,-4.588432674139995
1.564,-23.145835348062974,-23.54943329098751,-13.994400576877524,-28.62960188298166,-15.020036797943249,-14.419774546075132,-6.45755334180194,-7.661456374344652
1.568,-16.727007255365606,-18.5787145317845,-10.342531539165066,-24.54405857589518,-13.158592661900911,-12.431258960399646,-6.376490618182288,-8.964632594898376
1.572,-9.655970057687227,-12.168109827842272,-5.435587819694774,-18.43598087427381,-9.319464007450733,-10.23637478171986,-5.170045574409414,-9.36194354646409
1.576,-3.658466084591055,-6.346405166921613,-0.9335846311878413,-11.88347710130256,-4.71644217082212,-8.370892670587637,-4.073435153186438,-10.114596021092439
1.58,0.2518378844943072,-2.565082368299045,1.963596500128915,-6.082740396079316,-0.436227382542711,-6.929358819194022,-4.151740075006273,-12.037533652391176
1.584,2.1236970246282,-1.0318410817708354,3.037364003688708,-1.4242969512451964,3.0157004117681936,-5.61377676909251,-5.678068013632583,-14.937815652321206
1.588,2.890778574386786,-0.7380492693337146,3.019159750372637,2.463556816092023,5.787788863617607,-4.016327832825482,-8.026092948548467,-17.664409561710954
1.592,3.7580786371145223,-0.16832340217115416,3.0508719627141545,6.253789737827901,8.358120173765201,-1.98168277572222,-10.122535944040465,-18.745785592454922
1.596,5.500062193423219,1.7473089914547018,3.9813085054393014,10.344659415827664,11.07357105727533,0.18531568712023727,-11.131053806274622,-17.24327877378846
1.6,8.039037589619511,4.968759585792213,5.892411214870663,14.501464678924094,13.836311187762476,1.8080105486442335,-10.952155120245152,-13.333522741055447
1.604,10.517167836576846,8.335661672432252,8.09488586516818,17.918005960607843,16.115835553620855,2.191798357269363,-10.25101947721123,-8.28234900351913
1.608,11.79915429067114,10.20833814935395,9.559495499353943,19.64581249552066,17.263758677785518,1.0537122142668522,-10.011560888624444,-3.8184156309175705
1.612,11.09814399222887,9.35687548147871,9.486239195568487,19.0999173131313,16.89514249847707,-1.2404674108183826,-10.929942290132203,-1.2675846811957854
1.616,8.382471618395357,5.618866767239524,7.69724535028945,16.345833318941004,15.110181883981568,-3.7838858817158325,-13.003650198132163,-0.9227310351770939
1.62,4.354884670105093,-0.016925807154620998,4.656327703978604,12.01170546242065,12.410377574309678,-5.55400096179801,-15.549275511991254,-1.9854117452287028
1.624,0.04138710721235839,-5.920956757341628,1.1469293488116818,6.901663953030948,9.371240239850522,-5.930615326564293,-17.612053663881852,-3.0826780298930316
1.6280000000000001,-3.761532360684214,-10.621001513502051,-2.1694531086468487,1.563461186888162,6.28708079322314,-5.018459087907104,-18.504835842065404,-3.0555081710235754
1.6320000000000001,-6.857644525985961,-13.454439313249168,-5.0501090510624635,-3.915212024236098,3.0075051523235743,-3.587679497004501,-18.157437389413644,-1.5703842429079486
1.6360000000000001,-9.638574232012616,-14.738556786069239,-7.6670955306362885,-9.761532275661011,-0.9134247733036318,-2.66248796691616,-17.089980027672937,0.755022633241424
1.6400000000000001,-12.708256361704116,-15.413785849937994,-10.336544550362305,-16.11560363505123,-5.833744382503937,-2.972794182922371,-16.05847000988979,2.75367213197228
1.6440000000000001,-16.38402368503739,-16.411356160690048,-13.173611205707857,-22.644720310792763,-11.631700161138724,-4.580944678271408,-15.606538789324077,3.376249420584827
1.6480000000000001,-20.364135070471093,-18.104931932171894,-15.887495402246714,-28.427925963558664,-17.53891631877559,-6.887263904136489,-15.775307710821835,2.2366644026405993
1.6520000000000001,-23.742571186288842,-20.11745253328627,-17.832227413673536,-32.19857246884931,-22.310434520984927,-8.98114809328763,-16.127087115612085,-0.2387911381347294
1.6560000000000001,-25.364250036884187,-21.534319942991715,-18.272399313260394,-32.83715246190695,-24.65368582215342,-10.123078064814763,-16.008499746928464,-3.1118776091125255
1.6600000000000001,-24.33296928022537,-21.37980772892115,-16.718699374941934,-29.85993661014072,-23.721591156794602,-10.081583452036284,-14.883529189080036,-5.470101832922865
1.6640000000000001,-20.42656462211744,-19.099473356294766,-13.168392586976552,-23.661691309745947,-19.441352440002447,-9.154522593886213,-12.57293398649199,-6.880496927122294
1.668,-14.215596044217818,-14.808869527845673,-8.137689638824668,-15.394144618170685,-12.523479570916606,-7.890934682669467,-9.297235959237696,-7.526682357007985
1.672,-6.858742688091297,-9.242331423291034,-2.4993413948468515,-6.562116235996655,-4.192547561109677,-6.720520269806002,-5.56691576067351,-7.986255750296323
1.676,0.2997273398359539,-3.4652612053723715,2.788549592700292,1.451386057990021,4.211262291022649,-5.7338772974380845,-2.010467986706317,-8.826796107868404
1.68,6.139886501689034,1.4963430298503226,6.938708465080708,7.719076219069393,11.562394161290285,-4.742493071185891,0.788511455324624,-10.285201421753754
1.684,10.024744521921093,4.952318162591837,9.489079842587671,11.857201290571538,17.09769683264676,-3.55291781759297,2.4055006515263813,-12.202050708133811
1.688,11.843520365080622,6.687504391051334,10.340347253822983,13.90735740427408,20.394052607578487,-2.2459088658470137,2.6745547975624504,-14.208930761092233
1.692,11.873671589244623,6.911212467821315,9.688384038046934,14.13236691772181,21.255337833903468,-1.2515280887146218,1.7520440324879019,-16.00029874662141
1.696,10.563000024798384,6.072552086941869,7.89800829703745,12.851010042861162,19.643662709988348,-1.1463684931368334,0.11096071492283954,-17.48917849362897
1.7,8.339648870587553,4.631059017505322,5.362958453446481,10.372399601066718,15.712209524986974,-2.285007555035918,-1.571299788352917,-18.750322766723684
1.704,5.50008691056064,2.859361581460689,2.3827780308965885,6.994247553338937,9.891109749141833,-4.50378473874116,-2.642454562887906,-19.811296340251374
1.708,2.196715680467605,0.7735655475007661,-0.8992712907711393,3.00933180262291,2.9394711336553883,-7.1004366437719,-2.7340305182406155,-20.4546007275394
1.712,-1.5065350747790944,-1.8014053696879273,-4.482997504368541,-1.3231732190142793,-4.150996524071161,-9.145424531270692,-1.9212724949993571,-20.19354909480967
1.716,-5.5555310458548774,-5.0573936905148,-8.422820084197156,-5.83282908363617,-10.404682626533031,-9.963542003133625,-0.6736121320973325,-18.476394626088677
1.72,-9.833520809006586,-8.992425453921896,-12.688709790803841,-10.460082727244298,-15.167259871492206,-9.509348584424515,0.4140698202818385,-15.016393116883364
1.724,-14.107943093084032,-13.263390814345257,-17.02444079869747,-15.191640394070419,-18.30670872540213,-8.40175838964933,0.9857843777990638,-10.043813914015573
1.728,-18.009015254872793,-17.175669609265242,-20.873808203203225,-19.915538988429034,-20.174109084733573,-7.56983404955281,1.1809646868978234,-4.324622584393637
1.732,-21.08108537607768,-19.87696991003395,-23.465122272700683,-24.30378213653239,-21.36338733276716,-7.718535422474815,1.577731393999784,1.070225310806336
1.736,-22.8929493900323,-20.678063415543875,-24.05180085664324,-27.813871578677208,-22.378971204336267,-8.919629789972532,2.8265596842629748,5.122895203979851
1.74,-23.16373425439815,-19.34433275415904,-22.22071767288071,-29.835278397076763,-23.374953240083414,-10.554274462274407,5.183088586100894,7.172945243982895
1.744,-21.8646117193166,-16.223522430924277,-18.137829540613893,-29.93471430864156,-24.11084964440306,-11.657027213166657,8.222794066806273,7.030469645949324
1.748,-19.242717729110154,-12.123606816317988,-12.594218991962407,-28.0693858318009,-24.128867192162943,-11.473042426812754,10.959013148452868,4.894806354519915
1.752,-15.751369171135593,-8.008010133922653,-6.801126308135281,-24.641793870501715,-23.05811153400282,-9.90887983034736,12.328597214253023,1.185920743319457
1.756,-11.90200919313429,-4.626041004381477,-1.9811621767985343,-20.34004801563424,-20.846375529385114,-7.603901599501114,11.811413073548465,-3.5677873943529903
1.76,-8.104914778501552,-2.2505750715663453,1.069689766416559,-15.840998728337581,-17.795032148851533,-5.579083789623837,9.816324182216704,-8.739683121214057
1.764,-4.5809992894028255,-0.6610416091662046,2.238204569901427,-11.544447039988881,-14.401367289850896,-4.670779938087435,7.565377738306779,-13.580482815974847
1.768,-1.3747119915315125,0.6487890515400068,2.057283657592052,-7.482325893106463,-11.102951212204061,-5.072820025528927,6.492955948337112,-17.27762792251133
1.772,1.5387788505249773,2.1430196958626766,1.3823220059875894,-3.4581252245443466,-8.104212287216797,-6.251265859023988,7.444219835457261,-19.150482968784445
1.776,4.115883868456876,3.9717112608686875,0.9418300620527589,0.6642485593438323,-5.378114406516033,-7.279847171123038,10.130271637365695,-18.924613592182823
1.78,6.188362050623255,5.906238401395967,0.9977296010056307,4.725458830835123,-2.811694573312707,-7.380137944812304,13.193537561957783,-16.91877183018937
1.784,7.5229077680396585,7.487882415509375,1.275102174415224,8.236750828060394,-0.3982803497401619,-6.353951702512859,14.867618145735833,-13.975572341526231
1.788,7.968312905348284,8.304031053365179,1.2000859270483488,10.582304457990176,1.6811759141455695,-4.6576674563439155,13.931934055345664,-11.099466072189216
1.792,7.585255351175874,8.205826282362978,0.2838222097198013,11.33238069802428,3.1255467755909194,-3.0962990137868474,10.423676935466574,-8.958948827761787
1.796,6.662075286330946,7.350537854586946,-1.5640166613429756,10.473524373715918,3.687634958700073,-2.346691142412965,5.706133162459082,-7.526472426644432
1.8,5.589058464198388,6.060414388168283,-3.9660374465674977,8.407583802378213,3.327773917842933,-2.598992064169579,1.8373824392983806,-6.0961524189074225
1.804,4.650175460161336,4.6003639634418505,-6.281168519028142,5.7161736586131155,2.2424891434347956,-3.5173984655466484,0.5540556866194493,-3.714270425570703
1.808,3.8538943251951423,3.0330485995236813,-7.9457769825385185,2.8375886760095455,0.7522699679175275,-4.5216236373344145,2.4011585518719585,0.1833512278528815
1.812,2.9148542113762232,1.2300738726053169,-8.752992152934894,-0.14247668282769155,-0.8909980444477696,-5.190465923526062,6.452430312327579,5.292342756220705
1.816,1.4217226760738413,-0.9522805241067545,-8.894699734933965,-3.444001782243504,-2.6188898856325977,-5.515675396500228,10.773518913048974,10.428426436968039
1.82,-0.8798319764373446,-3.4436856951560912,-8.748669356069513,-7.305478392601799,-4.493502931236435,-5.844482324255296,13.380693737346064,14.034386332083841
1.824,-3.8541427364798437,-5.844924479116344,-8.557155573658747,-11.639932759992007,-6.518329192074816,-6.568629359702754,13.196219025701794,14.955880070323019
1.828,-6.942310796654056,-7.521591095077383,-8.214617583413201,-15.869112666725414,-8.442330154179217,-7.785426885411653,10.531853297869475,13.058012739413925
1.832,-9.375467271838716,-7.899541288485125,-7.3151434363044245,-19.07015622219842,-9.732610002214642,-9.168094246613691,6.8536222923321475,9.33184872612992
1.836,-10.52641624485841,-6.80247907822104,-5.436814437827707,-20.377775636092338,-9.779692622170842,-10.138742723744144,3.991792385831104,5.402824109368339
1.84,-10.21581316972879,-4.629370581205876,-2.4940304859937896,-19.4254404294079,-8.248519686982036,-10.241695124183025,3.227491909566197,2.6930084086920942
1.844,-8.806349902142756,-2.2586441341272803,1.06236278806864,-16.573599774093964,-5.3787789530633745,-9.472373962489655,4.704241298210945,1.6948287631164476
1.848,-7.016276743541312,-0.6804781046430435,4.347566239077423,-12.775129408706562,-2.0167729837903607,-8.332745338362656,7.4425787386735465,1.756557305557294
1.852,-5.557553938451747,-0.5464504656365534,6.400295471041318,-9.143888749085818,0.6737963939358451,-7.563550713484801,9.88215489747654,1.4970352975956303
1.856,-4.792729158521979,-1.860596479898959,6.62502842322283,-6.4502764316366665,1.7218575416791282,-7.711666046347091,10.645337820668828,-0.37446220629817617
1.86,-4.590481539540633,-3.974728679816508,5.080573796591125,-4.808883994312055,0.8268483051961084,-8.791604328291214,9.144667413755542,-4.294763967074687
1.864,-4.4479465585118305,-5.904487395355318,2.4562898633921577,-3.7207559056278114,-1.4703405206073512,-10.246107714372556,5.757131167021726,-9.561770328088528
1.868,-3.776798184348081,-6.775668315168332,-0.22072763081087032,-2.4100736628079176,-4.0075233659426885,-11.230724266287325,1.5667679654702624,-14.65929914289552
1.872,-2.1905026582389837,-6.194294193897804,-2.002293047036801,-0.2639820866770606,-5.5335697675727715,-11.054657591410432,-2.1555673797593045,-18.00003124408329
1.8760000000000001,0.345868572127074,-4.363126495994038,-2.3634777890019905,2.848928032162803,-5.298704230252042,-9.526016719413747,-4.471079858548364,-18.68744434371581
1.8800000000000001,3.5535320542585396,-1.9005348448754376,-1.3279595554158732,6.531903855968267,-3.3965654879539215,-7.007857837710617,-5.0578220971528935,-16.8920428470783
1.8840000000000001,6.997467385639538,0.5052904457106706,0.6344402005761367,10.06447585364731,-0.7005083370131615,-4.17393938270834,-4.196050628757348,-13.666376076084134
1.8880000000000001,10.232258174264643,2.409274271954928,2.841719954412838,12.70817811091365,1.5678532299343715,-1.6375989382177067,-2.51734024252346,-10.347214373911243
1.8920000000000001,12.845306568515298,3.7062985777147333,4.628920248513168,13.93990602915801,2.3959507702220435,0.31407164222127903,-0.7019234572931055,-7.889901436660921
1.8960000000000001,14.429954214181635,4.515168154757703,5.508473530870106,13.537088108489115,1.4163909835942832,1.7416153008689435,0.7560918783274246,-6.470996101195055
1.9000000000000001,14.585300664431998,4.975260212691865,5.261514204064952,11.53884275866585,-0.9640941199249937,2.8587498214537845,1.6562686272022802,-5.538185626556356
1.9040000000000001,13.013456381306241,5.096189276219775,3.97689950226777,8.170244075216033,-3.781084552457287,3.7754324055040343,2.07124487567944,-4.2376608693828075
1.9080000000000001,9.73049419272138,4.800382965330755,2.0690774219783634,3.830582010499711,-5.905587276454753,4.373892387779051,2.270631625794067,-1.9389517123050837
1.9120000000000001,5.249594589906337,4.096588119423359,0.21827706662770652,-0.8743174979263131,-6.456810913771733,4.401731333440694,2.606301632577015,1.4196443689888838
1.9160000000000001,0.577054748457158,3.2467590785254288,-0.7986403415961831,-5.131030628654116,-5.063881650280564,3.7163991757879558,3.3857432325644368,5.3127248892751595
1.92,-3.036825685063377,2.795042116935292,-0.3598845251417515,-8.017184953159813,-1.8983400475262897,2.5105307369858565,4.764209004040367,8.90753363903002
1.924,-4.537936842529234,3.387837519679124,1.74312061065757,-8.731334703908942,2.4636468207372673,1.34030148448619,6.66724336174957,11.455144552127194
1.928,-3.493499992055149,5.472840782537787,5.178121493525396,-6.874612094587064,7.273215004646772,0.9057672601393278,8.784764002767133,12.583925020356105
1.932,-0.28321646951553703,9.025958233231904,9.158460846532762,-2.6489859146331582,11.828599597578432,1.6913616740857833,10.648180827011402,12.387845980114093
1.936,4.067164745154514,13.48231518580269,12.745521835151521,3.1498476877895882,15.625976371503384,3.6672796845796256,11.782042065362475,11.313336827734133
1.94,8.34678420403361,17.933951006627467,15.235603962908499,9.380823925264849,18.425318362435064,6.244619731332023,11.891965236719443,9.9432199694146
1.944,11.667121222732021,21.48091218018999,16.40870594082844,14.936081027997716,20.223719754528247,8.52904479420613,10.989156026206729,8.789566412438944
1.948,13.76177807874592,23.56090313482582,16.509573465154972,19.081091131485664,21.159066896413606,9.751737240108014,9.392406892053714,8.162232342951711
1.952,14.932188342969312,24.077568184086886,15.966716380780781,21.60416874674229,21.36629466364866,9.652906224767321,7.586658321155937,8.134821338654888
1.956,15.702618178876946,23.28870019545502,15.03227219314249,22.730215724730442,20.86168408584672,8.608833745407537,6.016315949282671,8.593971687806288
1.96,16.404862127405067,21.55366990962375,13.570485554182596,22.870809377993282,19.50943163080501,7.42423926345873,4.916658969596938,9.328954926666484
1.964,16.94685379118164,19.113682110563786,11.147462630998234,22.36725769548866,17.113066829926538,6.9008465746446745,4.27074740728176,10.149351331846333
1.968,16.889120159217782,16.047973895574614,7.387113334074456,21.356827818612146,13.615182073529468,7.414296118558013,3.9251994998198825,10.984745810028016
1.972,15.77827156238709,12.416499047127218,2.3857012804028273,19.820846150967554,9.299643259547338,8.736990499757667,3.7786033483707797,11.936111267304227
1.976,13.517517939640129,8.469360387604866,-3.086657298819773,17.747725850678762,4.864439679813586,10.185484958396046,3.920465176021935,13.241553820345757
1.98,10.544610717282922,4.759839101178841,-7.755830281458657,15.286021633293785,1.2850125878740073,11.00795992856365,4.627393840694822,15.140147351834912
1.984,7.712687915533934,2.052298024483207,-10.322218142404381,12.786721072184264,-0.5065152238476003,10.80136692484848,6.209961840912001,17.68585906856765
1.988,5.929239120961029,1.0501582675397003,-10.011873511414706,10.698228014134656,0.011383489601030305,9.715610739547628,8.793977013593576,20.595730705301435
1.992,5.739607260059529,2.069346607792795,-6.916432067991991,9.370229153680157,2.7025901508495735,8.336632995707987,12.15329803142754,23.25060132741885
1.996,7.066806273383918,4.836515065805543,-1.9494798917357912,8.880636866612804,6.794208123888893,7.323070783054391,15.705561442958924,24.894528047133463
2.0,9.251425450533134,8.549062908634824,3.5617672980424686,8.997207513615649,11.181760719773592,7.0248451940015,18.706972322203455,24.968210877188312
2.004,11.357595666973793,12.176572507036326,8.428531833230409,9.30359423187565,14.875581660762691,7.312363058383198,20.55154169530101,23.419750652014045
2.008,12.604555793859618,14.878168789363826,12.023486486719776,9.436702963031166,17.391259650856227,7.7195250347103865,21.042527353386504,20.81898740681777
2.012,12.710757440425368,16.310509702776017,14.371832559930226,9.302161825910844,18.868974484730643,7.810187042392499,20.47046164997232,18.184181353015674
2.016,11.987762091674085,16.681240559008984,15.911127642511019,9.138521530491744,19.873663040432803,7.533822937391051,19.448984260111274,16.572083423898334
2.02,11.1634904083121,16.54453242951513,17.0938288877569,9.39502025280217,20.996774563003783,7.329804323697317,18.597618116732292,16.618239163908356
2.024,11.024254630137875,16.451399079457588,18.066427092338927,10.473296194818431,22.46732121781679,7.889908758887032,18.22408255960795,18.272293265271628
2.028,12.039170864224616,16.654120745876753,18.592780110579042,12.463548751654344,23.987944979514396,9.698885660843189,18.178671530195288,20.861121596882754
2.032,14.118186382901513,16.987838291253865,18.217428995681985,15.006261425635785,24.850005332227738,12.62812635408045,17.939109507977264,23.43538984780986
2.036,16.62157635894073,16.99022965960785,16.560648849830613,17.371599460856487,24.27396896553455,15.846142059526755,16.890930706396148,25.217956135647512
2.04,18.622595486111095,16.185747406461815,13.57400927134222,18.736134016474352,21.799086372227066,18.146346399621507,14.685514563498145,25.910989608130762
2.044,19.311560853923766,14.366220713233815,9.619880748055948,18.529038967015367,17.524886836285987,18.54623160465144,11.483634769612536,25.72439364844803
2.048,18.367843707259453,11.73440269780167,5.349239506806043,16.68593922265427,12.112296515650542,16.835195741628922,7.963872725910278,25.146013935326323
2.052,16.117812026721367,8.82671115454923,1.4556076168537402,13.685333549050483,6.553694015533438,13.757351815468155,5.088869603119974,24.629152340948508
2.056,13.392452548597248,6.262485191142787,-1.571729795763531,10.339140138052244,1.8322542186465398,10.689463394989616,3.7241858341290026,24.392668604295636
2.06,11.145582411718351,4.464533321202907,-3.582494649720502,7.437648142355101,-1.373835831614997,8.970435310542143,4.286514933816989,24.43425841690231
2.064,9.997879290566743,3.482148937660895,-4.74552367594606,5.414869981212178,-2.851362222680109,9.227029464033876,6.564252089172896,24.70111710981371
2.068,9.953203229377323,3.026298949804641,-5.381271457188632,4.20899350702075,-2.819514970959972,11.069903457437249,9.80600093602493,25.258499430209326
2.072,10.44721526178455,2.6905499231456815,-5.731505496180034,3.392815505956605,-1.751168477354895,13.33307138736518,13.036645729427619,26.319953273356305
2.076,10.708375126557257,2.240705883732062,-5.774245346910902,2.4990115487544244,-0.1319300429172472,14.725604260332602,15.459469689152002,28.09743019529202
2.08,10.244628431043566,1.808102175707063,-5.177306985508039,1.3590519274621329,1.7421291976688735,14.545701213968186,16.76987023054903,30.55559664459753
2.084,9.171600997664427,1.851010276139732,-3.4471092961221075,0.2582825757217506,3.833910196049146,13.056678768391976,17.223533628531186,33.24745360330195
2.088,8.188806560450757,2.9023903532647637,-0.2222653565040673,-0.18632000631077972,6.288537420193279,11.317431353244046,17.429147132054368,35.35816332482722
2.092,8.190647755581267,5.217001794474072,4.409257430012076,0.6330901527526294,9.234395270123514,10.5692276658624,17.964427719419746,35.97515123961432
2.096,9.717940698531493,8.512030796830913,9.739728891445338,2.94124468802147,12.56763617132765,11.514988429605637,19.00559249058051,34.465564032455404
2.1,12.566599879928617,11.967067269016297,14.550550803289298,6.385974275112858,15.840520520439895,13.896628545864587,20.16740231890435,30.76858489535357
2.104,15.79799714074943,14.511684582760154,17.51575018353833,10.152245875126937,18.33958103177065,16.611246087717063,20.669059516739026,25.477317005900773
2.108,18.185498459429255,15.30824735672877,17.772213997310246,13.342741547708101,19.37138718488268,18.306032639289242,19.779415818997677,19.6866838357966
2.112,18.859224977066333,14.171578368154314,15.38178416084611,15.415096730905134,18.615057256371983,18.121081585220963,17.297674486318556,14.681171097529898
2.116,17.78659154611705,11.701475317698169,11.423960216124215,16.430413417968794,16.363579529879644,16.17419081728667,13.808291396574987,11.59035913602122
2.12,15.79358282039584,9.029837001506621,7.596602507594525,16.950558581728274,13.474599181203303,13.514180745470185,10.527755428361615,11.09858689649343
2.124,14.078159269336538,7.252428426837014,5.436651982926378,17.611547076107854,10.971039020547323,11.549065339741901,8.746592678668094,13.256631927388526
2.128,13.471960403897356,6.823623916023507,5.513568079248671,18.60273184161406,9.464002788331072,11.259430567592972,9.117525552613188,17.415238312504528
2.132,13.866049220399418,7.221659219349931,7.012094640155738,19.359862295807034,8.693914091366878,12.629165486764578,11.161314383222475,22.31733603939
2.136,14.14471895055567,7.093663793305495,7.980415984877254,18.681424908844747,7.480201259351361,14.596187111579184,13.307944217107888,26.37473461713944
2.14,12.709665432728343,4.86375729871429,6.198983977309581,15.2579078382214,4.188645781661762,15.563474641545781,13.527218870704246,28.110200556510733
2.144,8.344496193687974,-0.47195225813970865,0.2911381031417477,8.37192482195951,-2.4452687284879175,14.215660410034616,10.298031254073976,26.669508568209324
2.148,0.9609985448432781,-8.729533472782578,-9.455834409961426,-1.5902273946376226,-12.51594541702434,10.221600997803307,3.46510532799914,22.20743950256957
2.152,-8.170059233852953,-18.42581970697438,-20.996545863440133,-13.096678405920557,-24.610452132065348,4.467321013280525,-5.476633390913321,15.94396936474277
2.156,-16.861595973084604,-27.264732509707073,-31.253125148000436,-23.962366766232662,-36.15878410708865,-1.2976932550539004,-13.851712671993027,9.791948926326171
2.16,-22.904009832942847,-33.006995536720524,-37.33729199801019,-32.14825499481776,-44.347609895389496,-5.2137457383962555,-18.837934838436013,5.659356032866299
2.164,-24.967440639364668,-34.34120664318789,-37.70171239823321,-36.4914986420672,-47.1962530974763,-6.0870368566904745,-18.613597257820174,4.7116468802393285
2.168,-23.078098604501065,-31.34593812094272,-32.678712538550826,-37.028908445384786,-44.28068516980693,-3.8308805201236282,-13.062508606295978,6.932248332390884
2.172,-18.457195119617154,-25.35216001873073,-24.181902902912952,-34.781762994312885,-36.78317717576306,0.6144821816797048,-3.742775418398992,11.199427938044437
2.176,-12.84815790157063,-18.294733449953128,-14.762512503489233,-31.14597726645343,-26.875080900162175,5.7813288950490005,6.824710335461987,15.83954665756977
2.18,-7.707028615584932,-11.879135414855,-6.524364021810015,-27.218427087022974,-16.781843551300653,10.30814693706202,16.178122798008417,19.36848960333299
2.184,-3.6680687585007945,-6.974315952446432,-0.4341829521717955,-23.394143121505294,-8.001392414760176,13.400372666299972,22.745985211358175,21.056584131149748
2.188,-0.5316352920499412,-3.4943182963020263,3.684467618479175,-19.411317356655672,-1.0266897603385132,14.935046707363654,26.141167887234587,21.04222179169676
2.192,2.2923597442131722,-0.7799348120111063,6.575681057968723,-14.767616184727558,4.372767034321896,15.2386590610663,26.869817469758118,19.995658216567108
2.196,5.1915375349831265,1.775403154821106,8.803463689380806,-9.23999790383914,8.582463399947073,14.738789918003022,25.72977435914345,18.58612589330903
2.2,7.980767484299577,4.243930532425111,10.30328206014974,-3.194432603417681,11.682709575535682,13.73034107215608,23.297713479231902,17.099987150928825
2.204,9.95837350444799,6.080720326986466,10.469285380700285,2.4763409605911875,13.351891535714913,12.370413920477404,19.760926101199743,15.428126286221982
2.208,10.334167133125447,6.47719034161355,8.676549983442783,6.734224058676091,13.1491644393368,10.845961066484733,15.133287201535268,13.376001288708324
2.212,8.756579842042811,4.911467324958949,4.865266391172554,8.871481251032492,10.927885224023157,9.536566125844274,9.626495776608635,11.054254463098061
2.216,5.590870047228918,1.5437510439916196,-0.2256416585878469,8.796749837212701,7.057812762555386,8.995129427216852,3.8582722598504233,9.043065023930069
2.22,1.7788689062520007,-2.7687974085795304,-5.340298501789221,7.001562970055829,2.2977826694339,9.716251291574736,-1.245587005351581,8.190984668044166
2.224,-1.6449817419063493,-6.8701656873003,-9.34573358433272,4.248675952707799,-2.6013547335387557,11.814622137682136,-4.819512839038566,9.147738584332814
2.228,-4.089540194844176,-9.86907998810284,-11.82843941232386,1.180418756596282,-7.267087972454647,14.825209274235021,-6.4464242109320935,11.921745692824231
2.232,-5.680543112651321,-11.54311297097206,-13.268538030272111,-1.9291951473860536,-11.790539101878721,17.79166395526636,-6.313756681233713,15.763533965312917
2.236,-7.113018652806204,-12.351928765647017,-14.662567876990124,-5.163984019704003,-16.448407415051406,19.63873501570231,-5.0430015121462475,19.463490589201854
2.24,-9.154030565972562,-13.042828978328544,-16.79773084180306,-8.728716169630843,-21.222583980361264,19.65168935519,-3.285174918802909,21.913116980861275
2.244,-12.085382005269821,-14.093858219540948,-19.610636550344452,-12.65145263309023,-25.457668453991232,17.81688522924219,-1.342762034607233,22.61772694979895
2.248,-15.419225237094906,-15.328376141331319,-22.035505919639036,-16.612247027116155,-27.91920408297733,14.832781849260414,0.9460663835773744,21.86662716723191
2.2520000000000002,-18.07445226695131,-15.964458078019334,-22.489282468540296,-20.0064712819094,-27.314053104387995,11.771074455291,3.9657284313183254,20.46857127262011
2.2560000000000002,-18.924782332015184,-15.08267796699829,-19.747881964811768,-22.192078628234867,-23.01036137232154,9.56170348751823,7.887068524341885,19.224895106469774
2.2600000000000002,-17.41417570059457,-12.230288169192363,-13.721079761220153,-22.763469060112584,-15.540912101508411,8.580318789464627,12.327331220901954,18.451376261508102
2.2640000000000002,-13.885292384883769,-7.806919272442997,-5.679788893401451,-21.692065339353803,-6.582312396734324,8.552090932341002,16.32319722055081,17.81753872438061
2.2680000000000002,-9.43386866326614,-2.980259812404256,2.2213392852822835,-19.25958307746123,1.6503798064367174,8.795026377660633,18.680725672664607,16.574831025014305
2.2720000000000002,-5.3714830437618275,0.8434186935877506,7.890761914405402,-15.850550644541045,7.296908070921518,8.647527986124715,18.527108519930152,14.027964754166291
2.2760000000000002,-2.5868010194627686,2.7190092149669454,10.229601061477297,-11.741535413517227,9.596903503976591,7.844764814061364,15.767074694224107,9.983049957381184
2.2800000000000002,-1.1542037569736294,2.6441127449356827,9.557199572816103,-7.025175215073546,9.104203581110824,6.64122529780218,11.183375254625957,4.916161389029156
2.2840000000000003,-0.4070607423979027,1.5346222367079463,7.3172095240202,-1.7222031538074134,7.259234630974333,5.627408691113942,6.111457091927377,-0.20878405185526816
2.2880000000000003,0.5732893775920047,0.7076474719438011,5.243219942686665,3.9918823601783515,5.5751368039314,5.356078482242367,1.8592622920395456,-4.3613795211497575
2.2920000000000003,2.3338199200971985,1.1392932382752292,4.439014798894732,9.593837808214516,4.852366531073926,5.992395457644363,-0.8572896149241274,-6.882530439508038
2.2960000000000003,4.648290157055158,2.909285037581469,4.859268270664643,14.203635216923885,4.835914500212311,7.180173030318258,-2.16420596099249,-7.719670447456288
2.3000000000000003,6.582044900079154,5.161964610840357,5.4655939373406,16.82444654555991,4.481531526374624,8.189407769233355,-2.8394537150311123,-7.360827015269962
2.3040000000000003,6.9894129424754965,6.594665312588802,4.935794431485874,16.742344884174145,2.6461096042448844,8.259083688605642,-3.805500857837643,-6.52791587070908
2.308,5.166991996540673,6.2085571694131545,2.5083386258672817,13.888693863304297,-1.1856913608820037,6.965140932178542,-5.56243079772878,-5.802896832695048
2.312,1.2971241863349405,3.8907485724253092,-1.5178230884553159,8.96583982057075,-6.542992178417251,4.435338034981214,-7.870060350808075,-5.35900992803122
2.316,-3.5796633001222062,0.49528144117061856,-5.901826200005871,3.2329699341563582,-12.15319509985136,1.3010482562794436,-9.842846253583161,-4.919069099843071
2.32,-8.070162224076057,-2.6325028683574487,-9.12808900578716,-1.9926305014339505,-16.562369397315706,-1.5865290975048083,-10.409739826587781,-3.956345446389875
2.324,-11.14537359313806,-4.438261290410196,-10.247787796646094,-5.897913421388353,-18.84891441745981,-3.5387899776234235,-8.920706435379486,-2.0286061163695024
2.328,-12.671403824877189,-4.77765422951029,-9.397635081217459,-8.516768079895655,-19.027451369279447,-4.335583452832225,-5.5682363423949255,0.9181633732523906
2.332,-13.456013498586344,-4.515378244058127,-7.697251757055483,-10.660958796758905,-17.94447264277187,-4.309661706051202,-1.3969681247605479,4.430179908264854
2.336,-14.776530107409371,-5.027823413343299,-6.581751500023529,-13.443451765422765,-16.735474345571106,-4.182612066775391,2.119340070117943,7.674623273733424
2.34,-17.60805706095516,-7.345245978704554,-6.930134081716801,-17.599068882057395,-16.13514620071851,-4.706209891747562,3.758718739238276,9.779480064546007
2.344,-21.97656583979881,-11.429744886493836,-8.492166285596568,-22.95541080963926,-16.04632710703993,-6.280549634424574,3.140900316955964,10.225376810252072
2.348,-26.79833179751006,-16.000519460447663,-9.946145970679709,-28.34351691463155,-15.595390627587562,-8.72765994269298,0.9368209256443265,9.086993724729922
2.352,-30.31156385129964,-19.050753735384774,-9.591860896364778,-32.03386605560422,-13.652294477956957,-11.33322303902412,-1.43601747170635,6.994556209749774
2.356,-30.90260259541583,-18.828228713699673,-6.318158247002884,-32.51493193667807,-9.533084260995679,-13.14893624332501,-2.5072476476112797,4.816376645569093
2.36,-27.91490030883574,-14.771132456469559,-0.31732437961545656,-29.234973506508368,-3.503356326646326,-13.409387456509307,-1.4941227040454805,3.2133019970276564
2.364,-22.02906399059816,-7.918599390162967,6.843779048549436,-22.933332813769994,3.175719445103482,-11.871408471480208,1.2553591006074498,2.2964474239002044
2.368,-15.0058244119532,-0.5418174608360005,12.865896785940777,-15.370453613569907,8.705654383839374,-8.905548278715969,4.361079929157597,1.5745983257502587
2.372,-8.92151609994221,4.821885799606093,15.744665805904106,-8.58634857343759,11.480989057083775,-5.305228768915413,6.014386687719821,0.2312745808573311
2.376,-5.2878682162247514,6.4531383470659875,14.64645284516223,-4.060919848093135,10.731701027722352,-1.9355288476868964,4.79632890610344,-2.4139988687837644
2.38,-4.471987797334805,4.142951118600081,10.203632854296984,-2.1776179887374383,6.782852010804731,0.6012042918434872,0.3434795684592018,-6.500383839955987
2.384,-5.683328625025297,-0.8383313948924069,4.100872877890424,-2.2412608909414757,0.8227886214892806,2.111357505467822,-6.462712255549718,-11.496263194307062
2.388,-7.503892131410566,-6.4318932344014,-1.8010270664917698,-3.004264420883146,-5.659358271855467,2.7154139223376887,-13.856561481390258,-16.413200855196663
2.392,-8.657376372646695,-10.767732948965204,-6.326406109553091,-3.3882991153952844,-11.484478874921479,2.611987995131585,-19.92838172206376,-20.23622697151255
2.396,-8.616841556811323,-12.936773585206083,-9.389461617565075,-3.0156708286720004,-16.150332210304782,1.8739535220521475,-23.386988932513987,-22.338182418691147
2.4,-7.761256786457579,-13.197271411106499,-11.776208590836177,-2.295448422342133,-19.814649527854385,0.4226623177740976,-23.994413565233515,-22.669426826943464
2.404,-7.0620663858271655,-12.599600117430214,-14.493213815099352,-2.082901819795552,-22.973249835435013,-1.822632363786397,-22.519970767144287,-21.647677595609565
2.408,-7.51392657527731,-12.286002851510716,-18.07780007196834,-3.1537541587758824,-26.02943334507222,-4.734517478715929,-20.258681755259033,-19.856209651674675
2.412,-9.616536066129584,-12.861645395987694,-22.24519727416464,-5.792873591876059,-28.98349233411443,-7.8731431391273645,-18.362139651479765,-17.734894226625897
2.416,-13.156374127424442,-14.13869321592108,-26.028130742697385,-9.695258976009882,-31.372491558654588,-10.590876021805002,-17.31106595696957,-15.43774561377306
2.42,-17.3486547331197,-15.322098634553754,-28.263595853538163,-14.160750512643517,-32.442089318494254,-12.303247431432055,-16.750441354505654,-12.897488001550542
2.424,-21.207173495126426,-15.4842518553736,-28.131725017321287,-18.411946340864006,-31.456321868024474,-12.776762969512674,-15.74290845700051,-10.010292597575813
2.428,-23.90853888957531,-14.022054969976239,-25.446286906915702,-21.818150350082533,-27.97848339736015,-12.239031428013732,-13.281957829560497,-6.8026349325904505
2.432,-24.984054669723264,-10.883063332541042,-20.601649500078338,-23.933875864836637,-22.031551586554542,-11.23094613592582,-8.82908798735059,-3.478102313538102
2.436,-24.320381769721507,-6.50681547908448,-14.295219994972285,-24.425057393103543,-14.12060753149649,-10.2949759499528,-2.644092419916433,-0.34953918474087686
2.44,-22.05268475603225,-1.5783385758587656,-7.244143385246161,-23.02915675943177,-5.138823783800717,-9.687586614896304,4.238572071184251,2.2635475643293717
2.444,-18.46673461190494,3.2238843088929343,-0.06633988802309432,-19.641419717210965,3.7953531709615618,-9.281393754927421,10.353697871543147,4.1025481270180535
2.448,-13.969076233353917,7.378339566910995,6.670538798999132,-14.490806142012843,11.551254045561336,-8.705502821139817,14.34043514590303,4.98013634838027
2.452,-9.09272900660153,10.543269521645357,12.35264777534212,-8.257275499050365,17.205778075140643,-7.626737723167935,15.440375150391617,4.7739521675072325
2.456,-4.465214548728227,12.512960237676339,16.322076813726426,-1.9818990500307336,20.22950328294246,-5.983230045410892,13.754090305111788,3.4586650690549874
2.46,-0.6846161352525542,13.209638447748944,18.048003365405293,3.2597360757172282,20.600964295419544,-4.013894791838311,10.179703094600654,1.1887074809281728
2.464,1.866257589080078,12.721406455794863,17.375487168694917,6.77489098676574,18.788400211694352,-2.0899436900035653,6.048686040537007,-1.6334639462587717
2.468,3.165857919922928,11.349692898227204,14.67978988084883,8.522823380264072,15.596577804960361,-0.48635150626341783,2.620166467459967,-4.3987212558268425
2.472,3.5631480275512786,9.59270238235058,10.799018297695056,9.067739056472874,11.914704568880097,0.741924542534889,0.651666015763567,-6.467888127375602
2.476,3.6152811741023925,8.019402196385386,6.7392219816813395,9.219301059101554,8.458313797745177,1.6920475435899789,0.21667500438667275,-7.430877912461028
2.48,3.832544308065053,7.083784016215873,3.2987865291254366,9.562592757153197,5.608456172291426,2.4114693560338765,0.8257928379555324,-7.308010125290366
2.484,4.460474260323053,6.953771988673907,0.8074294421473951,10.155607325207484,3.3931021507974037,2.7372166989057405,1.7656624670282213,-6.54828790791116
2.488,5.404982297362949,7.454784338835225,-0.886377921965277,10.562411023996901,1.6069093781100037,2.3153755504883975,2.487059775143507,-5.799962300230078
2.492,6.331394033534025,8.165023278113495,-2.198021712653599,10.192025927844043,-0.006325452317696545,0.8272266646758908,2.8411945302433423,-5.551761169793224
2.496,6.856860064961211,8.607247686487426,-3.49729803049172,8.713595193579522,-1.6010468631968706,-1.714828026588748,3.052750854253418,-5.862475183033723
2.5,6.71713241721568,8.449939886403854,-4.88509937637491,6.278768099961326,-3.1585149886793715,-4.814818186419643,3.4781989221991125,-6.345195602433307
2.504,5.821141054784903,7.61413355515765,-6.164504689735395,3.4103028972790526,-4.5151676831078476,-7.627187111165313,4.293353559439083,-6.4230301853539515
2.508,4.2019062316062445,6.261645304664171,-6.979958574474267,0.6415538123769693,-5.437277448370651,-9.332673078648668,5.302030917283901,-5.718503037866213
2.512,1.942061624044527,4.68667737288024,-7.012027846977844,-1.838276506819966,-5.7034305782533465,-9.547067789357015,5.9772596081606935,-4.334472416349968
2.516,-0.8392518836876661,3.1858489493267825,-6.102590179488743,-4.278036032688306,-5.154322346190838,-8.516865995492253,5.733401046307563,-2.8406075984394477
2.52,-3.9140657208545235,1.9832163223104544,-4.260561381787966,-7.113654888274596,-3.713789262646287,-6.974602930528135,4.27568511665811,-1.9643043815355554
2.524,-6.866485954031305,1.2039889604886866,-1.6063614305983265,-10.536705447509576,-1.4306085608272952,-5.728426562638788,1.8099689398521832,-2.1717579861191325
2.528,-9.106278545365967,0.8828835993472239,1.6672724003783514,-14.170604272760556,1.4697031264558973,-5.235320112157524,-0.9951397621020988,-3.3930087090263896
2.532,-10.031464894645978,0.9730526771111272,5.262334053263203,-17.096621024261367,4.543238521720696,-5.413911684026289,-3.296619063163803,-5.062276497112663
2.536,-9.28238337809762,1.3596944658265784,8.715128087033463,-18.246584718331633,7.159123287218108,-5.788860256144744,-4.469622052028512,-6.446572221207276
2.54,-6.949120835159192,1.8894576033444537,11.40141930602249,-16.950526456234,8.64733705970707,-5.858905283330387,-4.390909102569935,-7.063170035513963
2.544,-3.6098211773501134,2.3985925771464736,12.654437239510571,-13.333922523746878,8.5132038872066,-5.452714376783206,-3.494711576021473,-6.939944763625249
2.548,-0.13821113474295998,2.764300378827784,11.999866436512548,-8.31435584269957,6.658079252759308,-4.82927419288535,-2.565674085341925,-6.567208099911653
2.552,2.6499216613729004,2.94921069975112,9.401717148332864,-3.1945939411421023,3.4797281656904033,-4.464645610353273,-2.376229573822002,-6.5801030422703946
2.556,4.313731480639035,2.9955057149900313,5.3644795002364845,0.9065284253247228,-0.23319157854803052,-4.690630410909762,-3.3633269299911035,-7.37736656610673
2.56,4.909300288246413,2.977593545632544,0.8206751827779044,3.4802238953798224,-3.575715958364981,-5.430686663871029,-5.46415156831074,-8.905740621288288
2.564,4.849382375353798,2.923274579350391,-3.177794043501308,4.693286713905309,-5.875861269379811,-6.2170586074742005,-8.177624318048288,-10.720536900661813
2.568,4.593520725332837,2.766344713988474,-5.8300331751743215,5.100675019114533,-6.947264229935627,-6.496051793510333,-10.781297516002724,-12.261818314666101
2.572,4.369476518917963,2.3765712972183337,-6.83405333879864,5.229760355343842,-7.1091169718731635,-6.012232758868095,-12.592737755790722,-13.148708241226302
2.576,4.084196748778595,1.6543725491696932,-6.4032225613827904,5.296053711660079,-6.952705645603828,-5.01451748913928,-13.183697412393599,-13.309451046167368
2.58,3.4746389530960187,0.6526929076792385,-5.052925049322312,5.209046893154209,-6.958560654292796,-4.131813271896135,-12.468473112222455,-12.883579923605708
2.584,2.3938380256181517,-0.36120813077695857,-3.285342455704722,4.818830731970593,-7.173816584841006,-3.98334437115318,-10.682373803917812,-11.990110929060421
2.588,1.032651166089181,-0.9544135781620753,-1.3468450090117585,4.187787395614578,-7.123131547409685,-4.77175704492538,-8.285982645887543,-10.556627069505993
2.592,-0.10310505037068651,-0.7040156165460303,0.8114696614306922,3.66170117494039,-6.042980812600263,-6.125708618943463,-5.846678614151756,-8.355997581171806
2.596,-0.4622276063960271,0.5806806290468103,3.3698258893941784,3.678936774665999,-3.331788974212486,-7.301215807945937,-3.9246793703778167,-5.246190456622941
2.6,0.19086810360522577,2.7106414446859617,6.388021456768456,4.443028042604965,1.0228223173066908,-7.629740347188772,-2.955613532312782,-1.4585304154438745
2.604,1.5431969642859258,5.125050879201353,9.620229853639557,5.688863048404073,6.264916490406449,-6.936102523486625,-3.157494297569883,2.287643453864291
2.608,2.825703753597736,7.0992861713541515,12.532647367317168,6.751387840661209,11.09348375571517,-5.653208509373599,-4.467250820882214,4.973771820622261
2.612,3.2098935884632738,8.058566875731685,14.514411941316666,6.924633019593784,14.191830350392593,-4.562399604897564,-6.5449821030699695,5.710239289112195
2.616,2.3106402429220907,7.852092241475475,15.176956927845822,5.915184947111811,14.80914642143307,-4.305909743066877,-8.867034449788775,4.191436222734296
2.62,0.5079687732149978,6.850391758589922,14.571094762447956,4.108285365261509,13.102711615340013,-4.973722885496954,-10.876641483060666,0.91189579560222
2.624,-1.1375031749189475,5.7784204422112,13.174588091787882,2.444613821879102,10.027359392262042,-6.02640849527279,-12.162300794064095,-2.9982371206803577
2.628,-1.3698292503963785,5.361542510175468,11.648822693525744,1.947642040071969,6.8312136876720615,-6.611878740975044,-12.586588523884188,-6.2655977434330055
2.632,0.6100178722781493,5.943985116861313,10.478329343990026,3.1581524501725653,4.416162109371726,-6.086013445433309,-12.305382560329122,-8.042205169231522
2.636,4.6545243096993545,7.262726275973364,9.685575786326808,5.789214348496444,2.8983391013771325,-4.437846377009009,-11.687741340704747,-8.257870086362118
2.64,9.634440077060844,8.525052870636046,8.802264554041813,8.81468092525165,1.6287486981273105,-2.3500484978467284,-11.1533324022422,-7.575022347696404
2.644,13.899473664783727,8.763521632810807,7.12520251708338,10.955731130999084,-0.34751676666883213,-0.8558255429120436,-11.00810109545182,-6.971460526288212
2.648,16.005291676172874,7.312725029135208,4.140288074289401,11.29758191332985,-3.642717129736411,-0.7896193658743869,-11.35090888695106,-7.19637386156586
2.652,15.35851921727999,4.191332331287413,-0.09344202073680208,9.713554857531562,-8.048851251158794,-2.330640091398891,-12.069319705917565,-8.384129644265045
2.656,12.446398374486307,0.18206927916526183,-4.822873567998158,6.875678198777223,-12.51063774511158,-4.895378662691201,-12.912403307849218,-10.020432703525529
2.66,8.53968608338755,-3.458208546119522,-8.837027566569759,3.8577714138896226,-15.579071088880028,-7.442362260444952,-13.600596245174415,-11.268657616929005
2.664,5.044264287187161,-5.538354653969009,-10.961467987770902,1.5762948850820067,-16.10001773393742,-9.010722437836193,-13.924673961276426,-11.44849772734247
2.668,2.851269840515215,-5.4563004139172335,-10.563438918772135,0.3818475683674478,-13.75103510099325,-9.194789340488569,-13.78068415169696,-10.398884362775817
2.672,2.0046855652990416,-3.4736049025373177,-7.8252411801859125,-0.004498564858749887,-9.155264976321178,-8.309733018720635,-13.147079888046392,-8.536124128316203
2.676,1.8326476284564706,-0.598679152648856,-3.6435919796290364,-0.213478134383422,-3.5239645802835184,-7.163253364887623,-12.041090339791026,-6.586035279530108
2.68,1.4257635824315003,1.8724233818361427,0.7809497833841306,-0.8111855822062353,1.944912007835228,-6.580521851401045,-10.499732496776915,-5.172826310177811
2.684,0.17789480070086938,2.9270820274387006,4.451452069719835,-1.9946049766263059,6.556867765696552,-6.953165840795009,-8.595950748269388,-4.50078369269454
2.688,-1.8992671883775074,2.258922150881517,6.930773778164166,-3.547428479970222,10.253250001710057,-8.049124331163512,-6.471911423718893,-4.3114876342758635
2.692,-4.211309450509361,0.35670900132708994,8.385985955981141,-5.021572098071829,13.357467645260385,-9.158472295285264,-4.364247519683886,-4.115590865544675
2.696,-5.912317687631457,-1.7738657664367565,9.328349364076075,-5.998358936313707,16.136650082886717,-9.490828192813296,-2.591024235169243,-3.556112734919907
2.7,-6.304739833923122,-3.08144915541061,10.23928780244023,-6.238970397390403,18.497867475388375,-8.593069883751923,-1.4684458267952323,-2.6848417348501243
2.704,-5.101259112848766,-2.9127231334182397,11.287731380775767,-5.658740008133464,19.996332260445342,-6.558258377495349,-1.1984140162562653,-1.9776675739260554
2.708,-2.452673327872617,-1.2242830581735689,12.284063477963628,-4.201948556186835,20.130221771858487,-3.934613487185743,-1.7815417977176367,-2.089545497215852
2.712,1.2009573435780112,1.4857012905167721,12.848162927999965,-1.7620968830306083,18.694872921985734,-1.4080942371037963,-3.019350200624558,-3.489496135341824
2.716,5.31490539051174,4.445876110887184,12.661355709820782,1.7479876995239465,15.952503607383733,0.5486695993295143,-4.607860089794485,-6.165983365899308
2.72,9.368699970311354,6.948585083893249,11.65197332525031,6.213330635458078,12.514113175899183,1.873077189282867,-6.260046337261429,-9.555470933018114
2.724,12.90488793570512,8.578233768708287,10.010909708437794,11.155116210409687,9.00895562964206,2.853074327997092,-7.807044163473847,-12.733487303206402
2.728,15.540047185887488,9.274930247663178,8.067700161441735,15.751155765310614,5.785503676841017,3.8593042126590262,-9.202769901115971,-14.775621274127502
2.732,17.00825012752648,9.250105706906197,6.120648827268269,19.086678759094866,2.8377856551423974,5.034698333395227,-10.437208982398488,-15.119391531523377
2.736,17.23403870096581,8.814496756186372,4.316617303780731,20.51526593914832,-0.021823705946644623,6.123055507318895,-11.437860683025065,-13.78209704318877
2.74,16.373492899207122,8.216157851851221,2.63943186677443,19.930440216740863,-2.8720385935625927,6.552458617694356,-12.019149754096247,-11.350123261705676
2.744,14.747772982728748,7.534684488704897,0.9819681697040323,17.77137238551768,-5.505231022844782,5.730225987023459,-11.93489014693796,-8.745839105494383
2.748,12.668299305560595,6.6671997377377465,-0.747454728995308,14.747956815003818,-7.483634505078953,3.3904085751264574,-11.012831581783757,-6.877955616355479
2.7520000000000002,10.254191895610802,5.40876839934208,-2.5301418898857264,11.456166767113245,-8.383398271349051,-0.18595461210497888,-9.268442632669348,-6.298104260780605
2.7560000000000002,7.370350296619563,3.5852382592565846,-4.1883917619288695,8.112979311381878,-8.049476941372177,-4.216521168326835,-6.927757964237571,-6.995831458257243
2.7600000000000002,3.7697351313213403,1.205672846416519,-5.377042250818704,4.584164297260486,-6.6486784461912976,-7.714743701207226,-4.319617058416043,-8.414409123026985
2.7640000000000002,-0.6140114706677195,-1.4386696250755904,-5.620524106656376,0.6844686704775995,-4.493072303112513,-9.892589552233403,-1.7070032249636142,-9.680223641040186
2.7680000000000002,-5.402141931813276,-3.7901339618974816,-4.417899566334199,-3.457666792118289,-1.7654296579785296,-10.477688902644786,0.8301369898470057,-9.976284407796783
2.7720000000000002,-9.730207160477676,-5.179907459053766,-1.4220551130597414,-7.225501464622539,1.625732722054181,-9.789158168950962,3.3596879618302182,-8.917971320287307
2.7760000000000002,-12.51994731385048,-5.088251250688472,3.3521206207556133,-9.673118477846856,5.912394453659999,-8.53524922190445,5.9164333284471695,-6.765039699750901
2.7800000000000002,-12.955530174385785,-3.387076298996817,9.383074634927652,-9.946111174190264,11.129642297803457,-7.446676378086977,8.300589988727893,-4.359361468314603
2.7840000000000003,-10.918199201787957,-0.45798704464095863,15.653476861526997,-7.732810949428767,16.787634310387148,-6.9424626572345005,9.990617377746617,-2.7952187998756983
2.7880000000000003,-7.110129856171625,2.9178466299142656,20.897630634501184,-3.4619947849805612,21.844268366688084,-6.9821689269679155,10.294011060299908,-2.9360875252367578
2.7920000000000003,-2.774136894975527,5.86804685026982,24.024578390612078,1.8720502920364197,25.071044351764158,-7.166005962641066,8.704297687864596,-4.993013137855172
2.7960000000000003,0.8675797795485778,7.803901580783986,24.549086622385857,7.167522468454081,25.660567787829677,-7.007739381792817,5.274485668119837,-8.36917045804256
2.8000000000000003,3.162668389838018,8.677078015101188,22.81305765370098,11.695112745175265,23.726048878403617,-6.221458686483857,0.7779902737420343,-11.869888647967173
2.8040000000000003,4.25815648364005,8.955329141254651,19.845768574714384,15.32005085488845,20.343257049992644,-4.868914722983391,-3.487421667899298,-14.191632612659589
2.8080000000000003,4.8791709125234775,9.312654653367872,16.88571433536572,18.343800663112233,17.049174702027358,-3.310385151681203,-6.211840188242718,-14.483470277699837
2.8120000000000003,5.79631228352946,10.188396526029692,14.774388097458086,21.087555174663066,15.025773970362934,-2.0015389780169244,-6.675719581503131,-12.723350195004116
2.816,7.301610107640954,11.457102909782634,13.537911893501132,23.499232047061923,14.433107226378525,-1.2602732921718598,-5.123702399896388,-9.722383823109737
2.82,9.004990080310563,12.422758325637005,12.397964383196722,25.05031265410298,14.309642883964898,-1.1238118978246803,-2.677795655231421,-6.749023862693775
2.824,10.065426619924892,12.156164706115533,10.220935056045619,24.99987069652343,13.119053615197572,-1.3637480895124554,-0.8129764102436638,-4.943502067933082
2.828,9.721615172234578,10.022667496972645,6.2000001488090675,22.87546020787613,9.677128056686342,-1.6264178083370098,-0.6309422293290936,-4.802229009781115
2.832,7.808150443147497,6.11795163398574,0.42051184597403335,18.880784527319975,3.9414844076125064,-1.6074426522782232,-2.2962750558375546,-5.970919624408452
2.836,4.940824685839289,1.3518413552667425,-6.008634787257506,13.964159398597985,-2.7997820837495055,-1.1727791546711615,-4.941398370277511,-7.437357724166162
2.84,2.2576405478025663,-2.883229019109649,-11.354621514648443,9.475445991519791,-8.460515394519007,-0.3785746358933011,-7.085983125693247,-8.036553290229278
2.844,0.8464947188510905,-5.32402507912235,-14.02105898332536,6.5704990981369065,-11.159783478176792,0.5999493381251568,-7.380015662601778,-7.024920076245394
2.848,1.1749346350864016,-5.409166913821309,-13.287080414623233,5.683966944593749,-10.141171829776908,1.5733802463238362,-5.2895461132639525,-4.452804163614331
2.852,2.834342820893653,-3.5182403284686643,-9.658695759865168,6.357266260774395,-6.117613587280175,2.424911821423393,-1.3758680393260647,-1.1651322069580203
2.856,4.737541893249727,-0.7575467191768439,-4.654652358326075,7.505725392645672,-0.8782652622892329,3.136644814291685,2.9703411537511784,1.567172779823892
2.86,5.674414231393712,1.6183524196221697,-0.12283635739822785,7.991406719718725,3.626595996345941,3.7565209254660203,6.206231508036808,2.6115252412844825
2.864,4.923064549524497,2.825154760758778,2.5650100112338805,7.193082669385149,6.20297853402235,4.332730447613358,7.364256827223926,1.465532188334862
2.868,2.606018824077182,2.8908005622006385,3.058985705034047,5.282438269690829,6.862698380204847,4.844484864955348,6.471241268267477,-1.5510993144235954
2.872,-0.37599329792510616,2.5495742425434855,2.0627247258680654,3.0898163521392235,6.605706654180494,5.164056430021674,4.464057360961306,-5.478226899920287
2.876,-2.779787573761041,2.7616649305007286,0.8750788248116805,1.6627213250394561,6.717605553620388,5.081723658040573,2.668910856725347,-9.161321452162895
2.88,-3.588262863496311,4.146381523805303,0.7075635742676241,1.7632359683361756,8.023821957237033,4.401197334987046,2.143438215799506,-11.737076215720208
2.884,-2.4341851994186072,6.630256045961687,2.123784256325507,3.556396814225536,10.498645855712311,3.0794389301713636,3.2126967027478486,-12.915188474246179
2.888,0.29835024170097313,9.494660894483332,4.858114191992172,6.607399835771503,13.40083592488486,1.339198665269123,5.412457617992914,-12.95029480516672
2.892,3.7043051775699496,11.769497870079931,8.041939036888834,10.129460542305424,15.771071151956221,-0.3209135074596361,7.812572901393992,-12.361416617506876
2.896,6.774991002705065,12.729184936494221,10.660544533257053,13.308270363435895,16.94099875137772,-1.275370489029001,9.493997601827573,-11.590304812655404
2.9,8.78425000872221,12.215411614851746,11.975042021741956,15.536614092624404,16.75793212020426,-1.0480045037165837,9.914706100909711,-10.813874210374252
2.904,9.469689868205478,10.60269972069841,11.691961722528049,16.476018008444044,15.42306248079285,0.40570000598609113,8.9768804709895,-10.002575770547793
2.908,8.972015191825676,8.464822766650514,9.858560339136147,15.989642850177688,13.127495473904673,2.565575091494111,6.825973833392197,-9.163838798920409
2.912,7.611066997642411,6.157659638880432,6.6165781384636375,14.05275327357549,9.774435832492827,4.477353188793813,3.57168284403042,-8.578802376123093
2.916,5.648581711872794,3.5865852464968384,2.0292923473095925,10.73456135713559,5.012877416024594,5.134681601214652,-0.846924222089342,-8.828653121049342
2.92,3.1782451216172376,0.32059291465236583,-3.8757841402220947,6.261160096988306,-1.4173066499040488,3.9558827597909385,-6.523654773042949,-10.548535822294554
2.924,0.19362975454441766,-4.014996516318206,-10.875210261265465,1.0929728446703848,-9.2651842502014,1.1156230493763815,-13.26698968912956,-14.016852302169497
2.928,-3.2320686134503376,-9.292297706213276,-18.295647257809833,-4.075960396750588,-17.54659641034982,-2.4625263764571628,-20.323202913128057,-18.826727203374702
2.932,-6.765602997459155,-14.654345003555136,-24.93669070132296,-8.425308686631979,-24.691241379240637,-5.4734276532660715,-26.352295814023478,-23.854554199172725
2.936,-9.765161154944053,-18.687073249338596,-29.299605881185926,-11.20465954193969,-29.034439318040086,-6.802420868791614,-29.76415327286827,-27.59560171769816
2.94,-11.413078428294284,-19.927185003789873,-30.056783406089608,-11.923101800490713,-29.403193795229072,-6.010962327057541,-29.288370360624185,-28.734563570544708
2.944,-11.002631398685708,-17.500945735323057,-26.57043820095396,-10.457968838239367,-25.52479413644346,-3.4895137400603744,-24.52347566037838,-26.672959558087555
2.948,-8.264631228609687,-11.577447512605886,-19.212765265704775,-7.057402106399877,-18.08140277941959,-0.2208440091809507,-16.180579758938222,-21.75015393483892
2.952,-3.570714116113095,-3.4172120831076427,-9.328204392945054,-2.2652711454929886,-8.443894385383828,2.712759589313009,-5.893715107934497,-15.06605895218543
2.956,2.0850723867326906,5.0082607166217485,1.1486927595944962,3.171117029157813,1.7376102837790768,4.601022124211113,4.31339824626383,-8.021282311839002
2.96,7.3646553331886935,11.6900388271481,10.273136900373402,8.404076893605406,10.91349316246783,5.319483046384107,12.67915365528097,-1.8202694586223913
2.964,11.04372458865737,15.260366122514824,16.63849214220454,12.619119386384,17.875662999274482,5.2128450237341895,18.184065697835933,2.835633289761219
2.968,12.466933127110678,15.414648837321124,19.7037216214585,15.21504008646366,21.884829977510208,4.768649615975278,20.687344383041363,5.757506052126118
2.972,11.807883426399485,12.919861227938668,19.809071211716628,16.008052554972892,22.742079780991958,4.309567161708969,20.734881609791046,7.064069627244507
2.976,9.996136346748472,9.227835463520933,17.918779148832982,15.36330864325214,20.830893461319988,3.8832724440432003,19.185154994132006,6.949689857312819
2.98,8.314390768562134,5.87894459540496,15.209605552723133,14.133662533665301,17.0753245312261,3.3738246916872185,16.84646575584486,5.563987898489856
2.984,7.8262989250231385,3.922352103301023,12.656717386666969,13.355153845431914,12.721252541866193,2.7097855282939918,14.251975640919738,3.0592093089355785
2.988,8.887075830410595,3.5847476340863977,10.753574555467821,13.787445011504815,8.94286914304655,1.9886555438579308,11.620423122294426,-0.27769358506053266
2.992,10.975673587902065,4.299690224026222,9.438863261114193,15.510363720440864,6.386506537888067,1.422884111775602,8.945063874315508,-3.9503901071133356
2.996,12.941590947738177,5.051826132794872,8.236401213408499,17.801485639026623,4.874076675593301,1.1620942247648145,6.11373247906306,-7.3233544237236
3.0,13.559783283724187,4.877003550482073,6.5445537043824515,19.406425772337343,3.480727119725543,1.133270968502984,3.0164113264997354,-9.82136267133967
3.004,12.127432843110228,3.2812309113316473,3.955718013303567,19.110762035020116,1.0200686259483973,1.0393589517454984,-0.373744980013214,-11.128832654496136
