Timestamp,O1,Oz,O2,PO3,PO4,TP7,TP8,Fz
0.0,3.183231456205249e-12,-1.1368683772161603e-12,-3.751665644813329e-12,1.5347723092418164e-11,-1.2505552149377763e-12,-1.8189894035458565e-12,1.8189894035458565e-12,5.030642569181509e-12
0.003999999999999999,4.5644388106470615,13.379335960088383,4.215718124909813,1.411702205534425,3.405086232364397,-1.4971658773648642,6.0351037337836715,-12.421374242129133
0.007999999999999998,7.191724594562402,22.397850404632152,6.6724595406017215,1.856554934781343,5.292500644227175,-2.758149652512543,10.309378240078331,-21.90215028380169
0.011999999999999997,7.203818797689223,24.90778228463165,6.715975374955065,1.129127138680019,5.067580648617081,-3.449948757117795,11.91862789350074,-26.699987176407774
0.015999999999999997,5.6401650142383914,21.97562041728696,5.216818148586071,0.024109316745693832,3.4329475648039534,-3.1867936666719743,11.195737258334248,-26.895052270091668
0.019999999999999997,4.626178419036478,17.157734187363985,4.053766515414736,-0.11709359831797883,1.9943513687956056,-1.731506783998043,9.433429628332192,-24.16012755293937
0.023999999999999994,6.021098129242546,14.463478070039343,4.951247747877915,1.701900620678316,2.3178728740818997,0.7627311858859684,8.104280154697676,-20.845246524652993
0.027999999999999994,10.203754253903412,16.177819838266203,8.379363312070154,5.37638884527837,4.99488669171717,3.6662113999790336,8.050407843652692,-18.87923732893151
0.031999999999999994,15.74893741413689,21.753686996045587,13.19295632232263,9.57748060521817,9.261570649440728,6.047603600468847,9.106697919569001,-19.042192539692678
0.03599999999999999,20.202611183439103,28.32804295521686,17.228534179535473,12.377202537965559,13.384751544880714,7.060528748551064,10.328055649931173,-20.912179721786202
0.039999999999999994,21.488398094168588,32.48065099894234,18.50525417856852,12.283769014402083,15.574342124434224,6.349241052744787,10.640316360998554,-23.39598093278613
0.04399999999999999,19.051694530778605,32.13539919496617,16.29287744317469,9.060956029103863,14.8737835462141,4.221488054430893,9.4692242174427,-25.452893687641904
0.04799999999999999,14.087221851875256,27.558609658720684,11.455626239792196,3.8725537611886693,11.55175242404772,1.4917329060392603,6.992167788285627,-26.585095454891075
0.05199999999999999,8.78042501290247,21.00885312056738,5.926281370902643,-1.3084143123900276,6.838915546485737,-0.9068639552918967,3.9342540980615297,-26.873307461059994
0.05599999999999999,5.070009475494317,15.382317247680703,1.6757483651595066,-4.672189809480187,2.227266449745912,-2.3358652214147924,1.1162293519502384,-26.645615731314706
0.05999999999999999,3.696914555857802,12.707529318654963,-0.20844570672431928,-5.371349850224078,-1.232762466634938,-2.6603751314606825,-0.9338330791351268,-26.0833936436768
0.06399999999999999,4.04566814606369,13.28923643682407,0.13055384352503552,-3.7578405932158603,-3.269408535386333,-2.16440099126919,-2.109765167494089,-25.053823946166688
0.06799999999999999,4.784333136679152,15.871442503989499,1.6526803855522303,-1.004404949952459,-4.244451612937837,-1.269159668466159,-2.5822369683429827,-23.278457925695335
0.07199999999999998,4.803590970564301,18.571694967256178,3.1427436221961216,1.5921905405923553,-4.707637146522984,-0.26748026591320695,-2.5485448743436905,-20.709219348943293
0.07599999999999998,3.8493594986995276,19.95709342806589,3.852827997601935,3.2015496739611535,-4.984505197163571,0.7597014036607561,-2.085037260362384,-17.83162849537237
0.07999999999999999,2.4950297746196384,19.652531853855805,3.726726115200563,3.6551339016722295,-5.043028798877572,1.8355436328426435,-1.1942510744078447,-15.6421460225788
0.08399999999999998,1.5292691801404317,18.208314101988833,3.1601673687413268,3.226891131237835,-4.667274852008916,2.899723268079242,0.018215559981229035,-15.234950003900934
0.08799999999999998,1.2859259982935782,16.498166531449783,2.5843470075743653,2.2753406661885265,-3.7379016177604285,3.724809083750131,1.2348075378748717,-17.202306210563762
0.09199999999999998,1.3983382935344935,15.128653772395694,2.1970012031226815,1.0241596385161529,-2.381283775469683,4.011520634839144,2.0169914268731475,-21.193803598677505
0.09599999999999997,1.1219487256124694,14.222753091412415,1.9858944009672541,-0.4055707233422936,-0.8890653838366234,3.5925776453261733,2.0685048553107492,-25.90815441764414
0.09999999999999998,-0.027348786785296397,13.618974019475843,1.9410455957971635,-1.809947793532615,0.49694569601354033,2.593188530023383,1.4650662843901614,-29.573393048755918
0.10399999999999998,-1.8294623673969568,13.189724841201041,2.1842797715023607,-2.8045704454211204,1.7175671529728902,1.4020152115641622,0.6284731598417466,-30.697993308587897
0.10799999999999998,-3.4385965691447495,12.998321862612727,2.879695752649127,-2.947354714992912,2.829308381868316,0.46237327887138235,0.04503899106404674,-28.72600692074647
0.11199999999999997,-3.9512249052716015,13.183622057723852,3.9740357198979837,-2.0376897700869563,3.784299876765658,0.00787366760880559,-0.11134867896231526,-24.285805183525525
0.11599999999999998,-3.069020576272237,13.714025275081667,5.003430031303765,-0.37382984703367583,4.255067926356219,-0.07945825551331609,-0.17300241171329844,-18.919023228743768
0.11999999999999998,-1.3828787583498183,14.27205285769955,5.208912568097162,1.2717924245362724,3.7112056442537664,-0.172481598173988,-0.7989745701880508,-14.416814073475265
0.12399999999999997,-0.07292656101128614,14.388661486804608,3.9550597253766,1.9941480048105973,1.7632461272449973,-0.621918357401114,-2.503567365609939,-12.066170837982398
0.12799999999999997,-0.19223172603096828,13.768290485638545,1.2236242962471238,1.2469885545431794,-1.4250123641605228,-1.48657302839041,-5.177791835943282,-12.15144298387419
0.13199999999999998,-1.9749993373889083,12.587703799558994,-2.148190904425121,-0.8001913316035143,-4.942700173090998,-2.4524418394429404,-7.920799213994229,-13.924771017260682
0.13599999999999998,-4.630572290023679,11.513168596372793,-4.724465506578895,-3.287029441019854,-7.377472703663898,-3.0150121386621436,-9.355558582697029,-16.034710945535423
0.13999999999999999,-6.771582179276265,11.366557693222262,-5.153084592506275,-5.081010589575044,-7.448047353035861,-2.809793752246378,-8.302866142565676,-17.18046163204673
0.14399999999999996,-7.244779678336499,12.579494741471763,-2.942801444837869,-5.378483950305508,-4.7172693154684,-1.8719803627828924,-4.474546765725449,-16.662691205725167
0.14799999999999996,-5.8301834662296415,14.813200253898344,1.1509174112477467,-4.12335262754732,0.03989735476318401,-0.6409587475048966,1.2282085066173636,-14.594658498857797
0.15199999999999997,-3.3704973076619353,17.043447657028878,5.417802592022213,-1.9904009564464786,5.09713046274851,0.3045899014417728,7.0410920163567425,-11.716142387890159
0.15599999999999997,-1.251377104290782,18.099630829365537,8.03572124606012,0.0412528087284727,8.57270924563204,0.6013998183719877,11.13437928630276,-8.966088832569255
0.15999999999999998,-0.5523040462567224,17.35221716036807,8.012917850417807,1.2618657769347692,9.347472501467905,0.3188484083733556,12.466523585082655,-7.051953101081153
0.16399999999999998,-1.4121158527146918,15.098606382333742,5.686083734197382,1.5927947927265222,7.598295351809043,-0.10889171160954447,11.217724752441768,-6.2180698033115505
0.16799999999999995,-2.9789058328254896,12.403216721519243,2.494589874527719,1.5400570094070645,4.6518963954990795,-0.18437574133668022,8.593298123219967,-6.284451848760284
0.17199999999999996,-3.962187959135804,10.479234320060357,0.16133312221290907,1.7849639407395443,2.233246549062642,0.3011113372787122,6.138139141458566,-6.894700348459708
0.17599999999999996,-3.428254444579011,9.995309366409344,-0.2380562512275901,2.6909538126457164,1.5450629866742247,1.1018606354724625,4.960069866727849,-7.79160958460082
0.17999999999999997,-1.3333651048426418,10.738403688491474,1.2188901206081937,4.059336974566804,2.7008046171367823,1.664708528941219,5.297088499388622,-8.93293703947694
0.18399999999999997,1.4920736635127696,11.798558731938044,3.4584102284809433,5.258674350773049,4.787305485667957,1.486571889194579,6.573594557867693,-10.39692740014209
0.18799999999999997,3.8838436154849205,12.170511178544984,5.1186292451255895,5.654267078484395,6.486101918068584,0.4688119750212536,7.868256577356817,-12.155551603041744
0.19199999999999995,5.0797395067004345,11.42319859930626,5.382359007563537,5.075505222783704,6.876641130218786,-0.9558991917409685,8.501503475529773,-13.892022402525129
0.19599999999999995,5.183129248400064,10.014964011970733,4.4322394144804775,4.004767598143189,5.938637820413987,-2.0260612120644055,8.385484135705042,-15.02047549795526
0.19999999999999996,5.084838074747722,9.063449393010501,3.2990376190946336,3.367850581994162,4.492572788629445,-2.0546612695030717,7.981738385845745,-14.916249770794025
0.20399999999999996,5.86013271293109,9.653516268302269,3.1884188939077376,4.004540404516547,3.627009495377365,-0.7993688650469721,7.915777085754485,-13.23634273122525
0.20799999999999996,8.027046057306961,12.108905816289393,4.710384802823,6.128213193610009,3.9809910850016195,1.4181810442998994,8.522351914160822,-10.149002975071085
0.21199999999999997,11.12212307304435,15.689830441742401,7.48662646755497,9.096236089647164,5.331042925996712,3.894282712612039,9.621557280033755,-6.330210085200463
0.21599999999999997,13.84635266071291,18.89997999487764,10.34815336868246,11.625654348695434,6.71240666612357,5.889086462300952,10.645816775775245,-2.7156361601079197
0.21999999999999995,14.720271907657889,20.238242432168363,11.99605460793532,12.371166876993811,7.000363994175132,6.946421166693881,11.019878378965586,-0.1127200342245942
0.22399999999999995,12.850901968500011,18.93496824535373,11.705228070050453,10.551936028311957,5.587748252236111,7.011642442460243,10.527895821919401,1.1406588654782013
0.22799999999999995,8.412896582240137,15.300790856484241,9.685461277684908,6.328518725641743,2.773780537465541,6.3242070556902945,9.465246673021738,1.2930313155303566
0.23199999999999996,2.6261901152117844,10.552925655991544,6.942036426998811,0.7769434146632648,-0.3303290544254196,5.210226230044782,8.515537827187359,1.0209418991591406
0.23599999999999996,-2.7680591786609057,6.218324611156845,4.730944689292073,-4.533369938647411,-2.326780461936778,3.922471806344902,8.416824042571193,1.0894480755922018
0.23999999999999996,-6.233051573923149,3.4745436284808875,3.9389428510164635,-8.143171369197034,-2.196493161800845,2.623060805461023,9.608377624783145,1.980685204599581
0.24399999999999994,-6.992047026801174,2.774145958378881,4.727073380835691,-9.210877055169476,0.24835235771251973,1.4697993519396277,12.03766879959511,3.6501291754768204
0.24799999999999994,-5.199556963394343,3.8594216508394084,6.577203285571386,-7.734599297126124,4.314766221442028,0.6901273884730017,15.184502345769374,5.516808236554596
0.25199999999999995,-1.7089242210506654,6.0516934894719725,8.644269963194802,-4.436697830379899,8.762621710142298,0.5615780080636341,18.25455916700446,6.68336076027515
0.25599999999999995,2.3784499675689403,8.590995937937578,10.174170070760738,-0.41135275244755576,12.329099892902832,1.2746637530831322,20.446638679630098,6.291896222827802
0.25999999999999995,6.1390908390121695,10.865314102469256,10.773460036607503,3.2987719033271787,14.18944305664536,2.763204466203433,21.203127592213036,3.863618145626333
0.26399999999999996,9.075618851894887,12.487594942527494,10.444099616333233,6.039658028630129,14.175877945496268,4.646169844091673,20.3782795716794,-0.4893915010707701
0.26799999999999996,11.118389316240382,13.259422882279296,9.419054067982415,7.672637569143717,12.691298962879273,6.35204491182094,18.27622759479084,-6.050439944018194
0.27199999999999996,12.45279775228505,13.121462707258388,7.953912796938084,8.478798171584913,10.412952361814177,7.3852955950703745,15.541560359782011,-11.68091758158289
0.27599999999999997,13.318200664511323,12.17009781572358,6.22210438399884,8.923205003557314,7.96344790533567,7.583912644102384,12.950903927874151,-16.14538078865587
0.27999999999999997,13.888303946231417,10.714009882970117,4.3499232046258385,9.391666223421907,5.694739773324272,7.200421764577186,11.173614521186778,-18.507078691948777
0.2839999999999999,14.244573833958384,9.26262915533107,2.524732802559811,10.012228385804747,3.6619155179473637,6.749526353399688,10.57823031809346,-18.451901957752114
0.2879999999999999,14.385264672150697,8.365913528660826,1.0452224114410456,10.608711554658157,1.7481290460291348,6.708295414392069,11.139179371608975,-16.41301490548534
0.2919999999999999,14.228446803665975,8.338844577058353,0.23407926409777247,10.786694700857879,-0.1564462779756468,7.238321985636958,12.471940930987103,-13.41316768789784
0.29599999999999993,13.603159689891982,9.038221934248895,0.2576869833778801,10.107085985803451,-2.0238435699304773,8.096744882502662,13.999754899666414,-10.669691214051113
0.29999999999999993,12.280121953054504,9.879705879900712,0.9888902998814046,8.283332323875129,-3.6583089675948486,8.790933197042932,15.200057932837353,-9.117263262366123
0.30399999999999994,10.06955527005016,10.120678997984896,2.0063425731118514,5.3192106082701684,-4.783529621423213,8.876283853760924,15.817217169772562,-9.047000047266522
0.30799999999999994,6.974869069610577,9.279874331975634,2.7722219933318684,1.546114079249719,-5.175134669352701,8.22853651016203,15.93660413357452,-10.006364522980789
0.31199999999999994,3.299682438938362,7.422496713179271,2.8881163131572976,-2.467184805052284,-4.774354038552019,7.131959230034909,15.879345640003748,-11.020011025098256
0.31599999999999995,-0.38527693094647475,5.120065465870766,2.2685039199270705,-6.108831621666013,-3.74009401252556,6.126715632070727,15.968851102865187,-11.058649786023693
0.31999999999999995,-3.405900802776614,3.137342663314712,1.1621135387576942,-8.919461829550528,-2.3848763487558244,5.712063365965605,16.32725167297656,-9.544690553236876
0.32399999999999995,-5.2213487686185545,2.0216498838990447,0.00796043746322539,-10.709522140253284,-1.0407639749778355,6.0742820316611414,16.814631561624424,-6.671115406498757
0.32799999999999996,-5.635527025754527,1.8213324355594978,-0.805705902479076,-11.571027511378361,0.057281392452523505,6.993917454642315,17.122211582632758,-3.3808043077503953
0.33199999999999996,-4.865144858986696,2.093085547322744,-1.1458590614602144,-11.78311732259317,0.8113825465140962,7.9807721717165805,16.952064388852364,-0.9947692442096923
0.3359999999999999,-3.4261293557815407,2.1896995314818923,-1.190358308762825,-11.66131613221387,1.2089445322494612,8.543503488597253,16.171077273724222,-0.6658448693406172
0.3399999999999999,-1.8719969017492986,1.6837759586694574,-1.2851522331075103,-11.400025534470842,1.2434934708956007,8.439265710238942,14.866190190539896,-2.9099601442330822
0.3439999999999999,-0.5240268432880839,0.6689151444388699,-1.687429276686089,-10.978522205755326,0.8817581862631414,7.763669660540927,13.273629644754351,-7.42184954302536
0.3479999999999999,0.6491379599260654,-0.251222783107778,-2.3572883950084815,-10.176023910308686,0.10943847692874442,6.8542908415713555,11.628574914840442,-13.225619767313788
0.3519999999999999,1.9476271577186708,-0.2779562570458438,-2.9214113950665705,-8.682828066114553,-0.9676062904113678,6.087389459861015,10.026193363452649,-19.065698650753006
0.3559999999999999,3.692678585421163,1.13580562891093,-2.8493705012274404,-6.279440894790696,-2.0588314915439696,5.679053989179465,8.371952958157976,-23.862879471430233
0.35999999999999993,5.995781287178943,3.9974612317607807,-1.7271262973326884,-2.9894732399175155,-2.720681602641662,5.59713377089065,6.474196726620903,-27.03316705488089
0.36399999999999993,8.671206174380131,7.790399875455023,0.5174662173653815,0.860885957647497,-2.5059769713368496,5.6139754621910924,4.235917130965845,-28.554727041357864
0.36799999999999994,11.319296531832606,11.74728523707995,3.547457030427722,4.696429871955843,-1.1844621173909218,5.452885038695513,1.8250928216817783,-28.796867618878764
0.37199999999999994,13.526281064010163,15.19464304555413,6.741313948165953,7.856046632194193,1.0873439319509544,4.936430320642103,-0.30024728733496886,-28.227944183416753
0.37599999999999995,15.03780699363233,17.763047558348944,9.43204270749493,9.795364138619789,3.746449138001708,4.0533309506788555,-1.545712458477965,-27.171980151140815
0.37999999999999995,15.808716693103634,19.396782034890748,11.14940479093093,10.256896185627738,5.998793671685235,2.93288604973759,-1.4363497982892568,-25.72981873389722
0.3839999999999999,15.929191052257465,20.209236611524148,11.756189953432113,9.346934644963312,7.128576633461307,1.7626548732027914,0.12828395385736258,-23.869284959539755
0.3879999999999999,15.495984965993557,20.304384470042805,11.420260456279266,7.484586377980577,6.788093133827715,0.7031639992101191,2.7496424984788064,-21.593223781217034
0.3919999999999999,14.512558916239414,19.674147966768487,10.455985128427074,5.232615298161363,5.132074066325458,-0.14484740709622201,5.596229662730366,-19.050010467746347
0.3959999999999999,12.919823162442299,18.247923760325193,9.162540414834439,3.0934763607751847,2.7526306297365863,-0.7218764823044239,7.678462406784774,-16.502985968109897
0.3999999999999999,10.741250239564124,16.061268509138472,7.754237081569045,1.3621249570705913,0.4611845261702001,-0.9760922840944204,8.250172549110744,-14.19741673113731
0.4039999999999999,8.199105878545197,13.392810213097619,6.385929228106761,0.06868200299686578,-0.9880953043523277,-0.8597127941627605,7.155101777082109,-12.22702197624767
0.4079999999999999,5.690195061285976,10.743757236494503,5.206906644310948,-0.9861492525192261,-1.128509240887979,-0.3688130140001249,4.934580916757227,-10.501546734375552
0.4119999999999999,3.609624298804192,8.63795544735558,4.3541223988240745,-2.1250284543343696,0.0947740421738672,0.40792078279196176,2.6025819573206945,-8.861759134384556
0.4159999999999999,2.1133272544398096,7.355112317471139,3.878251193473261,-3.6552407021249564,2.3235140026920362,1.2727637607295037,1.1818226297268666,-7.274822923914826
0.41999999999999993,0.9940060021458521,6.784097187873613,3.6593449313618294,-5.741414497168535,4.901286036733609,1.9516134486486862,1.2243853278350798,-5.997075786279424
0.42399999999999993,-0.20289242387070772,6.4924212370788155,3.3971298088413278,-8.318037543798255,7.066039042990724,2.177740258312042,2.553140008784567,-5.580238398277288
0.42799999999999994,-1.8467521516204215,5.9936745800905555,2.736431627631646,-11.052370636413798,8.180966097747842,1.796008194494334,4.365155374651181,-6.661324120996369
0.43199999999999994,-3.881690661381981,5.048740234816478,1.4811414975010848,-13.39184835628157,7.937649951009689,0.8249018590399828,5.657082358795947,-9.625991703532009
0.4359999999999999,-5.705114657695049,3.8214909143796376,-0.22735315164845815,-14.706036293355737,6.460107180845853,-0.5502780452311526,5.745908012575114,-14.325578174170118
0.4399999999999999,-6.383296231580061,2.8137250186175606,-1.8896423264577606,-14.498925268945186,4.257019204057997,-2.0530384048938686,4.606983465361964,-20.03365780343563
0.4439999999999999,-5.1107807496805435,2.621389492824619,-2.828967143137106,-12.611358411774745,2.03873604415503,-3.4116406702869426,2.856540554130447,-25.680553277531317
0.4479999999999999,-1.6754902553348074,3.6349057058569088,-2.5147324082199702,-9.33271979428082,0.4537736527806828,-4.424573220605453,1.3757288495896773,-30.250260940519638
0.4519999999999999,3.3308132339266194,5.827985589122818,-0.860905997302325,-5.354403154878582,-0.15180934227373655,-4.979386056323165,0.7889220969129838,-33.131343424506895
0.4559999999999999,8.708278261792657,8.743396567453146,1.6764789433777878,-1.5519054572691857,0.17182197946226552,-5.031537920049686,1.1050647771509148,-34.2424664699804
0.4599999999999999,13.175815921672438,11.696738723012913,4.290599750210276,1.3375264903320385,1.0811417376344252,-4.5785082778597825,1.7427541259717145,-33.898363159700466
0.4639999999999999,15.934766087775643,14.065363697261773,6.2021101829377585,2.988392884208224,2.168002125396015,-3.6643755100026283,1.9249087732462158,-32.52611966574193
0.4679999999999999,16.94595335345457,15.488776129737744,7.005125098884491,3.5630990531981297,3.1745634696283105,-2.4147589747576603,1.1870496206896632,-30.42969727956438
0.4719999999999999,16.76696749757184,15.876878625148947,6.78418871181384,3.5309932774271147,4.056534168137887,-1.0765137304592827,-0.3190696450596988,-27.75022969365989
0.4759999999999999,16.060312793259527,15.256176905317716,5.945544339948356,3.3157024670231294,4.872023435371148,-0.003982584915775078,-1.923253884485007,-24.619804191596927
0.4799999999999999,15.12717884895028,13.629282102295974,4.91474797560295,2.9971138153723587,5.619660543836744,0.444975035196876,-2.845042773000273,-21.356274113242534
0.48399999999999993,13.76383609551931,10.969777299188081,3.9031219371186125,2.248314264475539,6.1587222960301915,0.05467460600539198,-2.647470836217394,-18.5131370085046
0.4879999999999999,11.524146293654667,7.3701330450403475,2.8934091607229675,0.5630085682832942,6.295273642720986,-1.1358330045754883,-1.4499001617168688,-16.681183586459383
0.4919999999999999,8.19231412367526,3.2145233679148077,1.8213435370621482,-2.357092920778996,5.972536546721813,-2.823868706648227,0.21290520221509723,-16.136469676629872
0.4959999999999999,4.130241290052254,-0.7886288185738977,0.7880620467531116,-6.283753807644189,5.422364757886044,-4.568007319420076,1.7713621276909635,-16.56717941654074
0.4999999999999999,0.2526310040152566,-3.7827463270837143,0.13320700012081943,-10.414031191498907,5.142265195674781,-5.9921090702744095,2.9962254239677577,-17.103580181833763
0.5039999999999999,-2.38917640183854,-5.099674648462269,0.2813451994306888,-13.652729670282042,5.665044720602054,-6.959379982885139,4.109533636009132,-16.699470734849115
0.5079999999999999,-3.1690235521100476,-4.598597493525631,1.4351771286724215,-15.087643542478872,7.2346423047074495,-7.611332376238579,5.5412036091968275,-14.70202310678053
0.5119999999999999,-2.220325136485826,-2.7907568148523296,3.3392006239250804,-14.384287358911479,9.602005755142045,-8.226824949756292,7.50195010846619,-11.271831527409176
0.5159999999999999,-0.3247162761222171,-0.6393646744259058,5.304882897851257,-11.882276071158685,12.095126398609182,-8.981106905539264,9.672407273536578,-7.3847470504993
0.5199999999999999,1.5895365499823129,0.9109828197606475,6.537748432905573,-8.344541996385487,13.949843528332394,-9.753515579008308,11.258122594232304,-4.3855564252097565
0.5239999999999999,3.0152257425825155,1.4211255038123909,6.5788088112472,-4.536501000900898,14.698357197098403,-10.122221814345949,11.392969891766711,-3.329075995899757
0.5279999999999999,4.106980659424607,1.1584308472129123,5.580073025690126,-0.9106852705913298,14.36113659559669,-9.589909109092787,9.656131265298427,-4.474809573310836
0.5319999999999999,5.438550615491749,0.8762694745630597,4.217235103929397,2.423883006842516,13.318343307826353,-7.922651174640805,6.373879512069152,-7.212035060555536
0.5359999999999999,7.454242003076615,1.2991411042703476,3.2803336182623752,5.477179656425051,11.967364316728663,-5.398380251531762,2.5098439205356726,-10.43910895412182
0.5399999999999999,10.015352779986188,2.6429356905568966,3.205548152101528,8.108659362343587,10.419280781389034,-2.7836198580048404,-0.7849326042419307,-13.16257687970608
0.5439999999999999,12.379878604823261,4.471650857555005,3.838898976753626,9.944949852570062,8.466903435186623,-1.0101586968953598,-2.7098277197362677,-14.9596837019036
0.5479999999999999,13.660657205098232,5.98568729929184,4.580425414185356,10.576885042887625,5.858347800694446,-0.6996760092699787,-3.140335874031848,-16.041049232426417
0.5519999999999999,13.47295305660873,6.557892245215498,4.814128744025311,9.906804359166927,2.685340831071244,-1.7933187535261368,-2.576252377158653,-16.90402334298608
0.5559999999999999,12.294916874810951,6.152453134468715,4.316245376567167,8.361570998243224,-0.42997658548210893,-3.524082051823143,-1.8003181734408145,-17.841197828797135
0.5599999999999999,11.25022510148301,5.351365564314392,3.3597797378611176,6.7589737881053225,-2.555167348148643,-4.780921651863082,-1.4756995171946983,-18.654117631126155
0.5639999999999998,11.38381880913812,4.947547390248246,2.448391814275965,5.839467555877945,-2.9905669834024593,-4.699127290145725,-1.9066906750872477,-18.757573338540283
0.5679999999999998,12.862976002152209,5.347820205657399,1.8592734927628953,5.7269598288535235,-1.8052098900573128,-3.1571820725632733,-3.055672280170029,-17.599103521938673
0.5719999999999998,14.659098558049664,6.187978455807752,1.330740065973714,5.701097870938611,0.024257282865619345,-0.8836162849058837,-4.72487563883476,-15.096185666692236
0.5759999999999998,14.993903931605018,6.457906987098568,0.16520472749698456,4.5093917389181115,1.057408563936633,0.9149570408019372,-6.712514352322842,-11.773205824926322
0.5799999999999998,12.375470440613299,5.137406679602009,-2.2574531005220706,1.1197684699836827,0.23374747563366327,1.2234186180339748,-8.80513842424432,-8.496755041385995
0.5839999999999999,6.609469541481758,1.9540166353665427,-5.89561577158338,-4.521914753062447,-2.3838315003561092,-0.2030909878053535,-10.666478322431203,-5.984771310445353
0.5879999999999999,-0.8524708941190511,-2.2301660161951986,-9.791706220989454,-11.20271305036249,-5.441042871767422,-2.674799027894778,-11.768805224582593,-4.395101234956087
0.5919999999999999,-7.48676131557977,-5.695924521334064,-12.377273447388689,-16.84919222567123,-6.876416458361518,-4.920274553167701,-11.50901930792429,-3.25542886928622
0.5959999999999999,-10.955723894038329,-6.739771073099746,-12.257837120427894,-19.485189934468053,-5.002933976358918,-5.7862628766276885,-9.530550070164963,-1.8072628822646948
0.5999999999999999,-10.331685151731563,-4.646795125778908,-9.028746647988328,-18.214985191421192,0.5124466917488917,-4.890845708953066,-6.058282026863367,0.4456222280127804
0.6039999999999999,-6.560944602930022,-0.17672896148565087,-3.6251112937407015,-13.666600064515478,8.34212429303102,-2.8497311931537297,-1.98558950616939,3.335445476388543
0.6079999999999999,-1.8791284880246621,4.762022403556102,2.044819374706776,-7.629707795023023,16.062603118187553,-0.9354439174071558,1.4053076606727473,6.028744717054224
0.6119999999999999,1.473654311534574,8.090809143646311,6.010074451626906,-2.102181486186737,21.293246877588444,-0.35931250774274304,2.9917159284526633,7.429823144376428
0.6159999999999999,2.4782817102118315,8.6440006141803,7.18660046039372,1.6956514230078028,22.778153110294625,-1.5824683264877422,2.3390446355469976,6.753053524007726
0.6199999999999999,1.8157096597458349,6.772773178986313,5.854201743706881,3.7923146630289466,20.845798664183576,-4.039279080055849,-0.08412248405829814,3.9329706127892905
0.6239999999999999,1.3290684129851797,4.110652580574538,3.3897093329426298,5.176540494331448,17.038618275398676,-6.435740572488385,-3.1474272653142634,-0.34346353362002446
0.6279999999999999,2.8164987045572616,2.6392349159061723,1.4324275827709698,6.974512987047319,13.179290406348173,-7.449983952457387,-5.64086888608108,-4.966280300249309
0.6319999999999999,6.879240791707389,3.574490999674822,0.959232727672088,9.621475723120966,10.42169270475415,-6.439965126277684,-6.886393729334259,-8.883165676347403
0.6359999999999999,12.509966822667138,6.700098570876889,1.7878015522003352,12.53980836488563,8.812633996539489,-3.760010163490506,-7.031505695509168,-11.457537212121224
0.6399999999999999,17.649509904069873,10.520479312017187,2.7762818813077956,14.496073675583148,7.551019213001837,-0.5331682763096524,-6.86268082215156,-12.56079680446669
0.6439999999999999,20.32772861995386,13.098259515692007,2.554638512169504,14.362267648624766,5.692402747383085,1.969615115225679,-7.278296693076186,-12.43511388563769
0.6479999999999999,19.696232186076486,13.076412299836647,0.343018440675678,11.785421590153192,2.823070729961273,2.9805333178148885,-8.733616277701572,-11.4726168293667
0.6519999999999999,16.353690412116066,10.304058561094166,-3.6178649473224596,7.342620050928417,-0.7000559186828923,2.556666387360565,-10.98188908202053,-10.060915928527834
0.6559999999999999,11.828911670480466,5.765314688431317,-8.227974676605527,2.128590094263245,-4.021888942071541,1.4258967165299055,-13.235973850723497,-8.532406997300825
0.6599999999999999,7.632038017244668,0.9593546791384142,-12.113097983487023,-2.8971000551550787,-6.321662134735448,0.48971203440214595,-14.603278729342719,-7.161159124807682
0.6639999999999999,4.494681216212712,-2.8459786203856083,-14.255244475166592,-7.338990115264551,-7.2261501795317145,0.3028958084612441,-14.499910041422595,-6.101271142973246
0.6679999999999998,2.235671497663361,-5.062862590843906,-14.321689268457476,-11.30029581300937,-6.8489962198301555,0.8310330620291779,-12.824052786077118,-5.25955649084176
0.6719999999999998,0.25230740737447377,-5.756242126614211,-12.588802989557735,-14.921634737360137,-5.5043902698540705,1.592259188931962,-9.851365785236226,-4.21908448303941
0.6759999999999998,-1.7892791698120618,-5.29390663584104,-9.62036229829937,-17.9104697270443,-3.3712395074935557,2.03900147412935,-6.008674346669579,-2.3550026975308356
0.6799999999999998,-3.575824056294323,-3.975430388501536,-5.954920154145611,-19.446981050421755,-0.38544417558921396,1.9089667135878017,-1.7135411279741675,0.8146160906963473
0.6839999999999998,-4.375231446452062,-1.9338181561979582,-2.023446107291875,-18.612429142835026,3.5272310334395343,1.3163084672605692,2.593149404987969,5.173857734129058
0.6879999999999998,-3.7004236895966187,0.6646777487433155,1.7142253538731893,-15.089140447760428,8.05483182282751,0.5457674074657461,6.28869474562066,9.716706043741738
0.6919999999999998,-1.9214888053081722,3.3250208132831176,4.601344439173317,-9.652436474551678,12.252013521417894,-0.2749037650644368,8.47227254568196,12.68008802318991
0.6959999999999998,-0.3258176048780115,5.148275815078932,5.822388302417039,-4.0518750710098175,14.705513825961248,-1.3500158845580472,8.129369845038639,12.173646947672466
0.6999999999999998,-0.48324180204599543,5.157330392319523,4.731278273976841,-0.2495781182187784,14.12714015553388,-3.093789855810087,4.59380029545423,7.0772096108599385
0.7039999999999998,-3.2697599854725468,2.8743267553479654,1.296192565632964,0.5810365097711383,10.069223218857019,-5.771714460324347,-1.9290752688713724,-2.237708243142322
0.7079999999999999,-8.143572564819578,-1.1962739565702805,-3.6276197359288744,-1.2744244353075374,3.352450760013312,-9.138272950118449,-10.110821668904691,-13.772407448639626
0.7119999999999999,-13.180655064151097,-5.55040756831886,-8.447455629852584,-4.160381656139862,-4.096184050950114,-12.344467708979664,-17.758894448193075,-24.502577687365374
0.7159999999999999,-15.94838735905978,-8.258924853262215,-11.427777528458364,-5.8990594072643034,-9.98631169189764,-14.237534003467886,-22.572542165989432,-31.497668027697273
0.7199999999999999,-14.749730984327016,-7.868910694992223,-11.45556747678529,-4.93238782307003,-12.63834748829538,-13.914745409156467,-23.069573821781887,-33.0541775810222
0.7239999999999999,-9.561277657202936,-4.175726583656797,-8.584929618517208,-1.1430378275208568,-11.707779535894929,-11.229660376517359,-19.24301369629967,-29.308715345718838
0.7279999999999999,-2.1293275598595756,1.5653831734233563,-4.0586865802090415,4.092055197408399,-8.295191239418273,-6.9364959968118,-12.59516905117556,-22.054583429693878
0.7319999999999999,4.837858659575204,7.143253997073202,0.23333595730287016,8.618372354206258,-4.390020505768462,-2.365875535175519,-5.50392581120758,-13.877855646541434
0.7359999999999999,8.951946982025447,10.393677001083688,2.611219795223633,10.579272033096686,-1.923888777564116,1.211257432608818,-0.20238671970918176,-7.035201940034824
0.7399999999999999,9.216878485679672,10.210938799953169,2.3598082724759024,9.272176739649922,-1.898441980887469,3.185455526465148,2.1464992258078155,-2.6171045559007666
0.7439999999999999,6.32686431704542,7.038770530185616,-0.0034414959272908163,5.344853127899569,-4.019179291642104,3.832324929862125,1.8303598639725465,-0.3721286071037184
0.7479999999999999,2.0958965684021678,2.6035664056620362,-3.0568376221538074,0.30553772581015437,-6.965724494303117,4.032998797566847,0.27870950289133134,0.8205343919663619
0.7519999999999999,-1.5863183577209838,-0.9486193262819143,-5.19817560540605,-4.302471090220479,-9.1130870093574,4.669289780395616,-0.7465793411337245,2.1593913223792356
0.7559999999999999,-3.6906696603566616,-2.088218999645278,-5.402442629166103,-7.595836664921762,-9.327941162827642,6.044303550181439,-0.0493473467467993,4.246011669947848
0.7599999999999999,-4.380835929923251,-0.5718769043434122,-3.6328095274690213,-9.561783298563341,-7.4449437508380925,7.677589378973039,2.4765640227726635,6.850323725353235
0.7639999999999999,-4.6526926556709896,2.5555898294974213,-0.7455025019640971,-10.765942211551646,-4.233974411644908,8.58773153624145,5.913648887033446,9.170744651137852
0.7679999999999998,-5.56592782587893,5.587324945398905,2.0235802031778576,-11.810694393828499,-0.9202747951953825,7.901251504950437,8.889692130453057,10.374071271510559
0.7719999999999998,-7.549150992389627,7.053605912501325,3.7040532786912763,-12.897429278286495,1.4642496621845567,5.438387000618036,10.31586591495352,10.09355151672034
0.7759999999999998,-10.177811018186162,6.4166995442402595,4.030400394035382,-13.744733271436985,2.55749721011739,1.9344813465284005,9.904762431989127,8.628347250794008
0.7799999999999998,-12.46883474654237,4.253170581770178,3.4938321856692482,-13.840006746159133,2.757776003443837,-1.2371699622940469,8.23379525793996,6.767777696919637
0.7839999999999998,-13.47079463413445,1.8669221416009236,3.0111357175998137,-12.822136242248462,2.9096555469558325,-2.700456781684693,6.370475599941358,5.3760251243387245
0.7879999999999998,-12.780920519438041,0.5732477397082789,3.4083309633313092,-10.742376715621731,3.781053970687367,-1.7351417475088056,5.284149212402667,4.968516558971174
0.7919999999999998,-10.70499152514742,1.0465040329448811,4.990920974194751,-8.049457865678391,5.620746588549878,1.3916003420572451,5.379529597498106,5.5015233266937855
0.7959999999999998,-8.033218574401076,3.0394974998353064,7.390802082774144,-5.348060300495376,8.013732072734115,5.56651161195407,6.365358376226993,6.442118436266412
0.7999999999999998,-5.591975534653557,5.594430462610319,9.758042738044765,-3.090587378380178,10.098011540442144,9.35431048458895,7.498359690715802,7.043158757486054
0.8039999999999998,-3.8498540794045084,7.589051158155996,11.178650607117333,-1.3935772152605068,11.014913213091404,11.617856348848818,8.029528834726591,6.672542226673755
0.8079999999999998,-2.785199975141154,8.307396743354957,11.103406395670959,-0.06902601727108504,10.353714234047743,11.930669337744234,7.602914850205423,5.0486335224458685
0.8119999999999998,-2.051903254967442,7.724346557598153,9.564364288566026,1.1559118449526977,8.345790540931716,10.618184127565087,6.384542134094886,2.2986335730658993
0.8159999999999998,-1.3149828915873059,6.3715242905472,7.077067002135209,2.36815032679624,5.703830876462575,8.457764695596666,4.8657841316525605,-1.1522257979798383
0.8199999999999998,-0.5174162481654321,4.929987564459623,4.3328432235075525,3.3359267215284945,3.2234271787652915,6.243293587532662,3.518491390190377,-4.770586179332014
0.8239999999999998,0.06549561154281491,3.8116523199640824,1.8551709637367821,3.5880799948907907,1.374338244331625,4.454682664373308,2.5117869574200427,-8.091250394504357
0.8279999999999998,0.0018607803027634873,2.9864958837756603,-0.183536563314874,2.66892891385487,0.11530442453209844,3.167062354216114,1.6668642796153108,-10.814833010979896
0.8319999999999999,-0.9971446124187651,2.1444457163243555,-1.8907323850293096,0.44595092652014046,-0.9600408854263947,2.188135194864117,0.6771324241992147,-12.807858691814744
0.8359999999999999,-2.8530767656110356,1.0435586273837316,-3.4144575820517957,-2.7089061330163986,-2.251628480096315,1.2905010289049414,-0.5801787178507425,-14.051307991418298
0.8399999999999999,-5.078899246976107,-0.17684643551979207,-4.683511026834367,-5.9621149417711194,-3.775176411006555,0.3938756105395669,-1.8487524827887398,-14.582350272027355
0.8439999999999999,-6.972160400530242,-0.9718916519831851,-5.342148024649646,-8.311913091451174,-5.044725150655609,-0.40772346661447045,-2.574667038350981,-14.481182943491774
0.8479999999999999,-7.967807837790474,-0.7104164245129141,-4.947486633945232,-9.027095161309944,-5.327097656794081,-0.9736580558337664,-2.250566702261665,-13.905726477901254
0.8519999999999999,-7.951021053284535,0.8533546480089171,-3.316051414906042,-8.019401329114203,-4.1348103104552365,-1.287585613724275,-0.8133393881940947,-13.122178086292962
0.8559999999999999,-7.337692989050879,3.26197614225174,-0.7896595028894353,-5.935575776017345,-1.657338256425021,-1.5344848165073017,1.1603284521756052,-12.468756989263113
0.8599999999999999,-6.862022254577141,5.450488828918253,1.8070628931376405,-3.883588728898644,1.163038260940823,-2.018477330075143,2.6485857909464414,-12.231738482914324
0.8639999999999999,-7.167657654551363,6.2611602309680165,3.539102842976604,-2.8995464944623563,3.011695571606822,-2.9820909087450787,2.694299030158305,-12.488903580678652
0.8679999999999999,-8.413684190057097,5.111002687856512,3.872755294697754,-3.406084705975104,2.863861267379434,-4.433539299853635,0.9604594178089201,-13.01442040774009
0.8719999999999998,-10.136458355032573,2.4096240065005077,3.0205879268687568,-4.963573436104298,0.5591984698001511,-6.08499200724583,-2.003721732762614,-13.327237297873722
0.8759999999999998,-11.47341110102343,-0.5635100840103746,1.8644211843868561,-6.480949959934264,-3.052084705421919,-7.456013603845804,-4.978438229808603,-12.897098013438097
0.8799999999999998,-11.658150270752799,-2.3117697946519797,1.4466529820348342,-6.8092431257412045,-6.525126565833489,-8.10315985047572,-6.6973307153363635,-11.441486655677295
0.8839999999999998,-10.504521034952518,-1.957862507418497,2.306750772522605,-5.4061328150582995,-8.586312588881015,-7.841120565738379,-6.548527796545585,-9.148351508289238
0.8879999999999998,-8.570410191018368,0.22551844086075334,4.070891423560738,-2.685246715840094,-8.813604250010826,-6.820082544224476,-4.9373816972708084,-6.673429347614416
0.8919999999999998,-6.875598900202931,2.9201267428310302,5.575127444418399,0.17251656919165725,-7.842658522864326,-5.423735740913514,-3.0883326562444893,-4.871078191423123
0.8959999999999998,-6.31307650440624,4.4531810474197755,5.482761487759376,1.8580935767921574,-6.987081936858942,-4.063600987867289,-2.3832377304794647,-4.373235909984658
0.8999999999999998,-7.079166127792519,3.7170962474314706,3.0699521246738186,1.6836072903731747,-7.474411910639958,-2.9845711832032293,-3.5920518749954624,-5.237024540515591
0.9039999999999998,-8.48545606534924,0.7945802785247338,-1.2886506566762819,-0.0021274067335070868,-9.742497293846213,-2.206354764315847,-6.44005461789186,-6.874617800224826
0.9079999999999998,-9.313148468582312,-3.0808889131711226,-6.244179024861069,-2.001968235940012,-13.206402590447055,-1.6412864150845508,-9.765401499421273,-8.340094802787377
0.9119999999999998,-8.542537511043065,-6.20503520341947,-10.156006550781285,-2.968698117099393,-16.608991969959902,-1.2957526066684295,-12.175073914563711,-8.829087648502224
0.9159999999999998,-6.032588180855555,-7.334169367206641,-11.945388651657822,-2.218169743965518,-18.742065035627093,-1.4036274015104482,-12.8263974410159,-8.124101498269738
0.9199999999999998,-2.7251830119851093,-6.324487495668905,-11.621679053274192,-0.16811458988991035,-19.110290306215234,-2.3654431685799864,-11.878014505687133,-6.737143962389183
0.9239999999999998,-0.2065257993999694,-4.119575879941749,-10.176205420863653,1.8767684479489617,-18.142741840066492,-4.490634708988409,-10.356146907451262,-5.65238471373948
0.9279999999999998,0.16214095746386192,-2.1192057732071135,-8.916177694114822,2.481934886424824,-16.854906446052723,-7.694181857321382,-9.519631662151596,-5.801123285159406
0.9319999999999998,-1.960162157579589,-1.3383434592657295,-8.663857457298263,0.929765481604818,-16.200429755999266,-11.357812236730524,-10.109737244543794,-7.567578556641138
0.9359999999999998,-5.659270107312977,-1.8766565203459322,-9.321947070181068,-2.354054774079259,-16.52470230818608,-14.48936987080765,-11.938088227403455,-10.593692483473887
0.9399999999999998,-9.24392881816948,-2.9877593198560817,-10.048820767499365,-6.043781510316194,-17.432863175803277,-16.14853152061221,-14.032925997394727,-13.99180587254557
0.9439999999999998,-11.162567225800785,-3.650216814148507,-9.891044868940298,-8.667096985882836,-18.09864866334715,-15.9177161347626,-15.22241557009238,-16.810291958545008
0.9479999999999998,-10.82022799654169,-3.2457458522087563,-8.445069029502065,-9.407438980467305,-17.793105561365792,-14.137481091208656,-14.78679499664895,-18.470349881793652
0.9519999999999998,-8.839463383393422,-1.9285289683091378,-6.1402770607580806,-8.492607506454988,-16.305546463795395,-11.75872713734168,-12.817081432113241,-18.952044644093064
0.9559999999999998,-6.638186401470421,-0.4888160204061478,-3.9869843346618836,-6.97046277503614,-14.02706823276958,-9.860840578830903,-10.105353504148525,-18.657609043987918
0.9599999999999999,-5.588667889031967,0.1775968102558636,-2.971977242661751,-6.039594454734015,-11.692591111646152,-9.087646988603865,-7.676114302220753,-18.08282227574273
0.9639999999999999,-6.266359889735668,-0.36920981150251464,-3.5031412862590514,-6.357711360900794,-9.972672345766114,-9.330113425742638,-6.25639326307396,-17.524141213593964
0.9679999999999999,-8.227311881582864,-1.8806850736336855,-5.2498541617023875,-7.744472248608417,-9.185253762766024,-9.844420481791985,-5.989466413486866,-17.003948210253725
0.9719999999999999,-10.398476771975766,-3.6379163138692547,-7.440716487250484,-9.418730911647799,-9.272205320415651,-9.744632909195843,-6.523278648162432,-16.426969567168328
0.9759999999999998,-11.787673797284697,-4.945715770918923,-9.37783110854457,-10.559628293408423,-9.9859693638532,-8.586573783390577,-7.34899923058515,-15.802237549160623
0.9799999999999998,-12.031553159989016,-5.538804680732255,-10.792856876070118,-10.789004578189179,-11.094788295658418,-6.672943138667506,-8.121582093978532,-15.334974165423432
0.9839999999999998,-11.450840957937544,-5.6371312326687075,-11.818664443112539,-10.27605977653593,-12.451425756637946,-4.891213253250498,-8.764434850385214,-15.304520027063518
0.9879999999999998,-10.641322285779097,-5.644385001660339,-12.649399159301538,-9.450067477575885,-13.907006892392246,-4.179318532761499,-9.33953808180604,-15.82075556649545
0.9919999999999998,-9.924069923552452,-5.7278458391406275,-13.182836875750581,-8.565578148004533,-15.188080439311307,-4.923244056300291,-9.817260066270023,-16.639915796954938
0.9959999999999998,-9.060722517309387,-5.602412280357157,-12.94788095048034,-7.462197287355593,-15.891818980439893,-6.666640828998652,-9.949886382718887,-17.199646126310427
0.9999999999999998,-7.431798576629262,-4.673947925673019,-11.397161374854477,-5.691719459285196,-15.647096575045907,-8.309720728811499,-9.347477695311,-16.888673068451226
1.0039999999999998,-4.552217161372937,-2.4620999078599652,-8.37530148498081,-2.9241409139008283,-14.356776648021196,-8.686942766621087,-7.706081769651519,-15.401966292137786
1.0079999999999998,-0.5719486656976187,0.9640119098767173,-4.426528925643652,0.6453384877227109,-12.357433728326214,-7.209459804074186,-5.041289671458117,-12.967318737474443
1.0119999999999998,3.5978853843248544,4.841838111111883,-0.6828971529598675,4.193675727802656,-10.347188802600385,-4.193153648919633,-1.7597562272209188,-10.281105720694995
1.0159999999999998,6.636870000872932,7.962101049668945,1.6295525720424848,6.563914420546098,-9.0910296303839,-0.6967786088334833,1.4643061859676436,-8.181056529526359
1.0199999999999998,7.458736197600047,9.188923286540103,1.7961582429134069,6.8010822702317455,-9.053424503848873,2.0346684078012913,3.937932388616673,-7.240397635213867
1.0239999999999998,5.760420453955703,7.966122974461541,-0.032705459637327294,4.612486134166829,-10.172078623245852,3.18944337043672,5.192813420198263,-7.511326349461115
1.0279999999999998,2.168600767656244,4.554265447865873,-2.9535605786231827,0.4995328289578538,-11.890813203968719,2.729657219490946,5.11281115548536,-8.536166013719708
1.0319999999999998,-2.0743751565478306,-0.09814373756262285,-5.7989603849800915,-4.481046654362217,-13.426997610059061,1.30235227026742,3.926974544447148,-9.590550694482658
1.0359999999999998,-5.66954684929442,-4.743155312089584,-7.6980212377743555,-9.157215758927123,-14.109373810375246,-0.1825975615970492,2.1202103179184633,-9.996213345067645
1.0399999999999998,-7.757590675296797,-8.272706345906954,-8.396054303696928,-12.638360743093017,-13.618608475986548,-1.0491815575237524,0.30649204123915297,-9.354148115190583
1.0439999999999998,-8.128081849828504,-10.028947738341458,-8.193194766387478,-14.494788290622637,-12.039153727851499,-1.1440537041703465,-0.914489950420375,-7.6223364016449295
1.0479999999999998,-7.104638261879245,-9.905451851888756,-7.609175278189923,-14.704905681623131,-9.746098445139523,-0.7863960223789945,-1.1134229007623162,-5.063803577053136
1.0519999999999998,-5.2507746513852,-8.268094089690521,-7.026778249488416,-13.492339684696162,-7.235960130047715,-0.4665211761143837,-0.1792695633077983,-2.1413885050454837
1.0559999999999998,-3.12036507501125,-5.8036085767591885,-6.546999093659906,-11.204873576031332,-5.0023350518172265,-0.5150261016465265,1.5688128248248177,0.5752595871417725
1.0599999999999998,-1.1533586729619856,-3.34747476973871,-6.092769151324319,-8.276435166576448,-3.471773234160537,-0.936998503499126,3.4190020159035157,2.502169615039861
1.0639999999999998,0.31638387945440627,-1.6972391958993285,-5.613728775566415,-5.21786361866225,-2.949603598743579,-1.4784637926932191,4.496565390606293,3.186213951470222
1.0679999999999998,1.0623222224830897,-1.3985759038996548,-5.194767657863395,-2.535482001519995,-3.525746399217496,-1.836079504368172,4.138764640710633,2.502626946722671
1.0719999999999998,1.0405690648494783,-2.5499509563633183,-4.979201585223564,-0.5592993777108859,-4.968297171582435,-1.8513032794130595,2.2435735375891,0.8113622614139331
1.0759999999999998,0.4844694154426179,-4.727300153771921,-4.988643204922482,0.7284331044284045,-6.6895717712491205,-1.5662908258773314,-0.6265354875563389,-1.0517964668872537
1.0799999999999998,-0.08931870359447203,-7.095290860956084,-5.007621198500601,1.7213090709365133,-7.869431781340609,-1.1237882057753268,-3.4796332489504493,-2.0320445701095196
1.0839999999999999,-0.045941205825329234,-8.712652583440558,-4.66157988789837,2.9902218842398725,-7.742577380154216,-0.6136148691712151,-5.375313082267439,-1.304264216011461
1.0879999999999999,1.0662175595562076,-8.913953762456003,-3.661936287385288,4.931366640870692,-5.942507419818412,0.012892584667042684,-5.90089664978882,1.2898448565792933
1.0919999999999999,3.2313343361984153,-7.590578170663775,-2.0554582064723945,7.451560744715607,-2.7305488986521596,0.8995532939957229,-5.369523245470646,5.06449897630273
1.0959999999999999,5.873532084334329,-5.2367932435859075,-0.2958674949786655,9.885430718749376,1.0315464597993014,2.138345323240628,-4.616521223355676,8.721700365674678
1.0999999999999999,8.045004576727479,-2.7269397995469262,0.9375751626093916,11.228262288051155,4.184518800715523,3.615957141533727,-4.502940250677511,10.919070141853126
1.1039999999999999,8.813379136410731,-0.9444424761486516,1.0712813034133433,10.574208263622495,5.70787264366254,4.957757127087461,-5.418765724569539,10.889720838412359
1.1079999999999999,7.649429853478068,-0.44364578916383834,-0.07860767141028191,7.534074580741617,5.09244499450142,5.618226169207901,-7.0727570704441405,8.79844700320109
1.1119999999999999,4.618955758102857,-1.2985437390398147,-2.2340357042758114,2.4217612231968815,2.4876740134245665,5.094173802128353,-8.68624589653382,5.646813381632455
1.1159999999999999,0.29706676847945346,-3.1889556034375346,-4.831179557550058,-3.8780817337155895,-1.421794622476682,3.157181826242777,-9.47241198867573,2.7786541557061355
1.1199999999999999,-4.5089469148724675,-5.6157068602415166,-7.308041752857207,-10.260835192661034,-5.716201409909445,0.006061063146717061,-9.097444636235423,1.2533668659957584
1.1239999999999999,-9.051159234082661,-8.107586268554769,-9.320609745615911,-15.766156585430508,-9.569778849532668,-3.738316771312384,-7.846804091242575,1.408363006110676
1.1279999999999997,-12.788517855209648,-10.311475477994918,-10.763295347340318,-19.77652231094362,-12.463171972769487,-7.197879911079326,-6.406484643536032,2.822554471975536
1.1319999999999997,-15.367396056857615,-11.971135934623817,-11.631850563403532,-22.017464364331317,-14.232839823112954,-9.51061104476048,-5.421394551876347,4.646109278979793
1.1359999999999997,-16.547044179354998,-12.899165751726287,-11.8925019592225,-22.458490600616642,-15.01436193786185,-10.128241096456804,-5.12756767125552,6.065397326219454
1.1399999999999997,-16.172370871253406,-12.994152883769402,-11.468966865792936,-21.226176713774294,-15.130048762952356,-9.026846122836105,-5.281501016733273,6.643467869633923
1.1439999999999997,-14.267181007609906,-12.325801013543241,-10.37413359866514,-18.610764928747813,-14.978062817931459,-6.742885742558428,-5.40797567313075,6.375529094138756
1.1479999999999997,-11.189688968821429,-11.216439150219685,-8.876489043924266,-15.129578700422826,-14.939768602319873,-4.2047217224208,-5.183839995898779,5.490922809058702
1.1519999999999997,-7.681102992100932,-10.199098982251598,-7.523882349539235,-11.516355811098947,-15.293484905140758,-2.3929888233360543,-4.685609736359311,4.183471820996601
1.1559999999999997,-4.691639909419791,-9.817410661176837,-6.938674336416625,-8.546871698114956,-16.120858325590234,-1.9554559043463087,-4.334475094392019,2.482360870870025
1.1599999999999997,-3.002424383307698,-10.328299140944182,-7.458984769166818,-6.7360015160638795,-17.24294623872538,-2.93499395271283,-4.570991614289142,0.3348708320691003
1.1639999999999997,-2.820139503200153,-11.479904980541505,-8.843425617967114,-6.061174766689874,-18.232762914909472,-4.74164616060807,-5.483370027219735,-2.1804335187264314
1.1679999999999997,-3.5912819893064807,-12.519389514208342,-10.245989567913966,-5.904075775993078,-18.518766979025713,-6.398366932333374,-6.650965038249524,-4.6877151890300865
1.1719999999999997,-4.200513488721299,-12.474477099245178,-10.53182822875624,-5.29993543427554,-17.556054436699924,-6.960198621421114,-7.308620928386517,-6.537350880796794
1.1759999999999997,-3.5212470214082714,-10.621120184905521,-8.819135950227064,-3.424314685081299,-15.012561900072797,-5.930960930944821,-6.7603650703122184,-7.0483390284741745
1.1799999999999997,-1.0676990241154272,-6.909374094087525,-4.971090338902286,-0.0932552143385692,-10.906638691281842,-3.495319505023872,-4.79317138754277,-5.857317108279858
1.1839999999999997,2.611523163167476,-2.1086019873500845,0.23482867834445642,4.009353616480439,-5.643291052864697,-0.4428832954381505,-1.8270248975040886,-3.158121510072988
1.1879999999999997,6.018753504923552,2.402293449300487,5.343131101921244,7.50418487902698,0.03172010745583975,2.1598625520628048,1.258388038924295,0.29232139195255513
1.1919999999999997,7.29841183244389,5.145330625731731,8.773399511709613,8.849996455933251,5.154864417430872,3.393795529066665,3.531526318156466,3.4350072820095647
1.1959999999999997,5.088595570592588,5.132685487486015,9.427813953034274,7.008435792308774,8.726008393711709,2.834567498130127,4.41438453202818,5.333227346081912
1.1999999999999997,-0.7647607112594415,2.2868278477753847,7.104834612888226,1.9431120335411833,9.94344267913948,0.6810684991005473,3.88769835462017,5.574064287707415
1.2039999999999997,-8.980637633216247,-2.485779942424415,2.5627998604250024,-5.272372468454705,8.464892864300964,-2.3629654723035856,2.429177176627036,4.464061958961793
1.2079999999999997,-17.261572576941035,-7.618112801555981,-2.7896500154802197,-12.812573161229011,4.5824243749339075,-5.37321124473965,0.7541224664350921,2.9071441784813032
1.2119999999999997,-23.18225311889546,-11.460597139247511,-7.4123312438314315,-18.760285579643096,-0.7776630537318852,-7.524742222345594,-0.4787510469755034,2.0136023736145034
1.2159999999999997,-25.1512260608215,-12.88574338754188,-10.144601633137427,-21.781382524133733,-6.275494849252027,-8.32566761558246,-0.8541177222537044,2.611687488413736
1.2199999999999998,-23.012608192038897,-11.679619743916192,-10.534044428381094,-21.539436653678422,-10.570432073824122,-7.697930629309667,-0.23631929945031516,4.863711669811892
1.2239999999999998,-18.010057882731417,-8.561165497110778,-8.885080064477734,-18.692798195699652,-12.773326378445745,-5.922724320281304,1.28432279252047,8.159588079070545
1.2279999999999998,-12.139219401404262,-4.8302679303587865,-6.04676917593315,-14.49577054384099,-12.737858800141112,-3.494538911159907,3.455575489536841,11.341709861756954
1.2319999999999998,-7.209999807746499,-1.7916430926543399,-3.0400517736361508,-10.205745960040076,-11.038100997192487,-0.9368963566894308,5.894317707533901,13.174725430407761
1.2359999999999998,-4.089595571364043,-0.2162925622005787,-0.67565800639386,-6.575435373959408,-8.630079842164378,1.3596081570303795,8.086723737330885,12.87810163590484
1.2399999999999998,-2.481811996860415,-0.07197316944802878,0.6946660190315015,-3.656942845926096,-6.370046840164832,3.2293768087602075,9.427517678187087,10.482985916103644
1.2439999999999998,-1.3271621055755531,-0.6444229486214681,1.2028032491489284,-0.9935032051689632,-4.649568359371187,4.724076305157723,9.340758675233246,6.839399507698545
1.2479999999999998,0.4319017849084048,-0.9730837894794604,1.2817831791981007,1.9317179984009272,-3.3313813459662924,6.0211718201408075,7.464575437728399,3.257519580783992
1.2519999999999998,3.1563470134842646,-0.3751442807915737,1.381352872303978,5.253730168522452,-1.991304637799658,7.2857984224147,3.8381191130301886,0.9543289430989716
1.2559999999999998,6.261913343591004,1.1984367274581018,1.7163505384287419,8.53344226435729,-0.2992373165743629,8.554637072989863,-1.0126344449327007,0.5624929871096356
1.2599999999999998,8.561846460806919,3.1666663383803098,2.169990216565566,10.934761188302218,1.7083301754755666,9.70561409705806,-6.16129784508712,1.9172162148893221
1.2639999999999998,8.996671501474339,4.674679032168569,2.401023371181509,11.683969152052669,3.634278816850383,10.522983655851931,-10.527262165197953,4.212013014021068
1.2679999999999998,7.326352970863809,5.108626812719194,2.0887911515219457,10.56620908289733,4.9993046420495375,10.833047286385408,-13.195255952264688,6.4433446111088415
1.2719999999999998,4.373099318965615,4.476504456639304,1.159468071640731,8.155502313946272,5.577026276786455,10.625755973223932,-13.709156084141796,7.894452714637282
1.2759999999999998,1.6393507597913413,3.4140919301698887,-0.15023379534795822,5.611253680668597,5.539863389511993,10.0726962086419,-12.229012325787608,8.419757392741758
1.2799999999999998,0.5044632269928115,2.8076294707407214,-1.4200396051255666,4.127615828436319,5.317915093110059,9.435827957128822,-9.478850388491082,8.41765278603043
1.2839999999999998,1.4608617718258756,3.2528994004114793,-2.2804223503626417,4.323948936780653,5.265534724570898,8.925875402926067,-6.493101043443858,8.538463089983452
1.2879999999999998,3.8293788281789602,4.673724748260611,-2.6045855955817387,5.908701624834066,5.378402640471904,8.59704518442959,-4.218928470610081,9.318166718783232
1.2919999999999998,6.1211658159518265,6.327096816003177,-2.5382575833482406,7.806753773433229,5.276081627551321,8.336511250757212,-3.130574230705406,10.92480364980156
1.2959999999999998,6.849946615304361,7.194505459998254,-2.359641639814072,8.698067856563284,4.486925839516516,7.953962077437609,-3.0285702623659745,13.127121281402651
1.2999999999999998,5.352677264587328,6.550279478539778,-2.2586807872066856,7.696518832946822,2.871616638989508,7.317400420249214,-3.128119118725863,15.455601566936366
1.3039999999999998,2.1468821203816333,4.364435460664936,-2.1976154656076687,4.801884960961615,0.881919158281562,6.447488402597628,-2.4453111005382198,17.415892702505516
1.3079999999999998,-1.359875180038216,1.3285492770419296,-1.9421578913315898,0.9055881722360937,-0.5440777643298134,5.505459424031869,-0.3220695062809682,18.62815743832016
1.3119999999999998,-3.6191604199448193,-1.491361182241235,-1.2295680802726565,-2.6215444929948717,-0.43035857920131093,4.700917745309198,3.16140225234858,18.855726636910276
1.3159999999999998,-3.7425197611300973,-3.188020810526723,0.02483898397986195,-4.547219322037563,1.6799967400347668,4.1841020954943815,7.094223640155633,17.968516328061924
1.3199999999999998,-1.9000351901595423,-3.408259435074797,1.637340689158009,-4.26880889378117,5.400441160149057,3.992016319909453,10.065224308137658,15.93239868896535
1.3239999999999998,0.877444133237077,-2.406857578420386,3.247361490088224,-1.9545931562024634,9.625236413496168,4.080590764708177,10.796558961266783,12.874143197954254
1.3279999999999998,3.328874808148612,-0.77726772117785,4.522810409553131,1.6693591632392781,13.043606445011392,4.393558896275863,8.77551579682222,9.169069549410779
1.3319999999999996,4.653477955289418,0.9505081227835035,5.34588605677709,5.718039361447154,14.765344782248576,4.899681125831194,4.560486477945233,5.447860731960645
1.3359999999999996,4.84923677653569,2.5665851887415556,5.847964004584355,9.480544031848694,14.708389105146125,5.55845481513461,-0.42753626357080066,2.4583163538045483
1.3399999999999996,4.545231860516651,4.156138793745413,6.273281011035579,12.534486069618652,13.538013587771275,6.242486550490867,-4.532321788125046,0.7988276445712472
1.3439999999999996,4.501908849313622,5.860150881011577,6.772128336391688,14.668765118627562,12.229798071031837,6.704541295493982,-6.593710634592753,0.6597017356484685
1.3479999999999996,5.111255971418359,7.632743508861495,7.27168282767343,15.747591633262346,11.53238336094546,6.648843406344895,-6.4074301886521425,1.732162400449397
1.3519999999999996,6.202665484317549,9.185387719235223,7.517223677457878,15.652229320881816,11.625919842281291,5.891528955255126,-4.673326652316973,3.3530645314003777
1.3559999999999997,7.2116669788410945,10.130336994701793,7.2409753250412905,14.330464024022149,12.13669779506381,4.50699599840118,-2.518266098879394,4.820030431108535
1.3599999999999997,7.55953083870736,10.211338807860557,6.336395768335933,11.897754018402338,12.444701639484265,2.848880598992764,-0.8708362917332124,5.706302946769938
1.3639999999999997,6.9770938750752975,9.431518833182054,4.905126294905131,8.676954960204966,12.055245521331017,1.405636538647741,-0.05441444229472836,5.997479609421134
1.3679999999999997,5.564493906793359,7.9814356415954535,3.146510001321076,5.109573309133339,10.814301650478228,0.5480548906034528,0.1995324821646136,5.972497405155082
1.3719999999999997,3.6115505477973784,6.042376518202218,1.1940248110695393,1.5925013310697977,8.888118755952746,0.3217939306887274,0.39202170694898086,5.9208317875891225
1.3759999999999997,1.3354912079885253,3.614626015749309,-0.975511461525457,-1.659512429660026,6.575389946263385,0.4172964225344913,0.8090494524376481,5.881678874751742
1.3799999999999997,-1.253023379806109,0.535811570183796,-3.4741624670041347,-4.627103529648593,4.121853493936214,0.35372177984208975,1.2855118959714673,5.578171134236982
1.3839999999999997,-4.264045748117496,-3.2987166463444737,-6.312811964389766,-7.3670814495581,1.6538761917436204,-0.2273227076348121,1.320872422074899,4.587236783616845
1.3879999999999997,-7.673475895790034,-7.638691392652618,-9.208812561268132,-9.829036923270905,-0.7261077413168096,-1.3342423759477242,0.4628291697190434,2.6483197264819864
1.3919999999999997,-11.095453805461148,-11.736975170075311,-11.544039471749784,-11.733261900739308,-2.7838406247319654,-2.6015780382131197,-1.3031989649680327,-0.07982379118266181
1.3959999999999997,-13.771226453918644,-14.531499929682468,-12.55609537514465,-12.607022964082716,-4.0907781691494165,-3.4834046156393015,-3.4321796422573243,-2.987155356809126
1.3999999999999997,-14.81683619069372,-15.094797366673447,-11.667251749877323,-11.967553788577789,-4.1167664677523135,-3.5470958750975115,-5.034023889789751,-5.236673505720319
1.4039999999999997,-13.610582187302498,-13.119315581398041,-8.777350277880032,-9.55552683154383,-2.4441955928850803,-2.68943807587857,-5.305568195908563,-6.128991265652985
1.4079999999999997,-10.087856647336594,-9.133193231340556,-4.342597581126029,-5.482719775551232,1.0177323697171232,-1.1541343351764226,-3.9161398599435415,-5.409473277077268
1.4119999999999997,-4.805908037182235,-4.306560689688922,0.8025247572331864,-0.23532390867330832,5.923754110042864,0.6287565302609437,-1.1298083825586218,-3.3722312266363588
1.4159999999999997,1.2296792055640253,0.04501690265897196,5.762976180372789,5.437804942452203,11.525888969354128,2.2528099178634875,2.3580827841669816,-0.7178796098878593
1.4199999999999997,6.877996513776452,2.9894254967621237,9.856999098337837,10.689573877356452,16.822896551326266,3.4545859624395234,5.738712302873864,1.740814329406021
1.4239999999999997,11.16809336159713,4.2630499982624315,12.728945533050137,14.737145504113869,20.78375612288619,4.10138185404503,8.377955794150694,3.3852055514644235
1.4279999999999997,13.506953561882256,4.199865350014079,14.29392895923229,17.002292163491802,22.591646727296393,4.113001463509136,9.945430503223179,3.979088015485104
1.4319999999999997,13.77241673401295,3.4046322009653522,14.623107075545704,17.24385961439839,21.875771376004195,3.4336058414810395,10.394631580391433,3.6921253981217887
1.4359999999999997,12.303016985122667,2.3917233943066094,13.876129325250076,15.662323232438212,18.87052044896336,2.111181933678381,9.872468169776766,2.983407093020105
1.4399999999999997,9.815824840203277,1.4047228574199835,12.319674481434049,12.915713319551287,14.418256508946797,0.4266809628243209,8.650074914224206,2.400523694180265
1.4439999999999997,7.221941657491698,0.4587725741475879,10.349329871965892,9.95796640586559,9.748996395815993,-1.08174923720253,7.077461158146434,2.34946547526215
1.4479999999999997,5.35315677791732,-0.48799236488230235,8.430546477822645,7.708712666881183,6.074378661272931,-1.7974385288616759,5.5365610674480195,2.916261805691647
1.4519999999999997,4.648020070053462,-1.4088012199499644,6.925731006580463,6.657355573028326,4.1220104321782856,-1.365716344462271,4.3489484725050715,3.7982069807021617
1.4559999999999997,4.932778564234468,-2.234306974516585,5.890868332662649,6.603495920975547,3.832570889266208,0.001413898771716049,3.650453399784965,4.402514638237335
1.4599999999999997,5.467549907818466,-2.957807044591391,5.02002679623547,6.741030604836851,4.42655199422552,1.5049994860492006,3.3429001310050808,4.116975482094858
1.4639999999999997,5.29162242764869,-3.7071829644137324,3.8238251823240716,6.0967780181490525,4.849176082994745,2.1119236472459306,3.1804843271420395,2.6538571885830606
1.4679999999999997,3.755839876663231,-4.671897820324375,1.9990351771048154,4.133468838685076,4.390152336167375,1.140863300905039,2.992999561211036,0.29288184761389857
1.4719999999999998,0.9688789390493184,-5.902106186320452,-0.23164418538362952,1.1794152399816085,3.1275444603106735,-1.2502721489236137,2.8926495243595127,-2.144713043666343
1.4759999999999998,-2.1489144157530973,-7.165938146499684,-2.093903676748596,-1.6302821598183073,1.8791178778210451,-4.020794187597858,3.26320636577384,-3.663482593394292
1.4799999999999998,-4.3077549333866045,-8.024361795867662,-2.652371459011192,-2.951955051787081,1.6326469835457829,-5.7519387977718,4.464826610575074,-3.6863008995960627
1.4839999999999998,-4.592533007125894,-8.130653145539327,-1.4428042979488964,-2.0770134218219027,2.770918158483255,-5.469861146686526,6.3998496786516625,-2.558057438472133
1.4879999999999998,-3.095754161608056,-7.579780408732404,1.0321672069767374,0.47504923369706376,4.577547724737087,-3.323300022715557,8.231025166099244,-1.6332043352131222
1.4919999999999998,-1.0197017856189632,-7.032701498526876,3.3213354722902295,3.031507299583609,5.416819149744697,-0.6683593877187377,8.539607208479538,-2.7788704303520717
1.4959999999999998,-0.1127852959180018,-7.460559753264533,3.6531039279943798,3.5606465197088255,3.5795706711396633,0.5574657949728135,5.956409921793238,-7.444540521286399
1.4999999999999998,-1.6717846562060004,-9.565546231351618,0.9158573357090063,0.8245357658888679,-1.61647793537486,-1.1104092883215344,-0.001465068809920922,-15.740406943384187
1.5039999999999998,-5.675675023969234,-13.216735687230539,-4.555964841918467,-4.756736131872458,-9.12701249294878,-5.762641589331906,-8.366080701994179,-26.040633799708303
1.5079999999999998,-10.577070151353837,-17.277251663785137,-10.89045094458561,-11.07261030419977,-16.377885234911446,-11.89589986030478,-16.83402208127518,-35.41598066468396
1.5119999999999998,-13.953700803933316,-20.00477799755572,-15.42282411801716,-15.22880233846081,-20.355288033480974,-17.043672697602233,-22.612200830673828,-40.77834641761092
1.5159999999999998,-13.745779364078771,-19.896545940022406,-15.959848039306962,-14.982193729971186,-19.079702375975103,-18.96413100645441,-23.628342169265125,-40.21478753291831
1.5199999999999998,-9.41384342539095,-16.525449410148212,-11.90176963896738,-9.940199185053643,-12.668230681771092,-16.741293567618413,-19.485037235838718,-33.8407523330261
1.5239999999999998,-2.3739323632362357,-10.880207700456594,-4.606784562452958,-1.8647903689306986,-3.376411811883372,-11.21612472261586,-11.640377781981442,-23.722154122901884
1.5279999999999998,4.583622682130226,-4.965453854067164,3.2355304124030226,6.115914972386236,5.448522812159354,-4.530131337905914,-2.6887540946772788,-12.900747694402526
1.5319999999999998,8.631608241568756,-0.8336714017514169,8.909622846087586,11.00436459825869,10.966677136409999,0.9568695765610755,4.872080879329587,-4.029554212196672
1.5359999999999996,8.29120907234028,0.4199151923021418,10.95319752641808,11.34425353773986,12.139628777264079,3.775944760243874,9.720861611103828,1.674449324980742
1.5399999999999996,4.1435525468114065,-0.8439775394454045,9.74555463696015,7.822987307070434,10.055542448504639,3.9118541328880383,12.086004977247285,4.653555826928823
1.5439999999999996,-1.5183236674311047,-3.09033220737183,7.1156750518021,2.7756881247114507,7.153588031464096,2.5679573493162025,13.262413091531926,6.37546383668996
1.5479999999999996,-5.902033553917136,-4.505329447511031,5.220756001719565,-1.1081996368957334,5.8115483769033744,1.3275613931655244,14.617793144891039,8.257360692581642
1.5519999999999996,-7.104047546010406,-3.968461891221523,5.367139175221382,-2.1273477612339775,7.122832852037391,1.2434146878149477,16.7221791230495,10.801270899844894
1.5559999999999996,-4.957003841529513,-1.581843896989085,7.407093784349854,-0.2631636893202085,10.501129537569796,2.3661507990182145,19.092932576404564,13.424366255720997
1.5599999999999996,-0.905469855388219,1.5191353014579363,10.007558309363958,3.089113092486514,14.25829763015463,3.9196272670742474,20.645151306682237,15.004987361483472
1.5639999999999996,2.962108307503513,3.9177891490435286,11.57325184547517,6.1186305575902225,16.73890959700293,4.948812971237203,20.514791388010963,14.747779219186668
1.5679999999999996,5.135305502284609,4.7633612553891,11.247483911844029,7.696786236567277,17.301084883336443,4.986293557820318,18.705229444720317,12.790362502742937
1.5719999999999996,5.470046813639783,4.225187186613766,9.40757238990409,7.944108851836063,16.590223569502996,4.327648849621255,16.15712162406453,10.174563799178031
1.5759999999999996,5.0963481721883,3.288347391255229,7.381088686299336,7.9713517191157734,15.989430709221779,3.7755426319345133,14.202730986004099,8.219704192827521
1.5799999999999996,5.555376548334607,3.0639206255727913,6.590502268009004,9.014539255324053,16.631884228663694,4.0427737998907105,13.764441595965764,7.7105095196311595
1.5839999999999996,7.724293284620217,4.0699517065731925,7.668159601093066,11.530447860604909,18.616380719366134,5.217768308775703,14.801222229130872,8.428204412039122
1.5879999999999996,11.16721444941868,5.903598953726032,10.052054878182389,14.796513970330125,20.889491543777694,6.640714974168077,16.327255021840756,9.309955918841297
1.5919999999999996,14.296617369695014,7.481725580395505,12.292495060100919,17.249641544891347,21.850930970123954,7.273238343825142,16.98367172207054,9.130260120544335
1.5959999999999996,15.255939079725067,7.687967922676307,12.873577621735421,17.35859889214771,20.310496516252897,6.339045925444225,15.80553872119117,7.286452854040363
1.5999999999999996,13.015918683394375,6.039043862307153,11.076715671712009,14.518328373037548,16.234994468832156,3.85368165883483,12.751286033865654,4.215434196474462
1.6039999999999996,8.04417932252909,2.9813771979461308,7.394749160292122,9.449306886850536,10.861201085213906,0.7142985225873417,8.710870148568574,1.1923092766028276
1.6079999999999997,2.1520652033068473,-0.335079312138987,3.2808509656897513,3.875933596093091,6.1180765926219465,-1.7175471186565119,5.041864833843647,-0.365674260688138
1.6119999999999997,-2.3985389032204694,-2.6551697367794986,0.39373954900656827,-0.32761462372218375,3.695192020451941,-2.314672163927753,2.923001961415139,0.32632732382262475
1.6159999999999997,-4.0494865960936295,-3.2544484590871434,-0.24452145242321421,-2.0543156319617992,4.254345227938757,-0.7797753951163031,2.8770829688692174,3.0059329287914807
1.6199999999999997,-2.7197262983972905,-2.2652471187975607,1.2862262564485718,-1.441962729448278,7.1909339495396125,2.1939442828297615,4.6673520537879085,6.5223894845366885
1.6239999999999997,0.21246632887414307,-0.5541798053382081,3.929534176175366,0.31661535702005494,11.017683191936158,5.275179460502841,7.539544232064145,9.433324488613835
1.6279999999999997,2.70846492198325,0.766326904991729,6.27554023715129,1.703762792141788,14.136036630750823,7.1663758211198,10.623863210210402,10.692112077486854
1.6319999999999997,3.208123846525268,0.9234343016341882,7.329643886980193,1.739980853148154,15.583110485989891,7.245652230338237,13.269668631659442,10.05991336912939
1.6359999999999997,1.4549055296774895,-0.1600450527494104,6.987915906069247,0.4868395841331221,15.371811418975994,5.8396684053659556,15.156487732034293,8.056963251419802
1.6399999999999997,-1.4134393509702932,-1.8781096984239412,5.992017579526873,-1.0483433231529489,14.31152546316298,4.009122110091994,16.218449934280216,5.553728679369669
1.6439999999999997,-3.5402756860748923,-3.2834427872585366,5.430871832930279,-1.5207304917748843,13.462967592487985,2.978929622880969,16.509546791585308,3.2875309780783937
1.6479999999999997,-3.3840704114336404,-3.547319623579824,6.101004835411004,-0.013904879742767662,13.562593341683169,3.5204281116566563,16.12539956196997,1.5780714389393324
1.6519999999999997,-0.5397705840005074,-2.3077005203558656,8.073618654460006,3.453780132400425,14.709956913131464,5.60523381566054,15.210934348396222,0.34725239469116786
1.6559999999999997,4.075695761068346,0.22009509776216873,10.68150959045306,7.9322642277766136,16.429660243778926,8.475147171007848,13.989027094439734,-0.6342100617011965
1.6599999999999997,8.746645079732843,3.404489338679923,12.913443156230642,12.035942134851211,18.02991172334987,11.055485229355327,12.742681745600748,-1.4753826940159342
1.6639999999999997,11.861180172632885,6.517308532982497,13.975625617738842,14.644344118572917,19.02053098254146,12.477991290743375,11.734724658159394,-2.034576897066472
1.6679999999999997,12.670290024594578,9.03062168458564,13.68711076128966,15.412929479265586,19.336303122350728,12.44193328585061,11.079182614122146,-1.9864704128794983
1.6719999999999997,11.521875574202568,10.775069128423638,12.507512819182011,14.839722232834902,19.260030304680186,11.262610856123501,10.669040295978448,-1.0288004387639376
1.6759999999999997,9.493483864065638,11.905981013556811,11.202493892513303,13.874697183357057,19.118821712429053,9.631256247921556,10.218655523476627,0.9176342297805604
1.6799999999999997,7.688449502958974,12.719205532750493,10.364559870075027,13.318029516463866,18.96486302474659,8.24561365243062,9.407323006924344,3.634649555294345
1.6839999999999997,6.646376441400207,13.430762562824384,10.082979404247453,13.36977472756189,18.464973905804072,7.52852527259347,8.066136647307758,6.693848382932629
1.6879999999999997,6.16779990158102,14.022427641300965,9.93078459807657,13.56449715821509,17.06983538831446,7.543519281811314,6.290514734476346,9.62726875343833
1.6919999999999997,5.604513586426037,14.239774532112278,9.272022244716936,13.11736450647004,14.375845516891786,8.096476956916376,4.414248023433174,12.068398074075958
1.6959999999999997,4.391040024056565,13.741206606022388,7.702958296977158,11.48066779025612,10.47399772738936,8.917886060253295,2.8654306006883417,13.821605054241445
1.6999999999999997,2.454095033775957,12.32437092958753,5.3590881452546455,8.777205493981455,6.067076749375701,9.799544060168046,1.983986545233165,14.85702554674026
1.7039999999999997,0.272073542666476,10.123529437378238,2.916144026108668,5.858660959806002,2.2654837515201507,10.618686085734225,1.8920049271064272,15.258899069764993
1.7079999999999997,-1.413294617923384,7.6655963483226515,1.2826044147695939,3.9391726613139326,0.14725783398534986,11.268663308701434,2.4696942961772947,15.166890499816873
1.7119999999999997,-2.010700705632189,5.750789871368397,1.1705904139962513,4.004823955943721,0.3111799086727842,11.594451343857145,3.447142292566241,14.738869453304687
1.7159999999999997,-1.3527223843775573,5.182854042357576,2.771190096707869,6.313526556285069,2.6414093268231227,11.413733725967177,4.555200041323587,14.134130720887697
1.7199999999999998,0.31054781903367257,6.441226925442606,5.682869566662703,10.238273253395164,6.375875129037013,10.615335603020867,5.642348122320982,13.485053424525177
1.7239999999999998,2.5379699762706878,9.427643282933786,9.1022528726171,14.533658945772913,10.424169675330631,9.273241988021255,6.69622229522156,12.865974731255847
1.7279999999999998,4.952336195543467,13.409879225933764,12.155423670123128,17.880709622208087,13.766528834068595,7.684947302363071,7.768002775083005,12.271709413096687
1.7319999999999998,7.346893231544527,17.215449519268077,14.194768102686794,19.42414816811288,15.744726358014304,6.273560759100292,8.853173396726561,11.616196500288424
1.7359999999999998,9.591287845203624,19.61604730833642,14.928117746618227,19.039577061703312,16.142884953995235,5.386977272955846,9.796542962704734,10.765544380083156
1.7399999999999998,11.460833747772995,19.774951907904324,14.384246454035747,17.2366547772981,15.105054332565487,5.112403709737919,10.303122309445826,9.610288339506951
1.7439999999999996,12.565897084881726,17.571018894495865,12.78870806904888,14.792470254742511,12.984011896083757,5.22143341890478,10.0548345302077,8.14776409793376
1.7479999999999996,12.470939721686591,13.64952623721183,10.431750058163743,12.32949696292053,10.211537299901465,5.289743353587255,8.872492938043251,6.528670718648755
1.7519999999999996,10.967235069183516,9.188432655973884,7.602792041117937,10.076580921318964,7.225996659341035,4.94010331714162,6.85701964906184,5.040383361913882
1.7559999999999996,8.297226462513208,5.452413298527972,4.5840852469118545,7.902937409289734,4.416007660025571,4.061054260620949,4.422309163393038,4.027125998516567
1.7599999999999996,5.139613092364016,3.3017393023328623,1.6392262224762817,5.538952810915362,2.028104297527534,2.8689933253335766,2.172580725003172,3.7610617088839717
1.7639999999999996,2.317127369955415,2.8596608931111405,-1.0334553502798371,2.826316794664308,0.05946178799786139,1.7703666502493434,0.6603720375142075,4.314704818743849
1.7679999999999996,0.3698904728917114,3.4814910639506707,-3.3628063557189307,-0.16186050702162902,-1.7780549021681509,1.102240042617268,0.1420976250192325,5.500076391263974
1.7719999999999996,-0.7282073031128675,4.066101027405239,-5.408706710288243,-3.1620156219942146,-3.929086173624455,0.9208393837889162,0.4758181092402083,6.91966077746838
1.7759999999999996,-1.5259916145150783,3.564289371504856,-7.28968769158746,-5.862866533239867,-6.709038028991927,0.9628561526187696,1.2077909093095514,8.119276466913107
1.7799999999999996,-2.7150878420870868,1.4709820502412185,-9.047160375987005,-8.025981582650275,-9.979401487806172,0.8232326958332123,1.8170028424437987,8.79210038117617
1.7839999999999996,-4.645586045800883,-1.934080453003844,-10.534659157197893,-9.511848158024804,-13.003461176724159,0.23974685167013376,1.9898171213462774,8.928326207929786
1.7879999999999996,-7.031345173269074,-5.710806528370085,-11.41521958958765,-10.221233006363036,-14.62965993603757,-0.697873996976341,1.776590924694574,8.826451556980828
1.7919999999999996,-9.019556596664188,-8.660428877752565,-11.274447230774967,-10.016372829515603,-13.760399631344626,-1.5538420595003117,1.5499131009755729,8.936276870254915
1.7959999999999996,-9.609612383501371,-9.82027988104528,-9.811315964536334,-8.726544662786182,-9.915315507321793,-1.785540300723369,1.7745220721699297,9.581110168505802
1.7999999999999996,-8.190652198998578,-8.824030121097167,-7.0000844610294735,-6.263622816564748,-3.5767910120266606,-1.0831809701157908,2.714414440190012,10.702307705100793
1.8039999999999996,-4.8917099400750885,-5.984758729027817,-3.1364733192949643,-2.776299487653887,3.899672638573975,0.401029329845187,4.24187240547235,11.775839147822353
1.8079999999999996,-0.5420761479908833,-2.09540247352561,1.2477434095944773,1.2726381791653694,10.797163167262624,2.0826742876433855,5.865406381099092,11.985078503887053
1.8119999999999996,3.7447185285891464,1.9435314790298435,5.566749784173226,5.207235026957278,15.743013656487165,3.2524781871015875,6.980332244115743,10.609238331793676
1.8159999999999996,7.141680837441527,5.482736904470585,9.367979483951785,8.412184619110121,18.251799714875233,3.498662652422354,7.2142062410785,7.448044401277912
1.8199999999999996,9.49058660870287,8.295370560843367,12.422410258401214,10.619998167881931,18.814549760882073,2.9748519717722957,6.665084952279358,3.041190769356035
1.8239999999999996,11.279622800762809,10.501864829904662,14.689264067825206,12.03304813396062,18.49305844877017,2.3439344898160925,5.868353137721897,-1.460453683558626
1.8279999999999996,13.257539194566561,12.348469156562714,16.213688845156867,13.191011046339554,18.264281999814557,2.4036086140404223,5.509597397474863,-4.742402799058709
1.8319999999999996,15.913577209641517,13.997076377712801,17.037305458419723,14.634217227860063,18.479163157004223,3.599064513311532,6.035681509214555,-5.893062277618355
1.8359999999999996,19.108457962931425,15.420814504256668,17.163081398988652,16.537249039691233,18.717970826312012,5.7087757215922466,7.375331111652486,-4.7976291136219515
1.8399999999999996,22.062035784812906,16.428053419096614,16.557244962747063,18.51945006171445,18.07669452000482,7.89919392243246,8.919132349244137,-2.158701385780205
1.8439999999999996,23.70878467435614,16.761649042426143,15.164959552948858,19.76131280171103,15.691183414872285,9.149160898667105,9.79728993639219,0.8702598172967555
1.8479999999999996,23.204524692950145,16.185218275963052,12.91013671374094,19.37327349924817,11.19924313521733,8.803689146696343,9.305302990435848,3.2442834302419215
1.8519999999999996,20.325170310050453,14.523448288582586,9.692393264520433,16.82967126069525,4.907976940403387,6.94405322970124,7.264733566581526,4.473092000167981
1.8559999999999997,15.57882930352389,11.686456305553293,5.434323876252165,12.25066763358518,-2.361218458167059,4.357770186994458,4.141409007536822,4.733332765253635
1.8599999999999997,9.98567724872919,7.723134091032989,0.19888472675120283,6.382842970308047,-9.607988232048228,2.1072565652484627,0.8582082658685977,4.601496587052679
1.8639999999999997,4.666401070706343,2.911506092044874,-5.664417255180524,0.3052738275982847,-15.958069738338963,0.9475315161598701,-1.6054515690875633,4.585776295193682
1.8679999999999997,0.4350468032316712,-2.176024725876232,-11.447397416381136,-4.983090036734211,-20.797937920893673,0.926644172413944,-2.6229766263750207,4.746567529993172
1.8719999999999997,-2.4160268371088023,-6.702091441718949,-16.16886065221115,-8.878386396936548,-23.741015643827268,1.4133555188163882,-2.147990144539108,4.617032313964046
1.8759999999999997,-4.056143138397601,-9.744223786481598,-18.835066152696527,-11.240810730019803,-24.535927149516283,1.5423542749667831,-0.6694349263807453,3.476139425792553
1.8799999999999997,-4.8518304839672055,-10.582937258007405,-18.78184242554198,-12.229305726210441,-23.037099390456206,0.808168036663119,1.0561696144532107,0.800999008936742
1.8839999999999997,-5.06286243530667,-8.986486215108016,-15.945703446865082,-12.047670174282757,-19.290848271007235,-0.55583966127233,2.3494191262943787,-3.373859440533124
1.8879999999999997,-4.660853091543686,-5.340120403807305,-10.920108946433174,-10.777893514759853,-13.665496271377378,-1.6606055369793467,2.8576235213622567,-8.397904575695975
1.8919999999999997,-3.344014459207756,-0.5076212473559281,-4.734158666096846,-8.384414879279575,-6.895017494557578,-1.4753941581220715,2.630740484816215,-13.274959345530078
1.8959999999999997,-0.7422567398589308,4.507164845957959,1.5347872491693124,-4.876819979333959,0.03551511887417291,0.5129797318431883,2.0109136346322884,-17.1000054785045
1.8999999999999997,3.301249141111839,8.930355298496579,7.11519363147454,-0.5047191996218316,6.138035396536907,3.8904372188853813,1.423472478545591,-19.427969125613345
1.9039999999999997,8.521913444135862,12.429765000894804,11.686200489013572,4.164811489092244,10.681518284543927,7.41693023847256,1.173206938057774,-20.39335439756178
1.9079999999999997,14.199042408021342,15.059993627510266,15.255083771717182,8.347396875829872,13.343487215544883,9.604901335465911,1.3167063990213137,-20.541412088194193
1.9119999999999997,19.337001374722604,17.010473635175003,17.877705453416638,11.281233054074619,14.191016214333104,9.469184659174061,1.6546596027651503,-20.507164532397837
1.9159999999999997,22.9971470030996,18.341098102769138,19.422341547331598,12.497831843182212,13.533291834904958,7.044612721930207,1.8293988011782858,-20.709417610206856
1.9199999999999997,24.62296465821055,18.876458365733015,19.532279053299135,11.971466812403378,11.73881634348254,3.375377801912691,1.4707906181420185,-21.20277294156176
1.9239999999999997,24.211806116305524,18.320715714659855,17.817879616828577,10.082702181152854,9.109476272190477,-0.011206840326849488,0.3286309576774329,-21.72650689580405
1.9279999999999997,22.26089005173526,16.508149379952556,14.155097944852969,7.432030836735066,5.860611531493305,-1.8530687168076838,-1.636926324370961,-21.86743692322716
1.9319999999999997,19.52179002923367,13.616925178330348,8.900361161900946,4.607757216954269,2.1801425354615276,-1.717464231404847,-4.2204115753033875,-21.235530542313427
1.9359999999999997,16.670381785383142,10.177867721298753,2.8693478712957585,2.010737222391981,-1.7041191194985004,-0.09400330840981042,-7.016910421256398,-19.58476561322186
1.9399999999999997,14.0587150137344,6.8684438534237415,-2.9145937043122103,-0.1931215976273961,-5.495806758953222,1.9904305933177966,-9.527461231379675,-16.869824219891598
1.9439999999999997,11.667554533101793,4.217745676673076,-7.568980891215688,-2.0011586952950893,-8.854752319171894,3.583442488136825,-11.293537333869153,-13.272331949206546
1.9479999999999995,9.247463667137708,2.394392668002183,-10.619348229451134,-3.4572666417225264,-11.459652643154186,4.270354641749691,-12.023636678634375,-9.215521096096381
1.9519999999999995,6.584750457659538,1.2278917282019393,-12.042965407094016,-4.540767673799564,-13.06156118799845,4.259494229530901,-11.671718283096197,-5.337722148769444
1.9559999999999995,3.7156570975730574,0.41820738174737926,-12.11951946676163,-5.132575886542327,-13.522704709739628,4.077438358629479,-10.437026771649471,-2.3920750962779493
1.9599999999999995,0.9659039977668726,-0.21905407513804676,-11.206499843765414,-5.065654337202432,-12.8393467409187,4.103248204980446,-8.678953306141466,-1.0477166067539656
1.9639999999999995,-1.1746736649020022,-0.6237140192524748,-9.571634124098637,-4.204746980241907,-11.138429259129225,4.2750827277959615,-6.772997369146651,-1.635326371089377
1.9679999999999995,-2.2777629505053483,-0.5672575738599335,-7.376578918305313,-2.5230605952474434,-8.655519816224114,4.146962907551824,-4.975195775266002,-3.955490466111769
1.9719999999999995,-2.1581107640031405,0.1504475620949961,-4.766756157132477,-0.13733874988793104,-5.688426383956539,3.2455887688593066,-3.3377403803619927,-7.2715179013935085
1.9759999999999995,-0.9236110677356919,1.529485373674106,-1.9668879192322493,2.7052907013912773,-2.535167146961612,1.4808170878222882,-1.7164642723500947,-10.531315773598635
1.9799999999999995,1.1107250631193892,3.346227956434632,0.7042384835021949,5.670207352304715,0.5518681750827454,-0.6828722086365815,0.12134322124984465,-12.757990063517354
1.9839999999999995,3.5757826571916667,5.2882800173711075,2.925393960020301,8.398775773408488,3.383295120735056,-2.4214721800972256,2.3278971294307667,-13.42509861665394
1.9879999999999995,6.134121863866312,7.116489161493519,4.478745293467,10.551418830471448,5.7894542632375305,-3.026770183476401,4.801069772005576,-12.649724102368054
1.9919999999999995,8.484964635863435,8.750956161232352,5.3027996692098895,11.846108093195653,7.559034947714281,-2.3633513275444784,7.103211459740123,-11.10019987377882
1.9959999999999996,10.322535913970569,10.216615632741195,5.454810172735051,12.10518149681775,8.428941628963003,-1.0091261146071702,8.546524264738764,-9.644996024933334
1.9999999999999996,11.327779549848856,11.502691853610486,5.019563101477615,11.304977006016088,8.158891579058036,0.031643222187085485,8.440127049362218,-8.918517489828446
2.0039999999999996,11.26266961609872,12.46738009476394,4.042530464048468,9.623783184754757,6.6587687437940986,-0.09327389645568473,6.414039817830144,-9.013883670626456
2.0079999999999996,10.135747977376923,12.88303151364562,2.5489685099246344,7.458531584475168,4.099342386190983,-1.5379828656359678,2.686297151227791,-9.445494148540774
2.0119999999999996,8.332075912929213,12.612221949715604,0.6459626133564598,5.374329037345888,0.9136608383059865,-3.584420890756519,-1.8758306154950333,-9.407808488453156
2.0159999999999996,6.555190909670273,11.763197285634305,-1.400446142751207,3.954199890585187,-2.353700460460459,-4.97554862951074,-5.988618161298291,-8.204791458661703
2.0199999999999996,5.547596539057849,10.682330414267199,-3.2012151573326264,3.5879633346521587,-5.28253746104383,-4.597905889922913,-8.410373103272832,-5.6274970329582175
2.0239999999999996,5.704872873264321,9.757805660584381,-4.3994399082548625,4.286237873498976,-7.755806771215248,-2.1448556134891987,-8.451429197044035,-2.091167540744209
2.0279999999999996,6.793044395482866,9.15042663417671,-4.859378531717084,5.617445843963651,-9.940295942286866,1.61385899592824,-6.290894764566929,1.5452301828349846
2.0319999999999996,7.984546550144842,8.663039848937842,-4.750521303019013,6.839624675275445,-12.050037290495311,5.129524932865934,-2.9105667645044377,4.3823019204553475
2.0359999999999996,8.25053021686108,7.8710469456877945,-4.442329492893805,7.20629885816561,-14.02591938092064,6.806524115522734,0.34358139531877896,5.906115219468575
2.0399999999999996,6.941540594380967,6.477000393625076,-4.2429726007785575,6.3319979445750505,-15.345264639725428,5.788915448667467,2.383364836090095,6.228266879314106
2.0439999999999996,4.2302815307866695,4.662365598192537,-4.136062691190091,4.436504248485107,-15.135959737051962,2.398635271202693,2.8901331325748743,6.019104414294134
2.0479999999999996,1.1322708317729848,3.1634068063958694,-3.715515758147376,2.3140518659747613,-12.608729357775246,-2.004782895943208,2.4303938295608987,6.149389259637246
2.0519999999999996,-0.9523718274358544,2.9649406105563685,-2.390362508492217,1.007846582021557,-7.589919793936133,-5.662463649992333,2.1213081440801034,7.215797408698563
2.0559999999999996,-0.9612091673507166,4.740658613977757,0.22189437033102877,1.3208931826075059,-0.844367801140379,-7.221454134349642,3.002230218817431,9.197797291824827
2.0599999999999996,1.2283348629780448,8.358099717890582,3.9360370530030195,3.390228436288453,6.04321798593719,-6.305567599694768,5.438298474634848,11.424706593429164
2.0639999999999996,4.666373790407306,12.76529991337884,7.910843594902872,6.553529602680101,11.223227730904,-3.5809174339665333,8.874741868415185,12.878605788314417
2.0679999999999996,7.766541743611924,16.376225280596827,10.927402293058549,9.596782242213521,13.32179959653422,-0.34098214373443625,12.065162272303041,12.689199938294223
2.0719999999999996,9.097315446837456,17.788590183751694,11.926778634840957,11.280543403863703,11.995031912716058,2.131945186966277,13.664131651828939,10.572480705400721
2.0759999999999996,8.102328347406,16.448637984634843,10.529355817759097,10.894134317304633,8.006414988331926,3.0993033647678203,12.880079148791538,6.996259050226854
2.0799999999999996,5.351405836951017,12.893773993005652,7.243978871658328,8.554765540702647,2.7942228053766485,2.5559074985644656,9.850694048672949,2.9787247190240578
2.0839999999999996,2.1967761580663137,8.452038478048053,3.243255117953595,5.111501663529452,-2.2170322756501264,1.0520650811940868,5.575088436451097,-0.37200205369776995
2.0879999999999996,0.022080719072619104,4.5660560458591135,-0.19322096556243196,1.710342780141218,-6.189624341610852,-0.6892063887507902,1.4472298121440872,-2.3371329368728766
2.0919999999999996,-0.484004270537298,2.1361182851410376,-2.2772587223762457,-0.7451462543767775,-9.052262544340465,-2.1208462162667274,-1.351534169807337,-2.850369092217079
2.0959999999999996,0.3644389111905184,1.2226791783377848,-3.0324179143635774,-1.9575750554004117,-11.239491508054925,-3.01452785034553,-2.308902574957301,-2.41526227055283
2.0999999999999996,1.5160993476065414,1.2260612440863952,-3.1766662917316353,-2.256287233396506,-13.204864508510582,-3.395225994161592,-1.6875016866001715,-1.7487089732753702
2.1039999999999996,1.83825699577028,1.3759486845674473,-3.6565008791985747,-2.2989716714164388,-15.039765087180058,-3.382684482553941,-0.2889105006108821,-1.3704018614118922
2.1079999999999997,0.7845240593460403,1.2213469270718633,-5.070555066055022,-2.6308351312109153,-16.394156940649736,-3.0671687569597452,0.9916691900280057,-1.345138651361367
2.1119999999999997,-1.285333777903361,0.8530877208636412,-7.2832108147831605,-3.341980805967978,-16.708316004440803,-2.4887897217677164,1.5914059869464836,-1.2976151046921132
2.1159999999999997,-3.303657314851989,0.7662580286992124,-9.437858515943844,-4.016101205515952,-15.583416506857247,-1.697711324068223,1.4889785807436056,-0.6779780491858673
2.1199999999999997,-4.08387159551512,1.493191632889193,-10.366195902487561,-3.989416738579166,-13.049265269030002,-0.8170807119499841,1.135432907870836,0.8810787249328769
2.1239999999999997,-2.9669532799498484,3.2414859888485807,-9.179374178085709,-2.7652354881256542,-9.584457196740004,-0.032981537524847226,1.1686910625053315,3.316923793472938
2.1279999999999997,-0.17969515996264818,5.734518892127198,-5.748058918441529,-0.3613863497071179,-5.9061734798860925,0.4784726365937786,2.0581089591125874,6.11598420803648
2.1319999999999997,3.2647516630813698,8.317585085435894,-0.8366414790853014,2.600300557765877,-2.6772891412038007,0.6356897605828635,3.8566874344132884,8.514296795815198
2.1359999999999997,6.040113102437772,10.223268215339886,4.171705855283108,5.109278962225289,-0.30791091978790064,0.48069418048589796,6.146096611276562,9.794658407234692
2.1399999999999997,7.109605369552355,10.858326087956357,7.8457407530941055,6.195082786956846,1.088168611234778,0.13376337495856205,8.215973611211211,9.55368470579242
2.1439999999999997,6.175759062620273,10.000911086635824,9.318862551810525,5.378739610948287,1.62487975009617,-0.2683018793300107,9.401031347157414,7.8500873154696365
2.1479999999999997,3.7746685219435676,7.859960052722727,8.65789317200506,2.92430550636891,1.5447663280574488,-0.6058471142764574,9.422149577336768,5.186888247265642
2.1519999999999997,1.0084863587089785,5.018328654001834,6.820639519450651,-0.23091094523897482,1.1543241936628874,-0.7702499527795226,8.571151957155507,2.3528403370905835
2.1559999999999997,-0.9550396545146214,2.259866027809494,5.188201081472926,-2.8716009440731796,0.7633202392739804,-0.6543840857102623,7.599124758297648,0.16617555932066352
2.1599999999999997,-1.4002379817361543,0.30768176367473643,4.8671937030735535,-4.0713650819147915,0.5855700687507124,-0.19438542093212163,7.322395579007207,-0.8205759367015162
2.1639999999999997,-0.37561373869812087,-0.460670826567366,6.090931876084596,-3.6693335676118295,0.6006335670383578,0.5325586617555018,8.125497248674264,-0.5520575581224421
2.1679999999999997,1.310941874299715,-0.22402859505837114,8.016076894929483,-2.428864285425334,0.45059268855698065,1.2047714075581553,9.632569489088723,0.4691858565423672
2.1719999999999997,2.425851438715199,0.2887050492238359,9.064009772324425,-1.7563355655911437,-0.5007744436902613,1.263498233937753,10.776065487506685,1.3552715342385682
2.1759999999999997,1.8528555687689732,0.0862437296382268,7.695884884343741,-3.050563672854878,-2.8733477246901202,0.10889520989803714,10.296026165831677,1.229327962021216
2.1799999999999997,-0.8761806234897449,-1.587218463224417,3.2642271505119425,-6.96031992031476,-6.838140196016866,-2.5663654567829326,7.458828264693693,-0.2969929801239459
2.1839999999999997,-5.290574390021902,-4.769194569133333,-3.4926376924513534,-12.90663841821879,-11.779403610062673,-6.464588890754385,2.607310428179744,-2.8005333882171044
2.1879999999999997,-10.095249296830843,-8.611368807710278,-10.617198481284504,-19.151901132900093,-16.304239546034523,-10.605209119391475,-2.8131495093796275,-5.0901607391544985
2.1919999999999997,-13.685601729570408,-11.685771751289622,-15.741796086732393,-23.45740560105787,-18.713448321094575,-13.610268131028988,-6.849942054636131,-5.684938393534821
2.1959999999999997,-14.855091061427629,-12.668143220611455,-17.17228513316286,-24.06328773004907,-17.759033022872018,-14.276606133129917,-8.003060671344883,-3.539425415900041
2.1999999999999997,-13.35465558944179,-11.044653572601874,-14.691245411509044,-20.513565341686444,-13.296865200131379,-12.15915176466524,-6.028539010791064,1.3555823838413517
2.2039999999999997,-10.025078766954266,-7.435036267822852,-9.643026625969469,-13.907467369287133,-6.455724214400561,-7.844702880759996,-2.094404149152524,7.8566673463257075
2.2079999999999997,-6.410391931057347,-3.3162020969298283,-4.2340320369148685,-6.421166867485681,0.834231024138262,-2.737753558096756,1.8257513534676946,14.157204786101715
2.2119999999999997,-4.004971895669769,-0.2501262807211333,-0.40147235837048356,-0.30378098502751527,6.747422569665332,1.5789465146881412,4.036891877833796,18.67174173241574
2.2159999999999997,-3.525092014996062,0.9441171690900774,1.1380703722352337,3.141330544745415,10.413268099180414,4.079972235264449,4.079919888109771,20.848151700625124
2.2199999999999998,-4.604035185133853,0.576448458691857,1.1246038540880363,4.046218778522643,12.225734058501075,4.728021768186409,2.969110481679081,21.42061837578808
2.2239999999999998,-6.08539666349543,-0.21804189834540466,1.1422086247198422,3.6815663834872794,13.423020684178482,4.377403032926395,2.537220898579335,21.92278373438012
2.2279999999999998,-6.773398415971769,-0.3142430782572774,2.5042685347984843,3.5437509283638065,15.165100927779577,4.1957213868295185,4.237396418172466,23.70785007264351
2.2319999999999998,-6.21163778566779,0.5610031998040768,5.303205924289159,4.358316474916819,17.65975911911687,4.934045597843351,8.122401121543248,27.043663892894074
2.2359999999999998,-5.014891484620875,1.5404703173923053,8.222652521298187,5.601214872286164,19.899341276836367,6.473267739791709,12.664080968888697,30.847535450634382
2.2399999999999998,-4.521354788721965,1.119947972930163,9.265332724592099,5.840128013644062,20.21898120711944,7.908433565165524,15.589929271896267,33.26773400960701
2.2439999999999998,-5.932901233883058,-1.8017824695689342,7.002824439736742,3.716357505989208,17.381600468865486,8.131482646273298,15.28353765702235,32.811649481329255
2.2479999999999998,-9.468465765718065,-7.008897682104816,1.586995025336364,-1.0367121495528409,11.528755293628137,6.547929965142885,11.892412637141717,29.343684889079952
2.252,-14.04824475675241,-12.782641749712866,-5.111781708848639,-7.173449083009473,4.387161672555067,3.5056599871124945,7.422658404434912,24.31388784071538
2.2559999999999993,-17.75577148635898,-16.65719399033253,-10.394739617471714,-12.429923890721511,-1.475816363909189,0.17483975567779453,4.658079275850014,20.015448069161835
2.2599999999999993,-18.857989384097436,-16.742247892718296,-12.181536666153079,-14.701184140945088,-3.980901224173863,-2.0624289998353333,5.4753524230745825,18.261911772545204
2.2639999999999993,-16.830592411727366,-12.881860654483717,-10.220543171876443,-13.253402694822853,-2.731255454689176,-2.3688559145246018,9.530406004294832,19.23649317860321
2.2679999999999993,-12.787116342390846,-6.948317125662811,-6.3398903326506115,-9.256031999836523,0.6389750693197129,-0.9255989022768745,14.147339747991623,21.234919389217396
2.2719999999999994,-8.987048045727533,-2.0087742601050422,-3.5309257987300953,-5.258617808223107,3.2336982388957267,1.1648429593133187,15.605971093795006,21.527661532819025
2.2759999999999994,-7.660991896545966,-0.7775829312080305,-4.348086161334777,-3.8539384420428178,2.4102282945615343,2.5009087659311717,11.187996337142636,17.914025239997954
2.2799999999999994,-9.777680040157293,-4.166451366545743,-9.468155882465453,-6.234760655395803,-2.746235025254464,2.182014587821868,0.8954293097773416,10.128290546543553
2.2839999999999994,-14.42598167719052,-10.716925500491698,-17.195030711585446,-11.434185980839402,-10.792067176406022,0.349325056618909,-12.153283866952847,0.2934549877606969
2.2879999999999994,-19.181828076271586,-17.245641216300783,-24.19872383967197,-16.700554956099154,-18.50101157447375,-1.8322428861814615,-22.950765239744783,-7.8840416475876225
2.2919999999999994,-21.285802854282906,-20.35755426933406,-27.078576989358794,-18.825028882154015,-22.351129341224578,-2.745062055174003,-26.83766078933587,-10.781628464233393
2.2959999999999994,-19.033055063837082,-18.059999190996677,-23.95739408630368,-15.74700427968071,-20.170933505577125,-1.1554841489565888,-21.636359360757098,-6.5498323411563035
2.2999999999999994,-12.656858944603073,-10.673778036574902,-15.314060611961509,-7.60581397207045,-12.123817874659892,3.119573954591658,-8.608502213785215,4.031005461798941
2.3039999999999994,-4.239311174799468,-0.6106346282904838,-3.67543523098675,3.301628822138923,-0.5619186577422965,9.068681792752216,8.204435636835882,17.927391275602957
2.3079999999999994,3.2644636753733494,8.777351224229278,7.574642100725669,13.580948991425203,11.094863740217761,14.908314781708384,23.83242934224583,31.20187017847954
2.3119999999999994,7.363408131050164,14.651443680378804,15.61238339271074,20.240966624194584,19.82819107689778,18.85046391217776,34.436940233225386,40.61645863524194
2.3159999999999994,7.0467786729641375,15.72828747339014,19.137833299956014,21.87565452194076,24.11409887535774,19.847431554076252,38.5850378889146,44.72293169715218
2.3199999999999994,3.031213888120533,12.498278181833712,18.522911366177368,18.998728223847365,24.18370304827829,17.974797553814255,37.24814065839206,44.020402223740405
2.3239999999999994,-2.7867713103904634,6.667963397352196,15.239989483035856,13.478781715970968,21.468614982169356,14.303611980715004,32.749340174135455,40.27398938710323
2.3279999999999994,-8.32306604582925,0.20597262053468057,10.976198985053088,7.4658205741922075,17.644733189190788,10.356470669525606,27.38012385686676,35.47768063229043
2.3319999999999994,-12.198352463503397,-5.479392366522006,6.919016442649649,2.4182859289552425,13.831219803141039,7.44694697841328,22.452458905954757,31.03296501349172
2.3359999999999994,-14.115128286780418,-9.879230850988506,3.502243235974902,-1.3088840483922013,10.310191502476982,6.201008066115037,18.160326510174002,27.46309039805189
2.3399999999999994,-14.65755670376484,-13.216784147770227,0.5722869827981185,-4.233395462658109,6.773502652750835,6.431652898295283,14.094507770601354,24.62120684006001
2.3439999999999994,-14.72505564625044,-15.985009127813441,-2.2362310474375136,-7.111748866787821,2.8372592750173453,7.381298698027308,9.923711965495215,22.123274393070886
2.3479999999999994,-14.954998073269962,-18.493867782478105,-5.164592770410309,-10.31434632961168,-1.5420837181098932,8.168823927665358,5.779730535619819,19.699456609786353
2.3519999999999994,-15.433747363967086,-20.653347089399745,-8.177473110511755,-13.544746932342605,-5.976179642011402,8.209085077660689,2.1554801814043003,17.3048923776974
2.3559999999999994,-15.759930390788668,-22.030027051985712,-10.976051633649377,-15.98204299443455,-9.84676847936396,7.433439781864081,-0.5028429087568611,15.051484659587118
2.3599999999999994,-15.34259598149788,-22.08086694518522,-13.101563160255637,-16.69962534607953,-12.614131151933861,6.251282872635102,-2.133901782512112,13.117297201355541
2.3639999999999994,-13.736392225598365,-20.4225994589018,-14.067102830412068,-15.106554445377242,-14.024541249032836,5.3065045741367385,-3.0732071703157544,11.738597764074711
2.3679999999999994,-10.8612040409555,-17.036936618001505,-13.507910460571566,-11.218301299143832,-14.13488104551277,5.150148474555294,-3.759304017951081,11.246200129713316
2.3719999999999994,-7.050895330180765,-12.347284535923563,-11.34132581695485,-5.674068802969487,-13.188857164985734,5.979839217647054,-4.3863569069524715,12.034619810669085
2.3759999999999994,-2.9624527623959693,-7.162905882230689,-7.895309246728175,0.44629815325583877,-11.476240094129935,7.552657565855043,-4.775278629854938,14.39909351210622
2.3799999999999994,0.5875156996376063,-2.5016156355194425,-3.9206456263329983,5.901826150444776,-9.27392145120757,9.288406968685536,-4.5748558980084795,18.28257862016801
2.3839999999999995,2.826815282704274,0.6857715892889473,-0.39947877325698755,9.5960369361851,-6.8576604889327655,10.519921911933352,-3.6423594278292626,23.10288701326209
2.3879999999999995,3.2334982218862933,1.8065077107078196,1.8134836498300047,10.83666286781272,-4.535377144293648,10.785535671315074,-2.3063231527576136,27.81987103109742
2.3919999999999995,1.71053787281312,0.8341380946161507,2.3687665368527178,9.510101837264756,-2.6229354636994913,10.038447444897315,-1.2987810667240751,31.269131938970588
2.3959999999999995,-1.3249819063742052,-1.6584847977728714,1.6167626246478903,6.137621134529127,-1.3429432025651522,8.686811755451458,-1.3599517601821276,32.63303969841439
2.3999999999999995,-5.036161119766803,-4.711611153165677,0.4459681116888987,1.736446467597034,-0.7414024740170362,7.427985052912732,-2.7667009610889295,31.778491770592098
2.4039999999999995,-8.452857343919504,-7.373875111195957,-0.19356339692353686,-2.5076679459668867,-0.7076334026903623,6.924084944160086,-5.095414038013587,29.256481766674824
2.4079999999999995,-10.844428059740949,-9.101416676041822,0.17181179692033766,-5.651098191139226,-1.0892898571659089,7.457806769444005,-7.4072762540495205,25.95908908585392
2.4119999999999995,-12.01214462050416,-9.958130428453615,1.2482815175280848,-7.322763188319641,-1.838177824152467,8.723499926088493,-8.753727481329861,22.621524083652616
2.4159999999999995,-12.327355089066259,-10.501392051274252,2.1275703850931222,-7.800415585943028,-3.0745092799404574,9.886667091671029,-8.712396515071362,19.469734840017793
2.4199999999999995,-12.455010725253487,-11.387524410801916,1.83329464507392,-7.7694374568175135,-4.98566049446265,9.934953679475598,-7.6236554025469445,16.224017568734894
2.4239999999999995,-12.901914832952798,-12.913365373483884,-0.049769841040415486,-7.878443718678682,-7.60990423909243,8.176705501085621,-6.384759175998568,12.443593004360764
2.4279999999999995,-13.639199000317603,-14.760386655637717,-3.038666494248446,-8.320478743019066,-10.640244943017933,4.659606637908382,-5.931700495051132,7.993809859733858
2.4319999999999995,-14.037650558772611,-16.102900076689593,-5.93621403433076,-8.68537104216648,-13.42332305079492,0.2903263857551792,-6.716101855717682,3.3156604963957648
2.4359999999999995,-13.18917000326769,-16.05269705707019,-7.4622805447281735,-8.189281170815093,-15.209083084635495,-3.4521260629903736,-8.490450447969977,-0.6858315805106372
2.4399999999999995,-10.449137785616813,-14.192994817256817,-6.962202982693043,-6.158135229702793,-15.526416075914995,-5.116923808104957,-10.494383499042215,-3.0635451556302087
2.4439999999999995,-5.9146577929654995,-10.908770829512605,-4.790418178765776,-2.5092103783542825,-14.489796905560297,-3.953594538540756,-11.926487224555785,-3.329177645214827
2.4479999999999995,-0.54675111520055,-7.306745075403114,-2.1395928530159836,2.05904718087163,-12.82735843529872,-0.3239152867010944,-12.421638088878012,-1.7291846805716773
2.4519999999999995,4.1718149438697765,-4.730501752629834,-0.4010868020693579,6.30217293118335,-11.569307384335843,4.378883486442646,-12.23474213927227,0.8657983270579166
2.4559999999999995,6.8787062310868805,-4.1209487353676195,-0.4188617137710935,8.975734408701783,-11.542039631446642,8.288640331953502,-12.042800651323432,3.384069632199555
2.4599999999999995,6.918143777316118,-5.578102449124003,-2.073496180401662,9.387189211546001,-12.940305679519724,9.84792553860143,-12.518114361529001,5.0232821317743515
2.4639999999999995,4.579101373185495,-8.342560247439224,-4.41116701903502,7.670691387644183,-15.214286825057798,8.461939025301035,-13.912071294410339,5.511304244121391
2.4679999999999995,0.8770536503168387,-11.198391515544586,-6.211980097632022,4.649111408596809,-17.337140636495178,4.710045759044533,-15.88790496219508,5.0502186558941276
2.4719999999999995,-2.9695480898101323,-13.061859009771297,-6.642119382365763,1.3842774577499313,-18.301395894910684,0.01820909068351284,-17.676858736170175,4.033693679307817
2.4759999999999995,-6.084285156309534,-13.460287185627521,-5.632166176112378,-1.3356306041607695,-17.588753643279915,-4.043473431544726,-18.47319143052107,2.740357862089695
2.4799999999999995,-8.221154263491371,-12.671046815699128,-3.8089465546067913,-3.301363402842526,-15.374830008324807,-6.4892708275237965,-17.85290844730571,1.1957776517851357
2.4839999999999995,-9.663078958368715,-11.467937017791428,-2.0522944124124933,-4.823557525094657,-12.362778710541306,-7.299489552616251,-16.000907635153567,-0.7232567489818393
2.4879999999999995,-10.857338939694728,-10.656147123059782,-0.989734614653571,-6.386889599599726,-9.375690441392408,-7.278534056643139,-13.630246870168207,-3.058005425033457
2.4919999999999995,-12.044125097973392,-10.661337332585163,-0.7273291508220154,-8.248505532423678,-6.9576941346026615,-7.487935644975323,-11.659116140744231,-5.612010901993585
2.4959999999999996,-13.094777865808283,-11.382359966773265,-0.9410882042166122,-10.219664589826152,-5.207397356711226,-8.573692021592251,-10.813587104347448,-7.998231776846467
2.4999999999999996,-13.626330386767677,-12.344348845438617,-1.2204988673811386,-11.744351215427741,-3.911908756389039,-10.358551602263105,-11.353071776192564,-9.86497646672376
2.5039999999999996,-13.283237823996387,-13.015249075261636,-1.4040914958955,-12.207323648770398,-2.8665079412280647,-11.92365487478446,-13.030365290513487,-11.140531331547322
2.5079999999999996,-11.993959688238192,-13.097396023738838,-1.7008308585263876,-11.289620597500289,-2.163576184616886,-12.137935830512106,-15.297752234183918,-12.12372856839113
2.5119999999999996,-10.03224478543234,-12.630464570018603,-2.530428041500727,-9.16273407764902,-2.2476382514196303,-10.34522322548014,-17.640438617747918,-13.332209489569436
2.5159999999999996,-7.863322935685574,-11.888675282131999,-4.207354100290104,-6.421111110356378,-3.68638060464059,-6.820931034425257,-19.840734390756552,-15.172980849525402
2.5199999999999996,-5.894754671822739,-11.169501684320494,-6.68664255329395,-3.810686821565014,-6.794168895231451,-2.7370368801530276,-22.04522100245822,-17.636082985694998
2.5239999999999996,-4.285192017951431,-10.610993390070462,-9.525101445457949,-1.8998542493100103,-11.333808068636927,0.365577542075016,-24.598783007272345,-20.199993506162173
2.5279999999999996,-2.9284303905801607,-10.141559004907322,-12.066929545423136,-0.8669377631681527,-16.477101525804528,1.3334466461610646,-27.728963771973213,-22.012099992956337
2.5319999999999996,-1.6060845441329548,-9.55216536724538,-13.724923638180371,-0.48772183239043443,-21.055445313333166,-0.018037323906355596,-31.253965404432506,-22.247879701787497
2.5359999999999996,-0.20127514224031984,-8.632287361392628,-14.20415076060317,-0.3107870562434982,-24.001915986753602,-2.8244255562333365,-34.49505218395427,-20.46434040225199
2.5399999999999996,1.1575083148145495,-7.286668009714504,-13.561291830250411,0.0784571858180243,-24.76143425799455,-5.637283499685054,-36.45754309922904,-16.758688090135934
2.5439999999999996,2.099497465675995,-5.593142110045164,-12.116827832723175,0.8259537171197735,-23.48135449833603,-7.193300860098134,-36.23030204464658,-11.687838804039075
2.5479999999999996,2.1510894861339693,-3.8018278951228694,-10.311096315387204,1.7079725723720003,-20.90490891970262,-7.079245130674735,-33.415305136216034,-6.02534248343386
2.5519999999999996,0.9685165028813572,-2.2622645346859827,-8.561218208372793,2.221190154532451,-18.00732605239159,-5.921803333430034,-28.35041350793199,-0.49473245416697864
2.5559999999999996,-1.4533882007795,-1.3173750818336885,-7.1620181023336045,1.8256443513291742,-15.567220707858496,-4.99111949460621,-22.014055945198606,4.386494212251819
2.5599999999999996,-4.698231489323007,-1.192332681798689,-6.239718434735096,0.2231931475876081,-13.878504930170038,-5.44954078161868,-15.66655054925468,8.298069363072386
2.5639999999999996,-7.992985773458713,-1.881640468299338,-5.719422077976105,-2.433552545080147,-12.705585353713104,-7.65151252152782,-10.39417891592268,11.01455683056497
2.5679999999999996,-10.422640460763887,-3.102585190323225,-5.330058778203238,-5.512457079087653,-11.49626789642548,-10.89031839476388,-6.773812491543822,12.318988729008424
2.5719999999999996,-11.22300888100881,-4.34237933453619,-4.66632063786119,-8.082316682131477,-9.724413154926879,-13.739557511277098,-4.792833183852167,12.011044086696302
2.5759999999999996,-10.05537892582197,-5.015013468757843,-3.333920193954782,-9.251502935724147,-7.189284494671256,-14.803389178200405,-4.016031170078804,10.011914726350597
2.5799999999999996,-7.164080912988993,-4.692597234040022,-1.151354789585639,-8.538810355678379,-4.144169667699089,-13.46091162641801,-3.8628087785826892,6.488050005768059
2.5839999999999996,-3.323000959325327,-3.297628679547188,1.7070477487873177,-6.087479608586364,-1.190714077552684,-10.192019973856759,-3.8241807326693333,1.91542066681302
2.5879999999999996,0.429471048850246,-1.1600706418380469,4.719849552762298,-2.6213299597970945,1.0031416563665516,-6.306910079115141,-3.556611985365521,-2.976560930831056
2.5919999999999996,3.1714281457516336,1.1080762200235768,7.204927662062801,0.8395172558648483,2.006944154148414,-3.250831175254689,-2.873039550695239,-7.389815782959431
2.5959999999999996,4.444605308122391,2.8813735609719515,8.615841167333201,3.392639825907281,1.8153003684719806,-1.8814765401566547,-1.7084541529134185,-10.684820816141837
2.5999999999999996,4.391140200119935,3.789671204925071,8.789665036777933,4.593423381948924,0.8248848534874469,-2.1155808975968284,-0.1446098681718695,-12.558353576584523
2.6039999999999996,3.6000109686801807,3.835875611478059,7.9933741325608025,4.552021316486389,-0.38714075665848213,-3.1179480763344145,1.5241842196800235,-13.115881600069656
2.6079999999999997,2.728224624249833,3.291845485268823,6.725986199520776,3.74324441530689,-1.3648454825811314,-3.898395541852551,2.771432586630226,-12.814540750868787
2.6119999999999997,2.1018285827976797,2.4540698485118355,5.395529007844289,2.655883658273524,-1.9968112998581091,-3.9416776378757277,2.9696326815339944,-12.291266349350622
2.6159999999999997,1.5205594779872627,1.4153838260344855,4.065903453328701,1.4908824278245447,-2.5380372858753617,-3.4932346910691194,1.6710776383883967,-12.138936680633833
2.6199999999999997,0.397615585874064,0.016052997708356997,2.455635169917059,0.09826568655807932,-3.400157270328691,-3.3387998024586523,-1.0801957507687803,-12.695649839494877
2.6239999999999997,-1.8228373780448237,-1.9796799687628663,0.20313054455573365,-1.8073131844575983,-4.824974330419991,-4.226548536989412,-4.614720360201545,-13.923173148965134
2.6279999999999997,-5.209307175085996,-4.597612138649538,-2.766847760973633,-4.301958713309887,-6.629644418654152,-6.2932176252797944,-7.82161398092876,-15.421925956322752
2.6319999999999997,-9.124152092513668,-7.44812448588732,-6.005632412209707,-7.0061840951016165,-8.176843674003067,-8.851878322082484,-9.612710126931916,-16.586511935959493
2.6359999999999997,-12.406289471732634,-9.77425222136003,-8.62185801567557,-9.129353720147265,-8.634159767098481,-10.691966246306492,-9.453823872977637,-16.858829764359257
2.6399999999999997,-13.910803671402391,-10.777810950081175,-9.689888148941918,-9.842623085724426,-7.422550622651215,-10.74500346886498,-7.684745978326646,-15.997445207011424
2.6439999999999997,-13.093080673857912,-10.034514098731506,-8.752658958917436,-8.763634636229199,-4.59532411130067,-8.73212606803736,-5.419309178329513,-14.232317315043929
2.6479999999999997,-10.340746956295789,-7.778794320889119,-6.14434392813655,-6.283246914299525,-0.9443312962694108,-5.430538608771258,-4.033522348771612,-12.223086513071848
2.6519999999999997,-6.841454226405858,-4.853547282210911,-2.901456489152679,-3.5048634752365615,2.2785610390005786,-2.3833593571093843,-4.488945915396243,-10.817748413432469
2.6559999999999997,-4.006638023196501,-2.316430298719297,-0.26523533895533546,-1.7535043536654484,3.936132406794968,-1.1693960866746238,-6.837381645755613,-10.68155524134886
2.6599999999999997,-2.760756644825051,-0.9125028600037695,0.9617525463809216,-1.8955594277827004,3.584868474355062,-2.6135624909729813,-10.165625056661838,-11.972582386889826
2.6639999999999993,-3.0682926782801587,-0.6898877228964011,0.8613245303758958,-3.8218702446642965,1.7568437497493505,-6.336453202182838,-13.001577480084507,-14.218837173502152
2.6679999999999993,-3.9634727569173265,-0.9927845889051241,0.37591251120693414,-6.4068126858137475,-0.23755366085651985,-10.874067443034619,-13.986047336236652,-16.473604131222032
2.6719999999999993,-4.0831236401336355,-0.84695020701065,0.7958067335775922,-8.012125637385907,-0.9263457691131407,-14.32559837973622,-12.481019696886051,-17.70410519149391
2.6759999999999993,-2.4328713598206377,0.4584463921519273,3.009695899039343,-7.310148792914333,0.5698097087124552,-15.216039696488679,-8.833681480956784,-17.24004631339119
2.6799999999999993,1.0076284065562504,2.901399587839933,6.9102483212373045,-4.024807182184304,4.025407278889816,-13.166315136034882,-4.199933566891332,-15.082623249048424
2.6839999999999993,5.1869710971514,5.651296031014226,11.309577812306998,0.8239682688245011,8.129894268391581,-9.053302402299778,-0.01663679874468471,-11.908346128322137
2.6879999999999993,8.452449560377318,7.43771434978089,14.434250437138871,5.323864720957317,11.062670034404164,-4.584059952049756,2.593151908552727,-8.75707068147699
2.6919999999999993,9.344777050221637,7.1801474170715665,14.767316840734566,7.541474362715235,11.352089221570168,-1.4941798589452446,3.216949972929342,-6.555733123872415
2.6959999999999993,7.323388481539951,4.556664149158223,11.816328246448393,6.453173124620662,8.60264864256078,-0.748954060894448,2.2253615035672283,-5.698935606327723
2.6999999999999993,3.052884285570144,0.21277493886236698,6.40058326754297,2.458301167394893,3.715307891255634,-2.1250267913806056,0.5092257338833406,-5.90576011643293
2.7039999999999993,-1.892795460213165,-4.498873927526347,0.3126660771731622,-2.7895986512785385,-1.5194921104452987,-4.362124085188043,-0.9631507947754017,-6.419548723536309
2.7079999999999993,-5.752497622986084,-8.115679030376668,-4.472271756359987,-7.142169369437397,-5.238651658770323,-5.7999657326076886,-1.564271649428747,-6.429112816794259
2.7119999999999993,-7.362089022761211,-9.701133205474889,-6.645816315287448,-8.938686402912026,-6.331656021606705,-5.204060239362207,-1.2377756501455224,-5.512137155315713
2.7159999999999993,-6.602789756906532,-9.201617664030891,-6.049443036691628,-7.7216882226966845,-4.874213547627278,-2.3734792772615947,-0.4563165537279019,-3.867161444758267
2.7199999999999993,-4.324920654697962,-7.367782498611632,-3.5857733239681693,-4.354912333836182,-1.9727487251670937,1.7582658362916845,0.054667625410502296,-2.21454720437373
2.7239999999999993,-1.8109886141046445,-5.293133395609402,-0.6365017138978146,-0.5036029357588632,0.8651112846532669,5.56337079874811,-0.29209325015199283,-1.413372120583972
2.7279999999999993,-0.0857034359323734,-3.8368183235793367,1.6616396336794423,2.224079937559509,2.4722562380129602,7.47785591533102,-1.6288872387144693,-2.0017479488958543
2.7319999999999993,0.576351800026714,-3.2199199673659678,2.908246154146582,3.0395863433350314,2.5059089206697536,6.714337465401059,-3.515325001815654,-3.8919208458737558
2.7359999999999993,0.6949578702042345,-3.002937631714076,3.463936460446348,2.261449538546003,1.4520749180114763,3.585600151683593,-5.092568874277049,-6.378665095856718
2.7399999999999993,1.1885955273796753,-2.4286675484133866,4.049164354647473,1.0156834132544645,0.20530144599706546,-0.7072423772124239,-5.447681792406456,-8.459954959961806
2.7439999999999993,2.785127226030454,-0.9142972952815853,5.206533819680772,0.5616372654158113,-0.4900193641610713,-4.671467376088913,-4.006449977026023,-9.292153308168054
2.7479999999999993,5.562969139465167,1.5797605430359454,6.9539690003193755,1.6210240508899005,-0.4044738936795511,-7.189494522115183,-0.7793952107808764,-8.552494621771643
2.7519999999999993,8.866278659577347,4.499336311213256,8.807358663802916,4.050141946657732,0.17556897826261775,-7.930550231420057,3.6492494897861434,-6.552417906192318
2.7559999999999993,11.634939887481778,6.984299107922197,10.125839484399421,7.002684227993541,0.7627480591531821,-7.33231377293032,8.387929203094245,-4.0534870718639695
2.7599999999999993,12.95139438284059,8.326573779162572,10.540734079021604,9.442205944130365,1.0700868972739954,-6.23265890652192,12.617506266257124,-1.9089314923572829
2.7639999999999993,12.510900783175202,8.343044911517154,10.198274323041005,10.698240044852355,1.2351033814188668,-5.388796128238937,15.891911330046469,-0.7160892020981464
2.7679999999999993,10.765751211861698,7.464019873462121,9.67077896787805,10.761179715714661,1.7332149857679724,-5.162673558437291,18.225351621928212,-0.6269668128018111
2.7719999999999994,8.685462964704584,6.499099071398177,9.609722511791006,10.182936436347518,3.0479380508204486,-5.51502492758209,19.951098709504095,-1.386411553451694
2.7759999999999994,7.271959822798635,6.213675637472534,10.370536766954046,9.683715969754303,5.315752440255437,-6.232636768813336,21.4395276402704,-2.5280728926437632
2.7799999999999994,7.095778200146924,6.962692550661814,11.849179355460365,9.718291563290222,8.175635210433029,-7.189768025183639,22.870937253526563,-3.5938639663398817
2.7839999999999994,8.09319521597945,8.570064259798073,13.615125509378231,10.252827034505572,10.916896534582065,-8.449575706447376,24.17482739391744,-4.285451208273457
2.7879999999999994,9.681362421747963,10.48112697233978,15.22169052191066,10.844413751802222,12.826865966002515,-10.1498017697254,25.12750338114938,-4.511027910495045
2.7919999999999994,11.108664235292053,12.087799801950041,16.485116627119623,10.945411735815924,13.529879146105486,-12.274422623196642,25.52649171394569,-4.350586594566835
2.7959999999999994,11.819843377330017,13.012536613151497,17.526100739434696,10.221923945818617,13.110168494220034,-14.500637157273559,25.307915862298614,-3.998198568007183
2.7999999999999994,11.639449310302552,13.203818082479984,18.552132016796804,8.6924914691931,11.972823836077168,-16.267777431521154,24.52912844639809,-3.7165142293738427
2.8039999999999994,10.724582176300373,12.83699108753558,19.552930376262793,6.642732112384692,10.550027827591293,-17.033265890816438,23.26189208944311,-3.785247913135322
