Timestamp,O1,Oz,O2,PO3,PO4,TP7,TP8,Fz
0.0,-6.338041202980094e-12,1.4921397450962104e-12,-6.266986929404084e-12,-1.4210854715202004e-13,-8.242295734817162e-13,5.186961971048731e-12,2.3447910280083306e-13,2.5579538487363607e-13
0.004,8.596212833732821,27.3381122369345,11.540904154299355,4.886680033056422,19.420357683293503,-2.1579124253239,19.17903799329807,-12.152952805106471
0.008,15.18300479551867,47.493523174372875,20.203403540767923,8.834720867496173,34.12149755600157,-4.132941470055854,33.337304581169434,-20.90059421702749
0.012,18.619610869206127,56.417554587703115,24.40461477377127,11.28906844103389,41.42633638845831,-5.642838835752954,39.726370239629944,-24.292876879059214
0.016,19.033034011569057,54.71292868636529,24.46331578170657,12.250031301343327,41.677463413650855,-6.326955494853081,38.953879216979416,-22.582951047949326
0.02,17.566288118417205,46.83370533050486,22.227768778162513,12.172145482387393,37.69651640666186,-5.91939425933181,34.34530777373568,-17.919823979424635
0.024,15.63103683471023,38.46931930763591,19.944755867985165,11.631287359900952,33.055232983676774,-4.476888812993366,29.959232738915098,-13.225573094292354
0.028,14.12038360562022,33.62330901735939,19.03064289797898,10.958056422125097,30.168208851692484,-2.5068030143616653,28.392726093772275,-10.885742076387261
0.032,13.045705298203202,32.9831447281316,19.43643603614224,10.065804917447778,29.273331189890058,-0.8826866631858934,29.594665316203827,-11.903040033295314
0.036000000000000004,11.766940249588615,34.320237074538596,19.917834309711253,8.563733071451779,28.78491665807681,-0.5140190981720849,31.26573266999966,-15.847028681837969
0.04,9.61440442547088,34.44800852013342,18.979982872187392,6.0774220913135935,26.67230274245631,-1.9216970691522022,30.505893400798573,-21.453239500441953
0.044,6.4642677803317525,31.398350535226363,15.887837234179273,2.5693893670627546,21.93747580216207,-4.940284518424022,25.672622419946126,-27.39034264295065
0.048,2.9230718520934005,25.548185812085762,11.155840505404711,-1.5133634565167426,15.319366397829057,-8.722783405801678,17.399754424326403,-32.74374706312004
0.052000000000000005,0.03491215974744932,19.200080608067992,6.294613343073195,-5.338362548493194,8.897260635214238,-12.064074081661886,8.296288896101299,-37.03322963826519
0.056,-1.2631808681982477,15.083362446514464,3.034827536087249,-7.96721600149381,4.93721890391771,-13.913733377419703,1.6169832154441188,-39.92616831266131
0.06,-0.5953738721660073,14.796241599384679,2.490433011904827,-8.676449911792133,4.703538744787707,-13.81940293031964,-0.30341569454677497,-40.98995787616745
0.064,1.7163841372737778,18.06216683119414,4.693708253175259,-7.20460510280175,7.88472140054607,-12.065102923611228,2.9598771803044492,-39.72216388638235
0.068,4.8753318312721206,23.11691217505264,8.696524120236617,-3.8343166303981207,12.88743290337846,-9.454430539034561,9.93918502030306,-35.858758525485385
0.07200000000000001,8.01642374496349,27.85116692510639,13.114819914422682,0.6999131890069492,17.750020232551442,-6.872980597871376,18.166929361678086,-29.741373216362188
0.076,10.54142057734262,30.929213446509017,16.763689868331284,5.4121083448603855,21.10509596863723,-4.8733715214332065,25.372601242886876,-22.45278881651001
0.08,12.227843697593855,32.245600787713116,19.057875592415826,9.322519514353758,22.675511132430017,-3.5067007904245386,30.339894068467416,-15.560264691276384
0.084,13.097259757117016,32.536794510560554,20.018585685158953,11.685557912479737,23.084640357444563,-2.4611150887762747,33.03580566523274,-10.553214703351667
0.088,13.221002021983765,32.573014179692535,19.998602555511596,12.164719081235603,23.223325005739788,-1.3758797544512475,34.125380878063716,-8.261902393737266
0.092,12.645977201436537,32.571369425132666,19.37779409080288,10.93677100235881,23.651292580822343,-0.12172412760860851,34.31746514261798,-8.562725861765285
0.096,11.491494839484389,32.20936168259418,18.41801274499045,8.683597728798318,24.385621595575962,1.1205264868768836,33.97227248490843,-10.513466703018652
0.1,10.092221879941263,31.126672922930545,17.299208963815147,6.424845961649936,25.10999311379954,2.0207273081126473,33.11560859256497,-12.817793825981328
0.10400000000000001,9.002288845185902,29.420164660981346,16.20072860462831,5.188475551458609,25.527176966334494,2.355616473498401,31.68898881192148,-14.36135564374873
0.108,8.785092562870062,27.725945226449742,15.310489765445652,5.617513312563574,25.571086900525124,2.1647234035292087,29.79217131997343,-14.575718712052605
0.112,9.672243778770536,26.82435222498369,14.733664794650608,7.669369014852805,25.352245176180944,1.7070107342358156,27.717102572326542,-13.52367119379324
0.116,11.328921360597548,27.08206538855054,14.394896324806567,10.584950813594034,24.946958632539925,1.2561844619713582,25.78913406034101,-11.740566465776967
0.12,12.914484005197792,28.14801277529858,14.038391880630229,13.1847532807776,24.24165130150378,0.9065337923624668,24.1690145682929,-9.946237432932698
0.124,13.450843486049408,29.11254800691623,13.355328521974016,14.379560505107492,22.969920196108717,0.5355881788494585,22.75320693852148,-8.746029652746898
0.128,12.348942299377043,29.07234992034256,12.201439577986136,13.688910600020975,20.968062444655715,-0.03520095258218703,21.276812237255847,-8.411790940158054
0.132,9.81332116921628,27.758612027461943,10.775574073367622,11.512696201349783,18.48335076403888,-0.8064072208527548,19.5721911169868,-8.790833138284908
0.136,6.86951718111473,25.80863947652736,9.62401348675418,9.000544480452163,16.293934996464913,-1.4981206539245235,17.803138277276997,-9.36963982609615
0.14,4.951965550052421,24.474048401953517,9.419862355553391,7.550685820749862,15.478612632903136,-1.6912477569126168,16.4864571734898,-9.485541642469197
0.14400000000000002,5.199361319492567,24.86614355431779,10.583039649140787,8.129454926505076,16.85517251343763,-1.146220937497631,16.2064535559632,-8.619755504590078
0.148,7.81956561200586,27.204551601274723,12.96044998216027,10.752976050500251,20.394359620119168,-0.07925585332674245,17.194760936045057,-6.665966160584048
0.152,11.893736596209095,30.57179177899787,15.784258461355613,14.418351131063126,25.00152627002106,0.8368112026349905,19.070279265057398,-4.048479308453869
0.156,15.748195012586265,33.35116368464223,17.975621602014215,17.54220954907688,28.87210280662213,0.8188529498040324,20.945620188580893,-1.6040717016524555
0.16,17.737688178016242,34.10738888515842,18.66651740107592,18.711485874431133,30.29995329759427,-0.49994971149141065,21.886083862916166,-0.2218923552805192
0.164,17.043259805529658,32.3719517564773,17.648385653250607,17.372226252801717,28.5202435795807,-2.7057236275541143,21.447901658077203,-0.3689794648832416
0.168,14.083486914048656,28.894657874198863,15.500880389343266,14.114381700533428,24.15506125924933,-4.69868934657503,19.977361617021273,-1.768191120233686
0.17200000000000001,10.31038636637824,25.2370733092423,13.312622232457159,10.386445744664563,18.997441729229887,-5.241528617830689,18.479429290351113,-3.453427977297027
0.176,7.479673671945953,22.946085042751818,12.116245363818287,7.771841209347407,15.205307035194455,-3.6893238064122187,18.09170858321883,-4.2395776575767234
0.18,6.776500883596988,22.771522456032397,12.3376587925749,7.2028130751766,14.29374355515533,-0.458805593515514,19.42604197714992,-3.386225554532343
0.184,8.211582544949302,24.295000796354604,13.534247781426828,8.493810911714839,16.392144231425323,3.0837996610517777,22.113973125693096,-1.089096770650598
0.188,10.623276163949406,26.174846238447188,14.603726062348912,10.450806707464068,20.17856712561179,5.314666498387773,24.86477649511173,1.5070146747756397
0.192,12.315314574185997,26.895338860639168,14.390070214759177,11.523186856924717,23.56789156176948,5.248043282838061,26.07803311325554,2.8268219550682065
0.196,11.992090474356367,25.607289572781525,12.36514472758887,10.646898370219041,24.801404145756294,3.1017907011628054,24.71210643537956,1.6611779732755547
0.2,9.497835931689877,22.609092286968057,9.00565546666234,7.831847481460379,23.369044863026815,0.1759663816559609,20.930060414935404,-2.167367810482534
0.20400000000000001,5.9241300356312365,19.164812378693316,5.604735601548768,4.15662505453701,20.237683057917405,-1.9149950462990901,16.108136334015448,-7.622944323669201
0.20800000000000002,3.0310264608185733,16.788940641152806,3.60037489432505,1.186219179115973,17.274148354422433,-2.213947737402936,12.17645663678863,-12.882303754521576
0.212,2.2883706002410236,16.41961421514116,3.7844043297950947,0.11942733618177925,16.200536333558485,-1.0107332737637265,10.649241718837105,-16.185061086043934
0.216,4.078390834320821,17.960579725460555,5.865467288136713,1.1566525417464035,17.689327803192977,0.34291550302332396,11.897648031212125,-16.654917137169335
0.22,7.5083452963699955,20.420887099527953,8.652939139992071,3.4485288252857202,21.09057202749508,0.29332105195545566,15.056457087664855,-14.660908846423556
0.224,10.903305327310107,22.490669353156832,10.734502644752794,5.612476582415233,24.877784588152423,-1.9025293779858536,18.5512480805074,-11.530323881320802
0.228,12.723872597653077,23.248771732822405,11.288626475484591,6.527018039734919,27.55594712083195,-5.615395859813663,20.944122826727558,-8.797178718807057
0.232,12.404449181530815,22.62985303269116,10.56416844569604,5.961930547897175,28.509746244396467,-9.122389896183183,21.63399561335754,-7.41156489466827
0.23600000000000002,10.591864390782078,21.348499730073286,9.685698090783525,4.641321138181986,28.253464210343036,-10.59555553999516,20.995964147155206,-7.34038158941708
0.24,8.682496220993968,20.39313503710279,9.908567075299189,3.73473653658759,27.984169895904454,-9.211759063939212,19.944398911203194,-7.759342601710667
0.244,7.948182341618384,20.419381237697962,11.776022751955232,4.090047293030935,28.746766078819558,-5.71736712156051,19.25408912557156,-7.689448662004731
0.248,8.767636881009501,21.387846639458488,14.686791787746067,5.673400844997047,30.72263539072012,-2.0817767012282857,19.074180301294657,-6.664243238197681
0.252,10.404355948694395,22.61587002771133,17.13945204149198,7.545514705166283,33.0439464278582,-0.4343614015412278,18.894503641769703,-5.035410963736684
0.256,11.472233106231446,23.2072760331452,17.553844952257897,8.405157803379339,34.25585991557758,-1.8689749263132285,17.960517364946487,-3.741630856252926
0.26,10.818117172649306,22.630082986264597,15.209926151687089,7.387609436527633,33.18005735285493,-5.808194762100513,15.8720075172914,-3.7181423300876233
0.264,8.278788495073005,21.072440247215013,10.729595819468354,4.624363061351904,29.644335020891283,-10.319570334117437,12.940985059105325,-5.321964911262475
0.268,4.8508177396889245,19.345307532475044,5.795150369248994,1.231460607371357,24.63679118524839,-13.194080240330182,10.059805696085157,-8.101318063866977
0.272,2.151718990627657,18.36551744488084,2.236464589414524,-1.2881996997623162,19.787060261054254,-13.162917599566011,8.139341181075743,-11.031718564815932
0.276,1.4832592879265931,18.53101380788159,1.010914047969223,-1.8877155098398681,16.487396812107054,-10.560089074229653,7.495434556683912,-13.070742473895972
0.28,3.068810925361735,19.423171285460263,1.6964997571993798,-0.5566964950622086,15.201973071316733,-7.0686864801985205,7.616265102937987,-13.701698886105525
0.28400000000000003,5.930364416309686,20.032822782998597,2.806719506217908,1.7122666555203558,15.359096675852037,-4.725311381163392,7.479283200212095,-13.13261081693047
0.28800000000000003,8.446629106021582,19.34620985859108,2.711852561725131,3.513480067591196,15.812825140241454,-4.755047797771056,6.210183530915766,-12.059469599415142
0.292,9.25614685001058,16.92965648400525,0.6058394688719542,3.821554940808685,15.543042599364789,-6.932909567633715,3.661519986173383,-11.157831883649747
0.296,7.986501811669065,13.179223494095243,-3.047663773617039,2.5249808026477183,14.179003100684975,-9.804779913242362,0.5496589901837208,-10.648662314865938
0.3,5.401408772108944,9.124924620603604,-6.81394371301894,0.4030005203439373,12.087434158533938,-11.585039035645018,-1.907354815574248,-10.230915845054442
0.304,2.9102184905546657,5.90834154401481,-9.115137182389569,-1.403972297852789,10.044753498201226,-11.184862517744623,-2.636477940923938,-9.39967642566073
0.308,1.7428851222911632,4.216216954008486,-9.094055419806592,-2.0907085088682074,8.737113886448176,-8.78855313230771,-1.286339674679506,-7.923973909475558
0.312,2.2611445592926493,3.963796584333428,-7.023541984830453,-1.6388539471672736,8.38938775104978,-5.678618889966797,1.5713755708153672,-6.14137264312039
0.316,3.7898921059987636,4.396293868591492,-4.057416061133187,-0.7723039541871408,8.728454449509893,-3.450700327446622,4.7150875847947376,-4.8597051209081705
0.32,5.064704647263742,4.584634550710543,-1.4961162724160246,-0.44762066249663945,9.28725975628646,-3.1195135857147918,6.894616521846341,-4.9015700521949634
0.324,5.004355880394975,4.01092993600709,-0.04744524423228569,-1.2157237266515466,9.797647477934326,-4.61830931381783,7.449765826291531,-6.563726819111318
0.328,3.3354988617816446,2.8839250552104048,0.4690354837836761,-2.863367226993976,10.375092825285767,-6.9353292702780385,6.57997192481927,-9.324304049333922
0.332,0.7363933983995885,1.9963901480833464,0.836340887295437,-4.53416837531428,11.384988319928452,-8.738116103432635,5.132790030723336,-11.98388472912144
0.336,-1.5637598138952455,2.2123711643502215,1.8009533411370438,-5.251160145889463,13.089736927828486,-9.09168232531636,4.062675778329483,-13.204235335453824
0.34,-2.45361135267758,3.939658155902766,3.5381132080238817,-4.500327375347673,15.36345421743233,-7.86702942404989,3.91030150423353,-12.16076439122457
0.34400000000000003,-1.4989519578159616,6.87927253188651,5.547859800685341,-2.529016509892452,17.66904262669297,-5.654181414130406,4.561231825200735,-8.955284596907251
0.34800000000000003,0.8813649103755754,10.158231313140266,6.998051865976784,-0.20690277864329865,19.292533007125517,-3.317095656154752,5.366157482447539,-4.570203891524082
0.352,3.6698942936489782,12.732841156511217,7.240504249681677,1.4430095186529925,19.65867990286283,-1.5027988152372949,5.5026423979632675,-0.3910152964792184
0.356,5.760884878993157,13.837899406876359,6.159960852563123,1.7625121389600995,18.532954913671972,-0.38549635641107116,4.388276420791012,2.4435175123077917
0.36,6.469344594347179,13.299442751553475,4.173718165714392,0.7595827784739262,16.0454784252583,0.27302966306181187,1.9731293572489674,3.524758866983179
0.364,5.784336181193844,11.563533615037485,1.9208023606521558,-0.9525902441206533,12.554133828409723,0.8478896656115946,-1.2123224418844618,3.257364854265587
0.368,4.281074172642182,9.44214104070833,-0.12407069310329977,-2.5105344323693277,8.463016951674945,1.5796414756066586,-4.2634973583144475,2.544960731173404
0.372,2.7718735143740183,7.7097395627057,-1.8629113508244828,-3.2324758603974644,4.1102474805511084,2.4690590164851676,-6.2935266993877015,2.2864300488692173
0.376,1.8898560358570613,6.760493087516715,-3.495260873861172,-2.9090750787865574,-0.22420334026204713,3.3610495819404864,-6.838809190640847,2.9444277976429234
0.38,1.8308596595797795,6.530853809292224,-5.216005547410125,-1.8115515788109704,-4.205158168709465,4.107540795984606,-6.050061847857391,4.374036814468773
0.384,2.3460795417635145,6.682667449133593,-6.933799358968788,-0.46789632623299937,-7.356983037429938,4.680077018999399,-4.585410715650374,5.958787325100993
0.388,2.951245516615565,6.902088990080815,-8.211062936125561,0.6368036845241338,-9.116022599058642,5.152293097103272,-3.268384101158568,6.955488577926373
0.392,3.220025659674034,7.122638799052527,-8.463606109879246,1.2769044883580953,-9.015974620832797,5.612536791387558,-2.674825603943056,6.8790568014866125
0.396,3.010073521623403,7.553248642832994,-7.284944832380588,1.524289091959254,-6.908791458392205,6.098070149743254,-2.8385836941753686,5.745573489046719
0.4,2.5409637582406344,8.562672970918344,-4.656559506373279,1.6499634381150408,-3.0454994685017702,6.588689540345415,-3.2023003262302314,4.059317207305683
0.404,2.295379521664909,10.482804132838817,-0.9226781798832491,1.9710006762655663,2.0240722914852647,7.052923149399932,-2.8596865311366564,2.582325571569382
0.40800000000000003,2.7838877501997743,13.41058807346209,3.4119698239817557,2.7108495591881088,7.64669730484407,7.486993355933068,-1.01349727680671,2.001644207971413
0.41200000000000003,4.263836473507489,17.078605068902515,7.879471387728076,3.91039485164114,13.210195822894493,7.893951099555121,2.5303441514038276,2.629832208821977
0.41600000000000004,6.551933886532888,20.855100424909658,12.106215662074224,5.406996274899894,18.172727634942163,8.203527909605333,7.104275133012672,4.274315433787006
0.42,9.04316192506538,23.919828405869453,15.734260790965475,6.879767822454387,22.026285999214018,8.218706257043728,11.354578379430354,6.310418823504731
0.424,10.936662352407769,25.548767915697937,18.319227071237147,7.943723053297676,24.289068527739197,7.680387569143582,13.799134428721706,7.940201427173786
0.428,11.56924273656342,25.37697701218364,19.333781784550382,8.266597742479277,24.587063975820232,6.438116887258783,13.503317132812231,8.537201424289595
0.432,10.696657589454166,23.512851135737108,18.33392715838991,7.671781071987552,22.802995047172118,4.625029829796203,10.52821577650062,7.933466330627182
0.436,8.592306141305357,20.464627787134084,15.216741915011848,6.195658548084835,19.206361763887205,2.7184599416806576,5.919435947006665,6.513713676012688
0.44,5.930142058729045,16.951658585087227,10.408417809654459,4.093073929829384,14.478336888177783,1.3926114870541326,1.261061243174436,5.058126967947795
0.444,3.504500571540393,13.660633150522358,4.818495286112202,1.7710914846591095,9.55433543952377,1.210115947427905,-1.9954614674570124,4.389091970114533
0.448,1.9162289002905206,11.028221415809881,-0.47012737009464,-0.3391044132999186,5.310144713408171,2.31374287441278,-3.1201622508633076,4.971020546868313
0.452,1.3675598519394097,9.116600928573042,-4.636153241167393,-1.9185126922822215,2.234372141954096,4.3017404411021545,-2.342028147131477,6.671299115036567
0.456,1.6315897190734105,7.619624456698144,-7.439532163754454,-2.8586472359116977,0.2663054286522071,6.375870717678108,-0.6460649204327629,8.806226998057486
0.46,2.204400652143537,6.033858165101437,-9.228416251743798,-3.2765022356615967,-1.0790976839744646,7.684123554128258,0.7655390825497004,10.438683966400427
0.464,2.5643758206856746,3.9390827648080045,-10.612517145893126,-3.4264921013863177,-2.3473017129082994,7.683059951699015,1.0745410116763017,10.80502086595618
0.468,2.4051531558965453,1.2591916187743974,-11.996606220554238,-3.5580843552264643,-3.750250166969731,6.355246744888757,0.21586566250830685,9.662932910254066
0.47200000000000003,1.7442867203885455,-1.633281867661049,-13.261491753376959,-3.791796364477584,-4.985678310416497,4.178754598213435,-1.1543510541516957,7.395256102120223
0.47600000000000003,0.8866555422752316,-4.02220804021891,-13.786018798985085,-4.066932166171412,-5.384485942973729,1.888114816403531,-2.0365471211717168,4.828489115036787
0.48,0.2932151199336994,-5.099490693606006,-12.795864617514212,-4.175047258918074,-4.285724743680964,0.18759834332130643,-1.5807803296486123,2.837280255803202
0.484,0.40552645627358164,-4.286473316099812,-9.850552990386802,-3.8683066401063577,-1.4419943882762993,-0.446193552020933,0.5369792315460034,1.9434973546714995
0.488,1.4793136319998128,-1.5082264745089962,-5.193497104015414,-2.9982510128520126,2.7599033143514173,0.16101271189252064,4.0089135991390155,2.105431495736257
0.492,3.4666030911471495,2.6815247159279245,0.2266562283168838,-1.6261216352263572,7.374733259158276,1.890013550691351,8.041352256170745,2.7980890577242
0.496,5.98353531143792,7.207967649998284,5.0948665542063285,-0.042923531102561974,11.254745573626941,4.361384525783017,11.672936057074292,3.343905513679668
0.5,8.405007138521608,10.84057384203009,8.27920229796386,1.3317603017927313,13.536134565990277,6.969008504992791,14.151219554336205,3.2942175644904665
0.504,10.066293165276564,12.671779703169328,9.295052769021293,2.1226621865735384,13.992445093811959,8.944662932402153,15.195548780891476,2.646312231383401
0.508,10.502816870519695,12.487846493583817,8.45261206708906,2.160728420532923,13.086222432506561,9.539053574293911,15.053100248965887,1.7982065164469831
0.512,9.621992242552754,10.829104815715262,6.6164517066756385,1.5405564032723524,11.676262864884277,8.313811316199315,14.325960442030542,1.2744480466711705
0.516,7.7125066220583385,8.679300830869789,4.705906493574449,0.5288623117671776,10.518621823843295,5.432279244528956,13.634586157676292,1.3712407623119693
0.52,5.3158531796093484,6.978791054307816,3.245733622754792,-0.5953387245970232,9.867108397483069,1.7687611095709777,13.323434635864544,1.944113797146462
0.524,3.0050408455366817,6.192343466374895,2.1877341569430477,-1.68114546189552,9.375490269909594,-1.3162666536255925,13.328611643483853,2.4658241919127537
0.528,1.1648086637740436,6.142949307986045,1.0672234600497692,-2.752420268031914,8.334837029226307,-2.5011388724980947,13.249993104592907,2.319554424241023
0.532,-0.10282377207818971,6.193682721335428,-0.6115244821132504,-3.9187927482898957,6.1182086632775885,-1.1100760251264628,12.593734734844832,1.1819608990044355
0.536,-0.9060115617822309,5.672424607854795,-2.989443906306385,-5.20640583333752,2.5981241361752225,2.5062094615427055,11.05074703962131,-0.7280668175542981
0.54,-1.3712595431257744,4.324862829480831,-5.685369824019427,-6.422388795678636,-1.6712084019983005,7.046380410269007,8.69484523064127,-2.7170357249561374
0.544,-1.4764726375481505,2.523415659570789,-7.9404770132050535,-7.169631858919853,-5.6179129562687535,10.802754877417827,5.980229351367744,-3.9823930461080366
0.548,-1.0357543755675191,1.0855748908436613,-9.001942414771936,-7.038565870259184,-8.108844759036716,12.428787178302176,3.525825423665102,-4.083785070532029
0.552,0.14677143181825691,0.7921379742444321,-8.526161037600284,-5.874166329853311,-8.471050824222708,11.523832181446096,1.8044220423806285,-3.2475493874447885
0.556,2.0375491044401577,1.87380053620649,-6.7821483755506735,-3.964408164243575,-6.824316260233408,8.740429035388843,0.9086783640528262,-2.3049614832107546
0.56,4.240113785113442,3.815403445648217,-4.525161077105404,-1.9922797269081958,-4.0251318033678585,5.377220155490384,0.558978614297053,-2.276830619023225
0.5640000000000001,6.08602427288234,5.6091155018051255,-2.6043971867637494,-0.7372989906603733,-1.2484878392271366,2.6806698477258606,0.3509789353947417,-3.8061944759667767
0.5680000000000001,6.92655941577944,6.323650647800866,-1.5274555988217253,-0.6725687274818641,0.5687457007882453,1.2601889469684207,0.0898028446415271,-6.747110933580204
0.5720000000000001,6.466966006514474,5.649357202901967,-1.2327839569596737,-1.6832549170012685,1.1240228933817247,0.9125502550758231,-0.030305948043719333,-10.145418253097063
0.5760000000000001,4.938251958484338,4.085904912635146,-1.1918135671810068,-3.092991235030751,0.7811113861768764,0.9167358247067732,0.4618777810051835,-12.647524896064299
0.58,3.0031766881452193,2.685482126484002,-0.7584706952824067,-3.9962507967492478,0.27493076829888174,0.5864345581464812,1.9910629111231746,-13.144630470883234
0.584,1.4242614964672997,2.48032945986807,0.42698495913727896,-3.7365163615761112,0.2563701315886817,-0.28863569565863934,4.574314502617675,-11.330126423468565
0.588,0.6723904047204949,3.9071577473784402,2.2054151318135773,-2.277114247431037,0.9233357246890597,-1.3613458620428278,7.651378985459298,-7.875339106440043
0.592,0.7028803960799332,6.548553273811781,3.9640427698872944,-0.24761404283237276,1.9301029776963965,-2.018154656330318,10.248494099633149,-4.1184977816479424
0.596,1.034382855087184,9.336413527241852,4.961859521358232,1.37943614300523,2.617263857352684,-1.8406184302343687,11.411063182261415,-1.4170164725773748
0.6,1.0882606689494017,11.1270308008454,4.740157992584962,1.814596618043805,2.427499876863708,-0.9191090623067617,10.692942001929948,-0.5209924270651385
0.604,0.5683233199341955,11.303959917727155,3.3827645350446574,0.8793472292705782,1.2506825726224209,0.18833134597711032,8.421420256655336,-1.2921398495946512
0.608,-0.3382659698955397,10.081815566219106,1.4919433974989902,-0.8892021677536377,-0.4847110299467863,0.8201437479175171,5.581628051185042,-2.8686834548524205
0.612,-1.0752948511134566,8.337754723259206,-0.1113421181264842,-2.52267950437796,-2.026516908905909,0.6572936230933673,3.340681399964226,-4.164827409386216
0.616,-1.0850836338538676,7.072993716312572,-0.8090440901643976,-3.148134753872345,-2.7079031021732622,-0.0278879094505724,2.471121015559488,-4.433297981325781
0.62,-0.19815321164593147,6.85452852435578,-0.49630984345226503,-2.456274823599517,-2.2992875953798686,-0.48447972927863514,3.018645438306808,-3.593126581396316
0.624,1.198627728452939,7.5446797343678735,0.3753449478471942,-0.8540752210883351,-1.1169808555114438,0.07864809237862413,4.372626602965578,-2.177637337322631
0.628,2.3173751583427395,8.44355481495782,1.0340697086478348,0.7709844803839934,0.15078106423950288,2.0073171487748707,5.6674007677238905,-0.9687448320261747
0.632,2.382188230984192,8.737141915795094,0.7756330242563974,1.5468240711572534,0.7921959961277452,4.935488873272247,6.273226422805695,-0.5281684295835265
0.636,1.0612576318801734,7.964634311616836,-0.6986176708608571,1.0964297996751906,0.4068399937670746,7.899648976393709,6.07775788538771,-0.8795725698538552
0.64,-1.3058853992032504,6.280247058020331,-3.133022263814965,-0.24251380071217277,-0.9114627419147423,9.774752569841937,5.433492257521021,-1.5106404355967311
0.644,-3.812960397270598,4.382404608746174,-5.810468554374717,-1.5690416391105693,-2.6106162688384296,9.80631082323524,4.848507974201974,-1.6688855368940363
0.648,-5.389352513166519,3.1578045361927956,-7.849060767762424,-1.8728614430036252,-3.9151520790170373,7.969205237125767,4.628978107792939,-0.7848281416225493
0.652,-5.302371484714638,3.22804433585567,-8.572248821974728,-0.5565038611435398,-4.153642330080279,4.971613213530263,4.691524027980451,1.2032766896870148
0.656,-3.5150585650522075,4.622052941591522,-7.792947299947562,2.2269828449586084,-3.04896866131244,1.933059234046461,4.647253479117733,3.785141394025919
0.66,-0.7074334444619799,6.770581058786778,-5.872782184677373,5.612167452198,-0.8260416615561983,-0.11243339306273814,4.120410228418731,6.099061053790833
0.664,2.0292074915185268,8.787055016328836,-3.5464186010676695,8.4076903851761,1.8836576525663422,-0.6346657141366179,3.06734220811014,7.321187306969378
0.668,3.6710912880212723,9.881881496023311,-1.5971755223970456,9.631452288259236,4.289492651660254,0.22570800001454483,1.8744262253263448,7.041753552164372
0.672,3.711427977622476,9.719139794319963,-0.509673765843841,8.96284942149057,5.753012959208375,1.7898102718530815,1.174636366676344,5.478838197608332
0.676,2.360806063604322,8.533606559901287,-0.2699966956169231,6.8812059081134285,6.02024292985905,3.1835209080452658,1.4743126579306285,3.424373888618712
0.68,0.42297318690575825,6.995606723626853,-0.396390213943266,4.434663651705691,5.311861985802603,3.711453459828302,2.8473818069536065,1.9533549227197184
0.684,-1.086469424392015,5.897326209889746,-0.19727386000951963,2.7545099198082266,4.223983181106979,3.1222604055401195,4.87395488090511,2.011584661673554
0.6880000000000001,-1.4066535002716334,5.7897410856461615,0.8555207425575162,2.5349953184238334,3.4678362054832466,1.670242688395362,6.845217508181435,4.038523760725038
0.6920000000000001,-0.3587994598500819,6.72952027626442,2.8220223844858285,3.7407076558803354,3.5568687511536137,-0.03538982678202851,8.119315761606666,7.783220136622701
0.6960000000000001,1.6091139650040285,8.251072976433564,5.216822387763742,5.676123063138762,4.571133628172255,-1.322787058991411,8.415598296584863,12.390401649695402
0.7000000000000001,3.6849948358590137,9.604865551467974,7.227762999262374,7.375072270634199,6.131920183212856,-1.7480088420558402,7.899612945316527,16.71144158221967
0.704,5.135762202201874,10.161347008566995,8.136879624989714,8.118832088151125,7.614994060806801,-1.2678768701081156,7.036079026642959,19.70830795019649
0.708,5.690882261131824,9.775381341490437,7.721450930593891,7.799091739242154,8.492793355020307,-0.22557630224376135,6.322938912337437,20.79002314419039
0.712,5.6615826669921105,8.905123794705442,6.412944248569594,6.939319352870984,8.617528091263711,0.8303490101464863,6.0657585352906676,19.96284837364125
0.716,5.718566386729067,8.382785976797406,5.095487641825066,6.35950785375274,8.280593407026949,1.421800533562191,6.285559160964603,17.755069317579647
0.72,6.450518663173224,8.950300529400838,4.643491218293198,6.673890333343957,8.031629089012995,1.379089296980271,6.793932887603394,14.961197860040452
0.724,7.956846174439695,10.789281422050946,5.437281671290867,7.9118950771645356,8.348888866454875,0.9303545174519114,7.347761104500393,12.331606011504235
0.728,9.72680844506225,13.324583766306365,7.144259919099486,9.494232860432097,9.36344131830828,0.5985151827322492,7.776452734757707,10.346531613157108
0.732,10.891899652538626,15.430769127459207,8.895339940712983,10.580639951025434,10.787652264375724,0.9550758340166867,8.001964959434394,9.149357067128571
0.736,10.72573335952821,15.960373704372907,9.764954215392018,10.589926989775877,12.080391722797959,2.337215017338945,7.971281645578559,8.630171626061328
0.74,9.11987343231646,14.362674080484187,9.299838260496806,9.597142874202119,12.773161039828189,4.671171482945221,7.606812272410554,8.58092824954114
0.744,6.7469363740295165,11.053097422135588,7.79350632897055,8.363733169642897,12.759304313438184,7.497356521118697,6.837634945139396,8.83249078494609
0.748,4.785573647695537,7.310195322278783,6.1470725975443345,7.961740424400222,12.372541695891188,10.195709076186787,5.711551277564409,9.326334512474142
0.752,4.319279258617771,4.711248657284304,5.380082302537504,9.185498071036138,12.199226849396027,12.285505496650668,4.490397680280949,10.110251659711892
0.756,5.724509391748683,4.363813990441024,6.05182801356894,12.068691457852012,12.71230742776984,13.649458464267223,3.608171305912183,11.271567045707101
0.76,8.398712371777993,6.348421974626106,7.931762049579158,15.77560618029215,13.953399472407545,14.564602438866057,3.486389063872484,12.832048180285398
0.764,11.016310299655702,9.683121917254894,10.118234370028137,18.957859921390273,15.455914774029894,15.504335205113751,4.29337329718882,14.665732854156245
0.768,12.20702434690634,12.837700537499229,11.545321690782385,20.400187918874302,16.46930087240836,16.811550312692514,5.803656493581152,16.483017873401742
0.772,11.299039999313914,14.524648127404614,11.591036653132557,19.619363853922476,16.36097585315388,18.441198388437797,7.4653734438223465,17.89966712954011
0.776,8.726458772898145,14.34330084102378,10.442036327081128,17.114968367779603,14.981443244619484,19.919251041727527,8.672262308859693,18.58803662282398
0.78,5.872568181462209,12.96040230668395,9.013027254458986,14.144949957575907,12.807045674427338,20.566213750128192,9.11925503735472,18.44430482815828
0.784,4.417177400889846,11.744211351716583,8.47490548456177,12.148147843431003,10.779069949629257,19.893468532176875,9.030126260380639,17.690311652371303
0.788,5.523606633054634,12.058821837256211,9.653291371944666,12.108577336662364,9.914046001477216,17.9559817529718,9.104440496381219,16.833463541739984
0.792,9.272063220461153,14.570373685121204,12.6057295168292,14.151841812799008,10.856838572000981,15.446464769019027,10.14823111773607,16.450431745311043
0.796,14.60727610101225,18.894463540490513,16.584778935175546,17.53849762382484,13.571386617566812,13.424236333090494,12.546944092040867,16.868863336906394
0.8,19.802488178899573,23.749460702818652,20.379197513364836,21.010384403443325,17.3052501521077,12.80203351730031,15.883131826825885,17.874967879185597
0.804,23.203266116657854,27.508502725050853,22.83471289458803,23.31283988709516,20.835566557624492,13.843382771710896,18.93838831281338,18.63620174437918
0.808,23.892742943254547,28.881995076087406,23.296101295978694,23.66239781970735,22.9016443917329,15.929526630200312,20.140603149884214,17.947137725597717
0.812,21.97224539306529,27.397988142320564,21.76730442544319,21.96831674315361,22.639332374681352,17.771882524623877,18.25755063792153,14.736958067721664
0.8160000000000001,18.371776528396374,23.484033822205888,18.758679579856164,18.758277588235245,19.845076788343807,18.010887455557384,13.00132654295416,8.633749154101107
0.8200000000000001,14.343904353493603,18.199404051864533,14.976763065912062,14.890682811145219,15.014335904447936,15.910648545349822,5.258753900870602,0.2942980927340164
0.8240000000000001,10.92607852142598,12.794626930013944,11.052362638851278,11.212773296937835,9.164179031951619,11.774275657306315,-3.1682170522685085,-8.689267249295767
0.8280000000000001,8.621829228640951,8.31276446802788,7.430346732669451,8.305649826715618,3.5179328198972577,6.856103631415713,-10.182799701975975,-16.300909204553484
0.8320000000000001,7.398302526626459,5.366964259554848,4.418898386753784,6.394425846689594,-0.8453824370700298,2.7917888001763016,-14.098237440753094,-20.81995130358084
0.836,6.919519107844679,4.10861597051299,2.293024571168732,5.414885255120603,-3.2738895775110306,0.8337538580650481,-14.14756400996713,-21.407072328624395
0.84,6.834334913154948,4.3292367449938505,1.320821728934038,5.161119835397061,-3.674647008591365,1.2911895989128235,-10.600007701986431,-18.303270423040228
0.844,6.945083818389522,5.59723588114874,1.6557288899218543,5.425116011527081,-2.4804100858722355,3.461368976058824,-4.5240511039105185,-12.594446441327957
0.848,7.188867589262119,7.369014390237782,3.1570005688055645,6.058676428509243,-0.47125435032797336,6.075759659210066,2.648847590821461,-5.692069015419582
0.852,7.496934772451215,9.059614494490585,5.270649355197243,6.950200301872392,1.4786066633016746,8.000804884678306,9.534889992321013,1.1954715205176285
0.856,7.640674077928741,10.082918124962418,7.072026292776768,7.932770538433729,2.61593437296677,8.796430994828242,15.035129984484456,7.327353477164648
0.86,7.1951453161018275,9.921262310019062,7.517993752109535,8.704017442574365,2.4476757313979896,8.815268610074865,18.413631986790207,12.357439097307887
0.864,5.69447744014593,8.25606788314823,5.841614112296459,8.84502238668373,0.8015510503640506,8.816168169318807,19.31574581447133,16.07001117000964
0.868,2.896477586409244,5.117966309812534,1.9165510867612636,7.952003652695559,-2.1727684594628163,9.365456138758974,17.804887542018527,18.1529821678194
0.872,-0.990066974163426,0.9672780145617068,-3.5922011826464697,5.828793164636029,-6.041723184440574,10.402096058790532,14.397827735139305,18.196299019097587
0.876,-5.261256041791766,-3.371833375034776,-9.385431657616428,2.647390666147933,-10.156096154240979,11.231784911744976,10.02018788017416,15.936260214767673
0.88,-8.904375793852608,-6.911916873075998,-13.945062628389218,-1.0203752935185038,-13.740315743335536,10.966482865979192,5.831045091967226,11.56579150116117
0.884,-10.973550789762921,-8.812040990556987,-16.06946470242416,-4.363870192719405,-16.046447357808887,9.103674804315844,2.8832821827544475,5.8630956280509725
0.888,-10.991058840962141,-8.683806425016916,-15.314463900932452,-6.637194510624909,-16.559260696831526,5.87564793445563,1.7390904281546753,0.006102161059749811
0.892,-9.17376840265846,-6.762268557606017,-12.151975583526092,-7.4677740609366765,-15.189127659326816,2.1700915927162683,2.2349627938551127,-4.872089255911423
0.896,-6.348917267885103,-3.84900256969136,-7.771243680838942,-7.004851433326445,-12.358902591988137,-0.9369363562313406,3.537168227645042,-8.143339134234814
0.9,-3.5851474657655023,-1.0171449327327715,-3.6010252332100876,-5.826653297637309,-8.905403879363337,-2.7326356552402604,4.5246541214193865,-9.901402324583668
0.904,-1.7179038511745208,0.80221288099363,-0.7657620286135716,-4.653137979024186,-5.797191959793629,-3.187200019422373,4.317540795468158,-10.806153661289517
0.908,-0.9971075990119465,1.181625366080508,0.2965592502550738,-4.0008733840623885,-3.7616544336391984,-2.8483143137807163,2.710884872946047,-11.63280490906414
0.912,-1.0484119129353116,0.3325083046330546,-0.10069537806214779,-3.9721591207468667,-2.996379484266532,-2.4090976298131377,0.2749911943815029,-12.7841226558857
0.916,-1.1657210700900493,-1.0644233104825427,-1.1574153243627494,-4.278663616809581,-3.126627092940809,-2.27450981612712,-1.9571291635073447,-14.03640683445644
0.92,-0.771003971355745,-2.2367130203087493,-2.0336295674332963,-4.477590165656743,-3.4379704945081366,-2.3862122740271796,-3.0350703343700927,-14.67499698801639
0.924,0.20851185815023943,-2.7261515924842152,-2.261483758361555,-4.278366446398493,-3.278154194369117,-2.415440983623972,-2.5911928440921166,-13.950616295432363
0.928,1.277195806663995,-2.5972259734884195,-1.912311233280866,-3.7226531748456595,-2.4050558609139765,-2.1404669099462796,-1.0170391017985443,-11.577479730775329
0.932,1.6451472621481011,-2.368492803481244,-1.482637426833306,-3.1571798663928314,-1.1079984673943999,-1.7239238923860434,0.7592604310641633,-8.002441743964582
0.936,0.6729315431449057,-2.7298001443931894,-1.5939227705444707,-3.034393868935642,-0.04752335413983433,-1.6781728714368342,1.7562776948712067,-4.28193022975873
0.9400000000000001,-1.758770813137973,-4.185634452133996,-2.6696079927436,-3.666121477032501,0.1108215501685208,-2.5230996798625416,1.4226555393145652,-1.6296373733145852
0.9440000000000001,-5.185973579553541,-6.833639007487669,-4.775365824954164,-5.099799067595964,-0.9639169383688337,-4.377904544758955,-0.14687463517574173,-0.8895969944923028
0.9480000000000001,-8.830016497304943,-10.371464509410469,-7.672824332256504,-7.180070211745766,-3.148099203164761,-6.7812155522048725,-2.3666237290710432,-2.217481747331532
0.9520000000000001,-12.021078957038547,-14.287788639193641,-11.00353293637421,-9.724356468756675,-6.004723555393545,-8.887889870302828,-4.569781817992764,-5.110433012777853
0.9560000000000001,-14.51180629380205,-18.10258228322518,-14.452138574835846,-12.660579010328734,-9.082710134361207,-9.945188313566717,-6.415550317469277,-8.725593026601882
0.96,-16.484111548185382,-21.502030108835378,-17.783744363637027,-16.019676246159563,-12.161811747395998,-9.74171373799007,-8.05322770136524,-12.311405529300611
0.964,-18.24696135231644,-24.30560969438579,-20.743871160320467,-19.757480687566126,-15.264222314178056,-8.741586924634403,-9.93828236810524,-15.48554928054828
0.968,-19.84139259356114,-26.335209900016842,-22.94303803043572,-23.535625382305405,-18.437150166010788,-7.829501523019548,-12.433653383013196,-18.24079737419299
0.972,-20.85004357803321,-27.33592524953729,-23.876077011631313,-26.660968089666127,-21.481041913487875,-7.806871474184862,-15.467868436240483,-20.738814654603388
0.976,-20.569842156665544,-27.052468381600516,-23.129335331354206,-28.279755482343433,-23.85005738835863,-8.953757527066351,-18.48356206230807,-23.042893427707053
0.98,-18.45596169814751,-25.408947148944993,-20.66434329119207,-27.755175715475108,-24.83192478250599,-10.926628047272988,-20.712936482414396,-24.98209045756527
0.984,-14.565290608761057,-22.660038501680603,-16.9842463360604,-25.02750917395525,-23.92765848906998,-13.020082446264734,-21.616681342242757,-26.224615777836288
0.988,-9.689329309658579,-19.3651034666829,-13.024640612056324,-20.724254485476028,-21.200778982757782,-14.611857774668675,-21.217964292973278,-26.500109454566722
0.992,-5.052956259439193,-16.158062091613225,-9.765484762745398,-15.927840846352844,-17.361861017006675,-15.489805562615997,-20.112344677630723,-25.81453677250024
0.996,-1.7393435213402393,-13.45361370257478,-7.7755743645991435,-11.714943008929602,-13.517942187681474,-15.875965071170773,-19.155183926170892,-24.515084925235058
1.0,-0.181036265249245,-11.273556854494926,-6.958669712712431,-8.713938751895313,-10.6965560494219,-16.16813027635552,-19.00527711048231,-23.16082389956739
1.004,-0.026846244385865026,-9.338100220682934,-6.683945918700697,-6.935518423326457,-9.419480485674782,-16.589698993234432,-19.789974779705318,-22.267170991228152
1.008,-0.47211862918473546,-7.384281862204832,-6.249789031616347,-5.95637961332618,-9.564413830620213,-17.014581222542617,-21.09208998307531,-22.065918432951552
1.012,-0.8360587113950579,-5.501099566045582,-5.401375669964925,-5.316214864152299,-10.571897680774223,-17.06586223496106,-22.247308061095808,-22.40812726633913
1.016,-1.0196834061842606,-4.252191574561298,-4.581685934233595,-4.872511967990988,-11.861472294005283,-16.4059426287294,-22.77590518383089,-22.843342744303122
1.02,-1.5444334069977712,-4.444974093404889,-4.716656096213453,-4.8781646786260975,-13.171321698761503,-15.0137410770425,-22.668029987731316,-22.816698025853967
1.024,-3.133497574342048,-6.6353869120659175,-6.621642677894551,-5.737827276537968,-14.599737473431738,-13.237134631903455,-22.344138647802563,-21.87400196532245
1.028,-6.115724063431212,-10.662837800048857,-10.38381342211033,-7.62255775181198,-16.350028334238676,-11.605591175251263,-22.34194035679723,-19.807553096425824
1.032,-10.049748041439539,-15.52523944095352,-15.1139818494981,-10.215889736462104,-18.37399161166595,-10.543191724225363,-22.928908338347785,-16.706118176606676
1.036,-13.85477494160632,-19.74514597514999,-19.27282950665338,-12.792736605519742,-20.199287295727814,-10.157382846436494,-23.91394318804326,-12.920293156915875
1.04,-16.38493372724694,-22.05020350567002,-21.414366101892515,-14.597180614289957,-21.079242176973327,-10.239804322835376,-24.75771918651754,-8.988927231371026
1.044,-17.09302466825295,-22.001126927627425,-20.931910060153303,-15.27508901054959,-20.399701601306965,-10.469764900166165,-24.90719498817824,-5.5470547126269505
1.048,-16.366984905367268,-20.20230259375461,-18.371929980012215,-15.077253250953934,-18.09724411471478,-10.65439870298212,-24.144938291599864,-3.22370030715348
1.052,-15.292105804059814,-17.95458226559775,-15.120489761852628,-14.678005610213512,-14.804850509525892,-10.8334638066211,-22.724418294408984,-2.5043548653015684
1.056,-14.975643595395209,-16.56015182775061,-12.65386143307106,-14.71618315296522,-11.620938517174869,-11.198745960420576,-21.22098630932684,-3.574206631608643
1.06,-15.836398171167719,-16.653739915147632,-11.770086181045299,-15.338638737022668,-9.602211228214257,-11.906805322311456,-20.19719132398673,-6.200583961235126
1.064,-17.31018951399853,-17.936985917741175,-12.250959874180587,-16.056265457405836,-9.276042503479767,-12.93703973061861,-19.89382665887131,-9.738767798410153
1.068,-18.174485445956076,-19.448173317045196,-13.132826639040543,-16.025531063358713,-10.444501625102014,-14.11859425062445,-20.14280829079172,-13.31036595064064
1.072,-17.306919802778964,-20.17620680907639,-13.386870990112403,-14.600311059150146,-12.378162556763892,-15.28431365066037,-20.5357479901557,-16.11179143283519
1.076,-14.411971446569849,-19.646691429103903,-12.580579794502427,-11.810560725645438,-14.277847297606533,-16.41793958835502,-20.727671404686312,-17.714564371810894
1.08,-10.265804365682056,-18.13499842396287,-11.119131545249797,-8.459884205045746,-15.709462607253835,-17.672932135630752,-20.666705860496908,-18.213716969591715
1.084,-6.327884668103861,-16.40988353954757,-9.939565415297846,-5.7640336078343655,-16.762998476205517,-19.2096812317943,-20.604439225122647,-18.127682417828638
1.088,-3.9307559687977784,-15.195734743991526,-9.86994060469313,-4.713885888790804,-17.855540847482136,-20.94916527208432,-20.88447096738527,-18.079056479621595
1.092,-3.550387516426695,-14.719883628636738,-11.078828059982653,-5.54843610514728,-19.339088231654067,-22.44280096370058,-21.66393607791379,-18.421062273575203
1.096,-4.589416831395723,-14.638619864704943,-12.965600161938049,-7.639910515054593,-21.190229941622526,-22.99731442851543,-22.75976201231361,-18.999576269591774
1.1,-5.777904412687389,-14.347990976675906,-14.525053819152268,-9.844175461459011,-22.956323476051793,-22.023282322153637,-23.718310271406125,-19.182394926929614
1.104,-5.941178822728382,-13.453516599196204,-14.94578022735519,-11.105255222146734,-23.984545871125054,-19.418952114177422,-24.054218906932444,-18.16154889795866
1.108,-4.675020833631834,-12.083008353154124,-14.067992076753013,-10.970623282035941,-23.785100031905685,-15.751222559385292,-23.50078883058141,-15.391730113817472
1.112,-2.5349280309825026,-10.83579093184525,-12.424044132667913,-9.74441673520693,-22.29997106788211,-12.070361332328408,-22.12675660684167,-10.94319000374921
1.116,-0.6458128717690323,-10.411409770732423,-10.86056494530177,-8.21566988650061,-19.915072911216967,-9.444606958887988,-20.261179387857222,-5.557251663799989
1.12,-0.012616609648866017,-11.167598714376012,-10.005020089417636,-7.172300692299412,-17.234132171387163,-8.452905546998915,-18.284565427322214,-0.37833575785939155
1.124,-0.9488263780881532,-12.89148646031284,-9.917650636480293,-6.995509320698605,-14.762922791882328,-8.919368224148187,-16.42872171225488,3.5107797855327885
1.1280000000000001,-2.9250335895769215,-14.894358727697224,-10.105582829202508,-7.518485700969901,-12.66210300938888,-10.04328358769273,-14.68365013373248,5.551408438002551
1.1320000000000001,-4.902789155938664,-16.36358082530689,-9.865071158508943,-8.19832309778289,-10.71343198989386,-10.833475062658643,-12.853723612222563,5.927628044280897
1.1360000000000001,-5.923920894490155,-16.769691863714023,-8.726601238005262,-8.45919283620376,-8.514297025871056,-10.624717792804557,-10.728486557628699,5.434509433528445
1.1400000000000001,-5.584213543859351,-16.067536026175464,-6.716495641267539,-7.97467060105185,-5.762980609221785,-9.366182850479841,-8.24326145185185,5.068022006650409
1.1440000000000001,-4.15223782643906,-14.61261184486274,-4.3093498774900025,-6.768629513941851,-2.4772010602510175,-7.543742808023443,-5.549503016691256,5.545124396681507
1.1480000000000001,-2.319185118210841,-12.88876886567988,-2.146544107689845,-5.133833677940124,0.9574129881563263,-5.828454006361124,-2.971711104203309,6.975922361454231
1.1520000000000001,-0.7652498882999961,-11.228640187158952,-0.7079475413233975,-3.4556844984602013,3.936793522209811,-4.65498685426445,-0.8731492970964903,8.848568838951103
1.156,0.17539845501235063,-9.710781366323003,-0.13420879106885586,-2.0615551733276005,5.88532101948876,-4.0147147382394195,0.48328259704299814,10.332716517261984
1.16,0.5795493453138296,-8.25984288628022,-0.2676003773685318,-1.1583862670014122,6.475813392187863,-3.554520748601882,1.0312316751740211,10.726302804080936
1.164,0.7616497683582164,-6.833552630806682,-0.8243476479833922,-0.8306052915589186,5.738201579606098,-2.8916612854674852,0.9236819545392749,9.820730987813066
1.168,1.0097419855569685,-5.549053401049689,-1.56505340249816,-1.051863012382018,4.018272440488934,-1.9280475569020172,0.47499760307186123,7.994404808193159
1.172,1.4014723906969537,-4.659644457574253,-2.362547554213874,-1.692526955149963,1.8195321449404345,-0.935744580258131,0.05161113524819361,5.99039107021739
1.176,1.7809267114818164,-4.4232269966432955,-3.1740282902661967,-2.5464267883292364,-0.40159366790806317,-0.37788441202377543,-0.08088277933965149,4.514551691586696
1.18,1.8766158632145324,-4.9589213325391786,-3.9838231247210123,-3.3945317185910064,-2.3828966205584177,-0.5840713658599861,0.10610550051121859,3.8671386825058836
1.184,1.4530779109481977,-6.191104337381845,-4.789215572101355,-4.10528708214118,-4.0913751403598635,-1.4875419006554953,0.3540978496747802,3.808082775337649
1.188,0.41454023310073485,-7.892349123493818,-5.6299400771171815,-4.705525305154109,-5.632974431224982,-2.6115715733993445,0.20459068553764403,3.734832697642018
1.192,-1.162690445322851,-9.767012252510328,-6.600177799438333,-5.354624262786942,-7.086424892747566,-3.3186627884510163,-0.7794431619152853,3.070208123111911
1.196,-3.0735554240263987,-11.531577577882535,-7.815550732945196,-6.229176249857221,-8.386762929650175,-3.1828312905641036,-2.7750210774492396,1.6416743747666134
1.2,-5.044176579626223,-12.930602047099958,-9.312961361812507,-7.3590326829619155,-9.308301141138037,-2.2416374145901092,-5.545663568728088,-0.15537230704588034
1.204,-6.796953739667849,-13.73808224320057,-10.959379280981947,-8.546701495322571,-9.580061862886211,-0.9782643785173009,-8.498799557699696,-1.5253267362807894
1.208,-8.12706053835717,-13.790583307973838,-12.455616191079997,-9.440971458518998,-9.070610745580996,-0.05228216383866657,-10.952270429263898,-1.6908424294307065
1.212,-8.980579123636808,-13.063422653411484,-13.46315502205222,-9.743176539452726,-7.921935688888808,0.06690505357476484,-12.458262144869959,-0.33787529383280823
1.216,-9.475919220121384,-11.744620221508999,-13.77154480101678,-9.394626074066988,-6.528975838134143,-0.6658423981005055,-13.004618839955121,2.17763518423129
1.22,-9.824745966795678,-10.214512072434065,-13.384501389905514,-8.598887751285481,-5.344051243342811,-1.8753297854007673,-12.959031357575167,4.978951074164627
1.224,-10.191306884553546,-8.914179119837915,-12.480776667504458,-7.668924231164702,-4.624585639166697,-3.0059363210403722,-12.780654552372074,7.094740367604708
1.228,-10.542811607024447,-8.129504472991824,-11.259488602576791,-6.785190162696401,-4.2687992633420855,-3.6456590821386854,-12.672528866204665,7.927779145386699
1.232,-10.59094033667553,-7.800180433581413,-9.777313494565865,-5.840161057042113,-3.849985558648531,-3.7116246000611333,-12.382411380448044,7.5134876893024725
1.236,-9.914594749316603,-7.517608909485552,-7.9343317746478075,-4.52887628664409,-2.8829229512158507,-3.4028045304044796,-11.331175503188918,6.429749714686014
1.24,-8.228283800263974,-6.7310040331308745,-5.625717924314312,-2.641835664023044,-1.1584175984154377,-2.9936530370161116,-9.006223002223294,5.435489004850575
1.244,-5.661952182579119,-5.074934770973876,-2.9703474765258084,-0.3821195469963179,1.0480711957868216,-2.60531411186979,-5.386371736226095,5.0529945645646706
1.248,-2.8525126452373364,-2.62549885257274,-0.433217601430679,1.5496360293181581,3.0396369382620283,-2.1045074580904113,-1.1186832079317794,5.32892779428628
1.252,-0.7333605389487476,0.09267269608262052,1.29967363677979,2.237881204496338,4.033595284533346,-1.2161251226545464,2.7014359363703586,5.907417162376986
1.256,-0.09140281490226665,2.3514677737559397,1.6507782155488089,1.085282663195564,3.57032831421394,0.21037642119180644,5.030024611932877,6.342141002340038
1.26,-1.1257290460239537,3.5895761965165045,0.5042010225165132,-1.7215044756549367,1.7589056007976822,1.9919061767433734,5.39071702285144,6.4296124609851395
1.264,-3.2763347943225343,3.6878464401042073,-1.6573597608233612,-5.141325043465923,-0.7997132874059503,3.5989961934930923,4.089394589229852,6.334068129863471
1.268,-5.440755178876353,3.0034012017242286,-3.9380212084524917,-7.70182532305345,-3.3523502712480635,4.364404607213912,2.0132794723560137,6.43531218308264
1.272,-6.4921940459638225,2.155295215892621,-5.459009043128466,-8.219355121478467,-5.380277194918402,3.8206703245175264,0.16194026638595505,7.011722576781796
1.276,-5.83194222402536,1.67578362752357,-5.802743368355926,-6.423182602363763,-6.806862130228822,2.005123720529472,-0.8328228955411985,7.987560742314393
1.28,-3.672761706671075,1.7408431083749254,-5.201549346571726,-3.11884377123081,-7.893803180779683,-0.4638037625415401,-0.9173161296115886,8.917053936088118
1.284,-0.9054521966820792,2.118988282259642,-4.364476901637357,0.2219412848319844,-8.917151125315957,-2.596631060794468,-0.4734418558042961,9.23123643342382
1.288,1.3635055141477999,2.34100047490807,-4.050713002890481,2.2167118946545674,-9.850446852596225,-3.441693504145881,0.039853699049726465,8.589332590755019
1.292,2.3314745076375893,1.9701485602136546,-4.653810863311178,2.2375095191164496,-10.287932391802943,-2.5066116235839697,0.4041356780282772,7.093428920722519
1.296,1.8094792553487666,0.8044056351120932,-6.038714017196906,0.6225243503074824,-9.681879535082345,0.00022871996945483808,0.7046004645745034,5.236275334636966
1.3,0.18731566629183227,-1.0749133839753846,-7.691561526255812,-1.6457122633919894,-7.7330566084765575,3.2235223686506798,1.1468792308657196,3.6139707854961376
1.304,-1.869158811806042,-3.391438447384435,-9.053331954114707,-3.5665912015011862,-4.675304074347951,6.003757051533022,1.8080065180278604,2.5901960475863017
1.308,-3.750864107606391,-5.7856061011822515,-9.790084323800624,-4.637867996357354,-1.230807147438516,7.349182100388129,2.5344416032234323,2.138019511052755
1.312,-5.0747791966877065,-7.8646733414151555,-9.832389473256804,-4.963311136329174,1.7632835367350572,6.831307880389163,3.080241642159828,1.9421639802223156
1.316,-5.675218797669443,-9.237171525899534,-9.235292681572805,-4.973415729168649,3.800379579694877,4.736439198902652,3.3522197800404863,1.6646004572839006
1.32,-5.503707086111645,-9.56963294189557,-8.009824001887006,-4.9971571375287525,4.945807703105647,1.9059562372729832,3.5484784541463976,1.1746363177447878
1.324,-4.577988580735982,-8.70804648127412,-6.099145677881565,-5.0048153941575135,5.7001292412697655,-0.6510944027199155,4.0340529065315724,0.5790554544254887
1.328,-3.035489420575617,-6.823002076872035,-3.544927596790041,-4.694982068923416,6.563499589804705,-2.1918276547536544,5.002049866366363,0.034285718567868884
1.332,-1.2165176952354537,-4.460373026174611,-0.6955659675918451,-3.821200195458898,7.600806408192004,-2.5279261272218347,6.166170481822651,-0.49704086260398306
1.336,0.3533317588598668,-2.4095069740039414,1.7478027869169839,-2.4864809166348936,8.306921490830437,-2.0167462684298454,6.7381707598604335,-1.3128084323282314
1.34,1.1690766620858102,-1.3711892894584063,2.982952667370552,-1.149305289505266,7.9112300115117495,-1.2780415202911173,5.805865552514302,-2.7613674620319033
1.344,1.0635502449572058,-1.5705178819346317,2.558416348301101,-0.30863834293691683,5.940080100784112,-0.7937151244031506,2.9265643728039334,-4.874033515098011
1.348,0.41884085544166894,-2.5496637085257254,0.7443075104914764,-0.10155499148755665,2.6793142168615747,-0.6134609873697787,-1.4307196674853024,-7.103909894762756
1.352,0.07831831029529601,-3.304936441136656,-1.4598296544888358,-0.12039643702945213,-0.7853280784329595,-0.32476971052916603,-5.893865880471912,-8.414374371168233
1.356,0.9153359772815968,-2.7879540796472315,-2.784930304661048,0.3615320634989825,-3.0632117409765263,0.6900499218458522,-8.757661335752877,-7.757834741921598
1.36,3.280820589084939,-0.5176094993941713,-2.3897722978615485,1.8803725581148476,-3.220990199870842,2.847975345921898,-8.82675870638245,-4.697724516408149
1.364,6.669828255766966,3.0433845675186753,-0.39428080808712807,4.326347359989931,-1.3715106243049089,6.058923853429906,-6.056230637888149,0.2075908269216029
1.368,9.863281971858841,6.609224493925138,2.1110451339670404,6.8847201879074165,1.2974248570777571,9.691867441978676,-1.6126178193439764,5.545653463518472
1.372,11.526219062884667,8.675111493080426,3.6313999993829467,8.46217656113946,3.1090175651543914,12.861608244721344,2.7033119111683006,9.692004837476748
1.3760000000000001,10.932482080457097,8.280504184907306,3.1035483223710627,8.349354775788777,2.781841422972198,14.864755758961284,5.3412986178313995,11.622078697081811
1.3800000000000001,8.400008281626693,5.526637903863947,0.5244384097689951,6.708107180435428,0.1380397783061189,15.508377461153264,5.7092616498842155,11.428313047621469
1.3840000000000001,5.157781915174666,1.5497125125422788,-3.0068315734921978,4.5464104497528,-3.7623394076871866,15.151087002120278,4.327959468263515,10.219993925289725
1.3880000000000001,2.684531039625554,-2.0454230754748286,-5.872762916553174,3.149504875800651,-7.142269036044247,14.418234646184008,2.3857900612067224,9.440846915416847
1.3920000000000001,1.9124828147493913,-3.965084155209324,-6.800292410224463,3.3116028003286955,-8.385567788741026,13.761148165912218,1.0010064682027786,9.991173945303709
1.3960000000000001,2.760660648141676,-3.8071096995748865,-5.499609244544288,4.840731740561332,-6.7961215644429736,13.167713139691685,0.6341562718022109,11.688365737114538
1.4000000000000001,4.28444329615925,-2.125179879864575,-2.711110911925176,6.671096558711177,-2.8474504842987853,12.205505065381054,0.9739004850663378,13.390896007116147
1.4040000000000001,5.333072833393803,0.012786706631547906,0.33265854731300326,7.5178551587801214,2.1576905030262488,10.392661471304777,1.2978150206012362,13.709214196251384
1.408,5.301177350687881,1.6839707826861199,2.673352353698915,6.67748922445014,6.783781706590598,7.66083204396378,1.0366701258046538,11.885430600571766
1.412,4.5009604219777355,2.595468386244632,4.140284979701574,4.478623040869321,10.111045061541155,4.597036199096896,0.1644010569898411,8.310610543098619
1.416,3.904989580045127,3.1080741669323135,5.297005423346458,2.0875433793780225,11.983428876168254,2.270586851469373,-0.820260104318451,4.3771298285731115
1.42,4.443941041877134,3.8370192637769094,6.8916675405259475,0.7968482041794509,12.796801973495153,1.7037212862235886,-1.269098486584447,1.755295756932167
1.424,6.310533447620919,5.1133855214398185,9.188244740635184,1.2352287355723126,13.025704561215107,3.2759063874847527,-0.850886055563457,1.5080461072334845
1.428,8.734706925102824,6.681585310104434,11.645855805925816,3.0040727007675674,12.836553715931553,6.409445871294689,0.21570511900595513,3.5721073115334177
1.432,10.403507235465,7.829123840684584,13.163654525025198,4.962650665912833,12.025258758463064,9.76725621116049,1.3006050063534804,6.865629238389609
1.436,10.267378275974597,7.83623254641479,12.734751439844086,5.967705631657403,10.265269643773518,11.87791139395475,1.7442442303119128,9.920227215826017
1.44,8.241147278693505,6.469921150048307,10.111176147322672,5.605540321385476,7.481304393534567,11.85871091302636,1.2309784816595624,11.64645438513922
1.444,5.333781990503707,4.186324940320851,6.043149246196961,4.444169824748505,4.064118534708365,9.833511842790744,-0.08380702974430498,11.785035747721532
1.448,3.117908628448091,1.9256217499906758,1.9506874571356216,3.6632856938559994,0.7878544908980576,6.831694711649277,-1.7325509825626684,10.843480343049348
1.452,2.859234918236015,0.6468718536555023,-0.7669462755601755,4.3136453763672655,-1.5143413043384095,4.237317384854661,-3.2300460482115616,9.634955370371555
1.456,4.811942801501247,0.8652766082778374,-1.3835713638253937,6.665594757260775,-2.3326389698774874,3.1135795040539445,-4.312508791773136,8.749464080473345
1.46,8.108462780551736,2.466322737847527,-0.08812664088665745,10.054599140774881,-1.6825142580999293,3.7698192193708935,-4.965047744515573,8.285996593078242
1.464,11.288854427218766,4.86927856505326,2.275817585846258,13.295931566507395,-0.028972315291466266,5.762388404295706,-5.261850674523124,7.969076930878833
1.468,13.118697429873087,7.388430561185946,4.75648718874749,15.37241263275276,1.99321909395271,8.256093340965162,-5.176528965391934,7.48906952833302
1.472,13.20257099099014,9.552173040816177,6.77121059934751,15.94764673139599,3.8795651818606243,10.483857602015439,-4.540168536379294,6.775162926672971
1.476,12.049080180548819,11.185915490718088,8.246441421302551,15.402836222354896,5.4014698631020615,12.021133367884351,-3.1839493911054486,6.022854234645098
1.48,10.593508300826702,12.268243072526039,9.401626984430042,14.41461614795848,6.547058458745228,12.763663026532107,-1.1707516698214342,5.47917111832743
1.484,9.534326732645058,12.728822936721748,10.402418137467745,13.405000391884544,7.351733149138967,12.717165019843701,1.0799901452034346,5.178126013101396
1.488,8.935946048877529,12.392007495971566,11.17484271615628,12.27273492740438,7.789074057468929,11.80941978527947,2.934943360783675,4.859607902845912
1.492,8.343659551643487,11.150417134224986,11.518984397474593,10.600319825895017,7.824020066843136,9.916506224750831,3.9021267277207254,4.153991677907166
1.496,7.288582990117154,9.221284844036846,11.404733236612657,8.1707850676148,7.5725327448479245,7.092043358136137,3.980226952949666,2.9114485214847434
1.5,5.793165514623607,7.253785034418053,11.177619405210569,5.404407660826895,7.413474845231014,3.802972757948606,3.7665043899880635,1.416470936000319
1.504,4.505405722174724,6.143527839524166,11.47434713750603,3.3548551038215324,7.921144772717581,0.9522936645827893,4.180026979837539,0.306524546784988
1.508,4.344878798440939,6.5967275796663705,12.845981560457064,3.194996704260843,9.583989061886198,-0.4298125356723079,5.918474973038508,0.20548425602757314
1.512,5.881752209873204,8.691200324421676,15.32530419524415,5.484152907545058,12.460926237083331,0.3035971982557135,8.961919332267005,1.283890477858192
1.516,8.85996913315693,11.706108274252127,18.242028391444418,9.680190797343233,15.977252704182114,3.0030588496924477,12.408374194670033,3.0496264926604035
1.52,12.206668130874183,14.390712071532466,20.467362490654896,14.25768770862511,19.035983419937434,6.683258909868568,14.799691185817208,4.545879015146012
1.524,14.562717589389678,15.560517842199769,20.985367335922263,17.425350056492384,20.437998369513465,9.918994097687309,14.813062644133927,4.856171862263288
1.528,15.005992328962316,14.698010133651623,19.45870649663849,18.03985699386951,19.423896634871305,11.506381869418702,11.955167108965046,3.6167196587301347
1.532,13.531775010523813,12.22569701046923,16.4413586536378,16.193673675353736,16.065181543218575,11.03344266286997,6.879754675232869,1.2187511442371344
1.536,11.006706951575953,9.274219682337272,13.085767754229163,13.127530398427826,11.272187414313189,9.03604925260139,1.12748530417764,-1.433546595882088
1.54,8.626226042190385,7.07143724872469,10.511447683273833,10.515847139612896,6.407119367301931,6.647913314542384,-3.5892180490357304,-3.461365095919118
1.544,7.232469399152492,6.317776439361946,9.233384021839312,9.558701815085463,2.7158799429865983,4.951312549378674,-6.174762916684782,-4.498788225043997
1.548,6.905531922314511,6.8930737713529675,8.988427293903417,10.400415169429406,0.8672597328070393,4.394389688164267,-6.6004321748145,-4.83050700249503
1.552,7.0594554880453035,8.04561895519919,9.049185195410898,12.18854671380419,0.8175927177186608,4.595695076952112,-5.768693917441897,-5.0998387025875695
1.556,6.934648479199297,8.894030451670504,8.794982351328802,13.684628904739625,2.0149159962483054,4.6416074102301765,-4.9023162366080575,-5.778639145429659
1.56,6.140025428166766,8.924698656798219,8.162569055376652,14.01528057080886,3.7922369024535154,3.705427877285301,-4.813508778423532,-6.758030412882113
1.564,4.872719422526167,8.172902450904628,7.6629336215936945,13.087514723328024,5.678912460024955,1.5961454313617942,-5.492017383435535,-7.359058692609788
1.568,3.688597182772902,7.01513845862598,7.953948778004907,11.447404882078386,7.462754779021307,-1.0932464704022538,-6.230762512625461,-6.797410398799363
1.572,3.0180352335266902,5.768798946937239,9.267107302014864,9.743017446576875,9.032717933700804,-3.320694213463515,-6.188464926287508,-4.822412842816114
1.576,2.7606850061122006,4.3739090993581495,11.072999808990946,8.181445697386772,10.145542473215668,-4.235660586414187,-5.061530095851121,-2.1176221367295147
1.58,2.2713612746041107,2.403062275461126,12.245065477824653,6.368145515329339,10.331979848087318,-3.7477858780559914,-3.4366647017956757,-0.17087317187040973
1.584,0.769399418213131,-0.5991115893547354,11.652316555625035,3.6423395679145116,9.053516956528805,-2.662103798219136,-2.591955335144312,-0.6167949936560877
1.588,-2.0824173958767,-4.670751292172819,8.839391641946916,-0.3233296229826561,6.044933550516176,-2.278704503318916,-3.8260186577409474,-4.383900578914007
1.592,-5.8013325197390815,-9.173448261034267,4.385373792440294,-5.0704511256606875,1.6331650101908846,-3.669934319244785,-7.672603350826,-11.103586737348317
1.596,-9.160297794369635,-12.916067043501258,-0.2786080680312466,-9.360986526602108,-3.1862811059533875,-7.007692593178297,-13.444942074821356,-19.10696104420089
1.6,-10.701976350463244,-14.611743917733197,-3.4911721745282134,-11.66544366246022,-7.002610957220229,-11.331231157651041,-19.378152124511704,-26.033376212073534
1.604,-9.432737963996095,-13.446296432363903,-4.095124558662354,-10.881796136231022,-8.504255601121876,-14.925711968651601,-23.32780662080978,-29.7739360504428
1.608,-5.315468517210564,-9.461506418984678,-1.896255560297357,-6.879558251517622,-7.016954595054944,-16.116768724636295,-23.69430928828929,-29.301364222429818
1.612,0.6971425868781029,-3.5482747838732522,2.366235523960837,-0.564371340051331,-2.7890658726952005,-14.070632062999097,-20.113661470694385,-25.006958958814227
1.616,7.052310617385839,2.890139492054666,7.438779095594334,6.5208875906448736,3.0832138469457275,-9.198990303785875,-13.59337501577192,-18.430990475576856
1.62,12.214340058681932,8.447765529114854,12.102274200485713,12.82971864843612,9.072208439961393,-2.957274963522376,-6.037856214218293,-11.55636329772273
1.624,15.196925899637366,12.153493346820085,15.553997999275918,17.34229148784909,13.785726996475438,2.8389410243595368,0.5640365759031072,-6.0345435976896535
1.6280000000000001,15.796773579881249,13.682671318286731,17.48947804773944,19.763073841960956,16.436328884757806,6.814035033348389,4.903761907148464,-2.6806344796180936
1.6320000000000001,14.489617544044041,13.327415092319505,17.953835133707553,20.37167154881802,17.02724130564498,8.538336234461001,6.729791803628863,-1.401854044817381
1.6360000000000001,12.098976620138927,11.771812003168087,17.136955595302062,19.694405431631395,16.195794914668845,8.485061075956661,6.705762005965953,-1.494790327956263
1.6400000000000001,9.422944013575691,9.789383857367262,15.2609790390275,18.205480484228932,14.819943252679645,7.536553612969625,5.875120310178884,-2.108457455627917
1.6440000000000001,6.977117212900566,7.97965255684564,12.60329118183922,16.198655866495482,13.600707884880489,6.397515475008084,5.060905845016313,-2.6234029236460756
1.6480000000000001,4.925181739346612,6.619007162425843,9.581483661808115,13.830182489109962,12.821341594490992,5.25924975812906,4.514846711262431,-2.797324837467543
1.6520000000000001,3.1615973575676604,5.650166752193721,6.7654068413667545,11.231361121330302,12.365564956242565,3.879066465713396,3.957160012975299,-2.6919402244978805
1.6560000000000001,1.4524641993182856,4.7717930333571115,4.732727049445053,8.561016012078817,11.921731511265001,1.976445990646733,2.9128251413635886,-2.483756220129914
1.6600000000000001,-0.3956546953747806,3.6386291538811646,3.8601191566120683,5.987370340589628,11.265950955408051,-0.37162736690205467,1.136968204070273,-2.2946353884130772
1.6640000000000001,-2.3802596599305024,2.0996619187910803,4.185462248370618,3.6558920575366667,10.467562502061984,-2.6210773064622095,-1.1249315452838344,-2.1203178876346174
1.668,-4.259446962242951,0.3249734416807777,5.4014438148120725,1.657631913741222,9.871862019968336,-4.0390748703702055,-3.2116856273407715,-1.8738637187624319
1.672,-5.601830033401919,-1.206730271862667,7.018574045116246,0.056412801393181555,9.914948254504786,-4.186332562195892,-4.379563026711764,-1.481953896350988
1.676,-5.923051016984138,-1.8902232550208258,8.595210281196234,-1.056282963767662,10.86963553300972,-3.2449057467429645,-4.203525320017875,-0.9478936133090308
1.68,-4.885856094939399,-1.2816793758574971,9.895101832571743,-1.5431036622863832,12.661536000134635,-1.9480137388280931,-2.815195781235524,-0.340928232547121
1.684,-2.4549145801813435,0.6654212217314521,10.914126929074545,-1.2496077913068127,14.871967301613196,-1.127275013523246,-0.8431619552538372,0.2816678806206685
1.688,1.0444963085795171,3.5351098789265656,11.77668847332921,-0.08525870759450438,16.919448471797157,-1.1528936379511974,0.90329524835753,0.9559040785930191
1.692,5.010512500915494,6.614431451171653,12.5952489751666,1.8981087975382889,18.327661531804083,-1.6460768217986081,1.837087296119286,1.809343790793763
1.696,8.752637546696693,9.196116298679053,13.386021429718912,4.480357991323073,18.922690841409402,-1.675884249719002,1.8508168506777969,2.9638891559586384
1.7,11.694320019417356,10.858527744009383,14.072800895192842,7.306260546697043,18.855952273096374,-0.3691866014134533,1.2953236023763535,4.391172308726826
1.704,13.505659925730043,11.573211409818924,14.548076486231421,9.957129848964266,18.445876680704526,2.4488130188631025,0.7008392033663666,5.817565371703539
1.708,14.119688583306205,11.586591763438928,14.71892149230955,12.010308397426073,17.922915691235183,6.024227011311131,0.41692012490433017,6.759368085260704
1.712,13.673794019292327,11.19636980918029,14.520283117485306,13.097357348620967,17.254757803957432,9.003111827446064,0.39979256416870834,6.707491362819128
1.716,12.420722604547906,10.557627860578025,13.892849613621312,12.963889086318426,16.147884571919892,10.158000187127245,0.26749431995306683,5.389428891611351
1.72,10.644730573552483,9.617111269547983,12.752560524266782,11.523011741396466,14.218064224500374,9.077160001225149,-0.41599197983717584,2.960267890827037
1.724,8.590824646194196,8.1823029484484,10.98948881007971,8.889965124958955,11.2258145165576,6.37506088463765,-1.8258216517449455,0.0008508156806450451
1.728,6.39434280134257,6.046648216947066,8.50748446078292,5.363442423592943,7.239769775856437,3.294924726808092,-3.7351308750992804,-2.7133759103005914
1.732,4.03414158672569,3.111819418289591,5.3062902768058,1.353898969444737,2.665449916290446,0.9536060945224442,-5.622744582210876,-4.563801913805711
1.736,1.340838865261197,-0.5566619915470747,1.551653004169526,-2.7259556574628707,-1.8755890342511101,-0.2962677794343159,-6.968925545343323,-5.382244527273846
1.74,-1.9077396427169089,-4.725265952072234,-2.409884344179627,-6.566982187498718,-5.7526723649502705,-0.983769539472337,-7.560745652874219,-5.525459922152054
1.744,-5.787252335384789,-8.986411355396829,-6.083671886899215,-9.980038304887419,-8.499132950192958,-2.0434336824835393,-7.599218245067416,-5.66204002136182
1.748,-10.014982525718125,-12.742960334920205,-8.900020942680815,-12.817125161141693,-9.892193051566023,-4.056789860597748,-7.5325794313496655,-6.384792326866508
1.752,-13.850440753071833,-15.216994762328884,-10.314208533063546,-14.850218690502166,-9.933370274315982,-6.704379877735299,-7.7198189582054635,-7.866087002285394
1.756,-16.247275181253613,-15.588900349684032,-9.937158623343043,-15.722336077526787,-8.799993421416039,-8.830488460629198,-8.15455090575415,-9.757081945446108
1.76,-16.259623682790995,-13.290489825589606,-7.6812523168089895,-15.057791016794942,-6.812711091818274,-9.103139099021345,-8.426180610715928,-11.394051704954746
1.764,-13.540199008314625,-8.362715015108877,-3.8805221021711818,-12.708537502425797,-4.423650950416174,-6.87008932268165,-7.974739042124973,-12.18766414152883
1.768,-8.671987581984249,-1.6877190491154366,0.6828730413738686,-9.005820373785689,-2.1903982253914975,-2.71059549722321,-6.496137620301521,-11.96916767011456
1.772,-3.087387050331392,5.128917125463589,4.9198216698097905,-4.827420793329729,-0.666376697771689,1.6841016984659931,-4.217762284345675,-11.087380945571017
1.776,1.442674773739757,10.2484742481401,7.73595960656869,-1.3784679156654054,-0.23395786827726184,4.26846030687275,-1.8719736238464306,-10.201384906049542
1.78,3.541638864455825,12.29725706429785,8.405938602731611,0.26329532344601425,-0.9425847247338623,3.6453901834082396,-0.35825905721797646,-9.88620882676461
1.784,2.8187768434382026,10.94072765300034,6.854953848397789,-0.37039338567173186,-2.4642479409682085,-0.23889421169400826,-0.2834415011159721,-10.288939998399309
1.788,0.010385892286391751,7.029309549709079,3.712923793257262,-2.88736769866612,-4.222955816527268,-6.048316108241166,-1.6348260224983424,-11.03276802702446
1.792,-3.392695070875721,2.24245302471742,0.10430628448427837,-6.1531787895701004,-5.628816939315516,-11.650041457853934,-3.7727128947225794,-11.419339925144072
1.796,-5.852225922042712,-1.625227500237489,-2.766153301784324,-8.75942780630915,-6.322097089655197,-15.02388587366725,-5.756765487336543,-10.812036925482255
1.8,-6.46332315674953,-3.3887849624308304,-4.063757852130686,-9.629003609586434,-6.297487407385932,-15.048375458533432,-6.828369864694114,-8.98627360941188
1.804,-5.269649123114378,-2.869479708722751,-3.6185005764337452,-8.454125813712366,-5.847844221715401,-11.838023493914477,-6.783562885054943,-6.250046786291203
1.808,-3.1003426560185874,-0.8170795375594215,-1.9465086492670283,-5.77472459869531,-5.3787950404085105,-6.564127721983112,-6.041226134598574,-3.287700234916172
1.812,-1.0574148400075378,1.5799187743402676,0.015776844264720813,-2.664965913208387,-5.181482214194526,-0.9348326393688655,-5.368406891763474,-0.8297245317978539
1.816,0.04121792745894659,3.2930609301674405,1.3232538950852268,-0.20772554154238798,-5.309726275238401,3.4107743358655522,-5.445524801343296,0.6726231209474758
1.82,-0.04390670252527773,3.851986023035339,1.3966949142930158,0.9602366645998985,-5.610620980444535,5.372760177271992,-6.505385371670013,1.2036192757576298
1.824,-1.029966429752955,3.392128586370821,0.21759086023700602,0.8320966910081391,-5.861009331440886,4.63346578176583,-8.224897238459738,1.1240673890058148
1.828,-2.404363926296473,2.4072804444253535,-1.7244287410701609,-0.10440880018818866,-5.911672094394234,1.676418040721837,-9.914169177461957,0.9569695526056698
1.832,-3.72682180179778,1.4247064613974314,-3.6719214153373985,-1.2015282058968426,-5.743709084131263,-2.3939923096242968,-10.867111094348541,1.1283266771864882
1.836,-4.773795868842592,0.7680031824137572,-4.922756664398099,-1.997850787883037,-5.4343179900052645,-6.1969030153167,-10.69506181903471,1.7860018126691002
1.84,-5.488146642070055,0.5035398412376151,-5.0985654534352065,-2.3986976381514165,-5.07402749712791,-8.522791508904106,-9.478987147840963,2.7541063069580427
1.844,-5.8383407294357115,0.5270576301772323,-4.259942354168533,-2.6232043928630207,-4.714522375022895,-8.755000813113691,-7.695505864364302,3.625345634814435
1.848,-5.738232031746395,0.6753115663809162,-2.8425475963254128,-2.9896785516754725,-4.3833227967165,-7.107184292870534,-5.984588980511649,3.946652686294672
1.852,-5.089630591545228,0.8102504333341534,-1.4333585847309016,-3.667017459287596,-4.115628707421671,-4.530645267252229,-4.864927178365682,3.4259732079624596
1.856,-3.909752011775308,0.8471926413467674,-0.4945106208159942,-4.532364159135354,-3.9632145488077044,-2.2835552354871886,-4.539086752531231,2.082736412245324
1.86,-2.42837405714606,0.7662362608786912,-0.15605887317812872,-5.212613903057997,-3.9473728122570813,-1.3321730410114838,-4.856227089797606,0.28453170900936486
1.864,-1.0659618845782388,0.6150235817006253,-0.18520870373962062,-5.2898044536493005,-4.001617395439746,-1.8917875278827148,-5.4358000702551825,-1.3669190435122078
1.868,-0.27844119411971135,0.5067979611489601,-0.1488941851708403,-4.559011993620883,-3.958545024164781,-3.3537923048754252,-5.874930109551778,-2.2673734488961177
1.872,-0.3557150444805508,0.5972446046220945,0.31748805181354456,-3.193746731603911,-3.6046852199786277,-4.667702999095933,-5.913435736215746,-2.0699457567829076
1.8760000000000001,-1.3053278961133143,0.9999622525074257,1.2657688753980842,-1.7284606955399675,-2.8049489816992588,-4.968132942876949,-5.491288519689734,-0.8529179905491486
1.8800000000000001,-2.874483330948598,1.6777412514713839,2.358317572406207,-0.8450294609700197,-1.613761918390163,-4.078773061604913,-4.692700487067892,0.898480726448923
1.8840000000000001,-4.677762832770756,2.3927282809409376,3.022444326141268,-1.0388955256407568,-0.28495349816352267,-2.599133681887343,-3.620623607098483,2.5184374059317807
1.8880000000000001,-6.368078610375813,2.758277333182072,2.7484935610306054,-2.3522191823902356,0.8288321343731253,-1.527668403252437,-2.304295592739482,3.4798951230008437
1.8920000000000001,-7.745234644631557,2.4136401426025715,1.3794584839786475,-4.316136550976161,1.4483425677935857,-1.6389330130677933,-0.6964669329378483,3.6388885134297753
1.8960000000000001,-8.765870949172601,1.2342872993524323,-0.7740232138195742,-6.147122814569579,1.4939794661318349,-2.99602551645373,1.2305983676485517,3.279824098952992
1.9000000000000001,-9.490020587368747,-0.5447277770710217,-3.0654126980909884,-7.124225598314152,1.090728441199058,-4.880478292507473,3.353394837354709,2.9213444281002783
1.9040000000000001,-10.024440931976997,-2.391208139925046,-4.828906133883981,-6.958325109119942,0.4461512197222728,-6.1935421250213984,5.3192278373387705,2.989819396738195
1.9080000000000001,-10.48203647059749,-3.7033729368273915,-5.69103509127656,-5.938714648840752,-0.29717270231106685,-6.084930019554526,6.623315774634037,3.5658638311673125
1.9120000000000001,-10.94929897871182,-4.065582300678715,-5.693833740039732,-4.760548528469099,-1.1021955982061087,-4.422817235547965,6.846864273263272,4.3467975337536675
1.9160000000000001,-11.439726866457658,-3.397471553233399,-5.163068887376744,-4.1135180124277735,-1.9400997272060745,-1.8435305583480535,5.931801660599006,4.846447197452605
1.92,-11.826602348629292,-1.9100676974422601,-4.4075897424497805,-4.252527006879693,-2.6198734002995008,0.6353676355148674,4.332767241911508,4.712971936073779
1.924,-11.809622484426509,0.07842931980187162,-3.464475868123139,-4.80850635800585,-2.7114539671732794,2.1806017956846877,2.9120033301218706,3.9561230966764738
1.928,-11.001765976763394,2.3225962070990436,-2.073961616889166,-4.976330787068306,-1.6863380516028659,2.538102255559924,2.564773964633492,2.942847671854475
1.932,-9.131302908823619,4.716787376836528,0.08772535599876585,-3.987365551162256,0.7613042188286012,2.042180637072175,3.7450373543243085,2.1511476279317177
1.936,-6.293463771225685,7.194037207370855,3.045224893221593,-1.6166662167603478,4.37149797725498,1.2820946818136358,6.1311448877515105,1.828362537900293
1.94,-3.0740461657559566,9.567143114034304,6.2935665743867455,1.5903488521350653,8.222859063212795,0.675026066641348,8.660761155259973,1.7876149041519653
1.944,-0.421863193960339,11.453332414912463,8.891202349681038,4.535990408462624,11.019443641941987,0.23886436985492598,9.974653119371066,1.4887534133434455
1.948,0.7314208575958299,12.380402995592451,9.880997547284565,6.1278783181322485,11.673473285831953,-0.3010186735003393,9.082955157310343,0.37348948525648185
1.952,-0.03236778211151048,12.064329034597598,8.831000642414065,5.88163792454795,9.911987442495025,-1.1784336300699962,5.9354065883016,-1.7333091004315184
1.956,-2.30854476078453,10.66594507991453,6.167899479543074,4.213210657696151,6.530411643413586,-2.296801257752202,1.5697564772661887,-4.406531097322342
1.96,-4.976206601109844,8.825828407060374,3.062125273428647,2.2236671194337383,3.0846595527863947,-3.2156793729554614,-2.292022706358118,-6.75401383968765
1.964,-6.729801408743649,7.395448490144575,0.8693248877897557,1.0845443058627544,1.1208555309134232,-3.424498084082448,-4.040760216136789,-7.846136677517674
1.968,-6.8058369458659564,6.957838835019189,0.39328334036782797,1.3559855623763073,1.3221208559613802,-2.7348994219252942,-3.001818550011444,-7.218344297878703
1.972,-5.491153558085327,7.425533141770933,1.3935347350495917,2.635325140584717,3.0754551539244437,-1.5020679819372937,0.16364019533923413,-5.177026097833111
1.976,-4.090225776693621,7.972115005118833,2.6446752276283974,3.7527876951237538,4.743765993485166,-0.48967303095932757,3.7136506836887766,-2.7017829519696996
1.98,-4.2860355151486065,7.405222732478423,2.559288211876715,3.431952136911963,4.545875519752176,-0.44092032942720705,5.644139956589185,-0.9791231524669675
1.984,-7.193399168351929,4.814789918082203,0.0762405171394388,1.0493387029470196,1.5850459181641272,-1.6018260548394339,4.6870496100674615,-0.8002406299606535
1.988,-12.615701886531323,0.15660383185917803,-4.653767720817269,-2.9286819246650753,-3.538132343593536,-3.51053262999848,0.9951821407389713,-2.1281106136889067
1.992,-18.940148603364058,-5.553529178739545,-10.179068571240903,-7.088417606970194,-8.888378486851582,-5.208890370091211,-3.8506969079975084,-4.09272351645194
1.996,-23.813950987182377,-10.616219837664314,-14.36606344466741,-9.748871399012419,-12.118755098830771,-5.788288539226356,-7.568430615162384,-5.4421639888120215
2.0,-25.27859739703912,-13.42407694399158,-15.430741960656736,-9.808002415894249,-11.668149939999122,-4.9384026809529065,-8.282999655569993,-5.214691166171556
2.004,-22.785880416802904,-13.248627086518448,-12.8611527724399,-7.313772671366252,-7.6065060683833465,-3.1494248136625584,-5.476703710062285,-3.2857945100598407
2.008,-17.544563225757585,-10.627971362045383,-7.742287081510701,-3.4621671446002074,-1.6711206659766766,-1.4542471085790314,-0.31632896798003385,-0.4912818897258695
2.012,-11.95402367031407,-7.098871431432123,-2.2692282461579465,0.0029813678197854188,3.560896589252977,-0.8471745326772613,4.861874872960601,1.765412770052676
2.016,-8.416798645091013,-4.418326541847732,1.3039865836670392,1.6502836130250311,5.910476502987846,-1.712735861672896,7.657039132958227,2.2255727606752824
2.02,-8.149947137477204,-3.6702600969173256,1.7541886934061406,1.0257550265730777,4.609755247016977,-3.5988575049376843,6.753907695759848,0.4365328187476534
2.024,-10.613917441569992,-4.726505675391483,-0.539174800260668,-1.2058234049177612,0.5730805400544972,-5.469020346550413,2.557623363931974,-2.981859556765932
2.028,-13.863518737508253,-6.354729627102725,-3.8382460408171393,-3.6910074967021886,-4.179417770580558,-6.270263137024697,-2.995409186225336,-6.6005272491374845
2.032,-15.634796843504285,-6.91586728670872,-5.984490450231309,-5.147470106397102,-7.59871245581305,-5.484187653920033,-7.3697525845132565,-8.866163106043002
2.036,-14.5635116674671,-5.279208837827889,-5.527917779151185,-5.027283747412046,-8.59284631858535,-3.3656694574369217,-8.628883590538626,-8.839703427556982
2.04,-10.887251273901427,-1.4669879032572544,-2.460417878060029,-3.741770595200992,-7.413594985748716,-0.7484241427003973,-6.299180629259397,-6.601022170501118
2.044,-6.272808747697038,3.3001299399412996,1.8152814878900123,-2.357932375738941,-5.305601201885274,1.4375386931682117,-1.495509994982281,-3.127244586113961
2.048,-2.897354630498823,7.163193633559182,5.238972628349944,-1.9665243861679294,-3.6948172626361404,2.6464688823609315,3.7157282026093794,0.26925686588925934
2.052,-2.304272111628528,8.503130640805644,6.155735867103113,-3.086911262783989,-3.4101983118587493,2.915741057626386,7.3580747347261894,2.6049306919114814
2.056,-4.653438757462542,6.676419856271201,4.11639325938979,-5.430172016104374,-4.379994584247699,2.7247634105679372,8.424032796648872,3.6249123294120285
2.06,-8.744835756872344,2.2566977069548386,0.017832725763061497,-8.12384872025533,-5.911202833827902,2.6232957149044305,7.180819805732069,3.7472064921752737
2.064,-12.735480676066897,-3.294359378398517,-4.441289295799999,-10.226667266700257,-7.308277578908388,2.881277063597372,4.820238081991265,3.639515782241652
2.068,-15.12789678414826,-8.345071026164852,-7.67247198781321,-11.229851729272937,-8.411201159633823,3.3619986788801053,2.69069175424299,3.718125002683535
2.072,-15.467569384519278,-11.80238430875124,-8.957769077472163,-11.256706365635317,-9.682666663252729,3.676473618748438,1.5783433786836634,3.8855305084181504
2.076,-14.405498683748384,-13.475004441382143,-8.665105476940512,-10.867834536081409,-11.804276132617426,3.502572265703723,1.4314399807170979,3.673522940800254
2.08,-13.151672745853434,-13.950889886508213,-7.845288794243235,-10.612707771193378,-15.044274504803434,2.823148719903727,1.6230112647639658,2.6742534396600526
2.084,-12.700602635242133,-14.130667483800373,-7.507478050162611,-10.63769125845187,-18.837147861735247,1.9425546279751706,1.5129111075390655,0.939895037852758
2.088,-13.292377990621532,-14.702776099883557,-8.015514662408771,-10.606253944527671,-21.884052531135374,1.2920488180728051,0.9144083453886616,-0.933052437913874
2.092,-14.366762059563884,-15.798570490426465,-8.919703065288708,-9.955456229861271,-22.739512044970283,1.1475050579145094,0.20405170860551713,-2.115217085442155
2.096,-15.000925309913564,-16.99830507935106,-9.31054050112713,-8.341241927759482,-20.593013609014896,1.4373092850928006,0.017051425566382505,-2.082939872481762
2.1,-14.519441349567213,-17.623870350869005,-8.436279462911688,-5.97146207329739,-15.780956564974389,1.7666242309651796,0.7696197053722997,-1.0190599177630455
2.104,-12.88724096883154,-17.118029684433015,-6.191750087022894,-3.592668108488994,-9.715790265755833,1.670941457711395,2.338987009633194,0.2011469683935907
2.108,-10.682850162876523,-15.328277430652228,-3.205357271527227,-2.1263057994754835,-4.257172688293855,0.9372526284134848,4.1147038892935255,0.46773475327960945
2.112,-8.709026453706429,-12.563917578904299,-0.4877703408996026,-2.148853009064316,-0.842551002622419,-0.19719377108985703,5.398889914461881,-0.9080527568275247
2.116,-7.517661577822971,-9.4476626650116,1.1185940302126451,-3.5379677043820985,0.13891552376284588,-1.1046322488267357,5.867677497199091,-3.7367224315370056
2.12,-7.136882177221641,-6.663719222561051,1.3552973674980302,-5.508921967174249,-0.5963705424755652,-1.068154597442766,5.788777018304064,-6.979726014720543
2.124,-7.137467744695662,-4.726713013468338,0.60500356806258,-7.022126619398303,-1.7428323603733693,0.31654400932419047,5.84869919690532,-9.26017437669692
2.128,-6.9650234519392775,-3.8642381549723934,-0.40968354510855054,-7.345358885526204,-2.193784012053391,2.858634773522731,6.684599112700558,-9.577375130877307
2.132,-6.298527866864514,-4.012020544497127,-1.0669497552509872,-6.443162998317829,-1.6428612034932861,5.76833397254916,8.430859790058998,-7.831254592832146
2.136,-5.225553210679642,-4.904166868133691,-1.1682387760904955,-4.983640063314139,-0.6905033828735041,7.974305316174323,10.5675891898865,-4.863454973679012
2.14,-4.154600522148373,-6.204504708103579,-0.9704430913125264,-3.967476054918744,-0.42746804634552404,8.620240504321142,12.187783541817378,-2.0135146284079806
2.144,-3.5495130029179194,-7.622753557691563,-0.9573173678839814,-4.196310276714417,-1.768955158310411,7.480690771272469,12.514143727481052,-0.4593760510165579
2.148,-3.6787264105455844,-8.998491498791743,-1.5366047014517772,-5.886990390327989,-4.933599228204322,5.077930100130002,11.343966196630149,-0.7054748544177287
2.152,-4.515466891736359,-10.314062325027484,-2.8471412771753513,-8.62141006967037,-9.335793021543346,2.435069243868843,9.162642918252011,-2.4733848541704724
2.156,-5.813841422982556,-11.639245976939247,-4.764710327594093,-11.62258114856961,-13.916763682430762,0.573082312732372,6.851632374718822,-4.989520252959762
2.16,-7.263863395000943,-13.012564010171618,-7.0308371557767355,-14.149631829741859,-17.67058297648804,0.010660099854937322,5.18649590686055,-7.441600731016031
2.164,-8.602849521956974,-14.323536735092326,-9.378870760271855,-15.776405158696484,-20.053582234568903,0.5378334289309676,4.439669474232675,-9.325462126194672
2.168,-9.625140030382541,-15.268208010847992,-11.553016001853917,-16.421330046557987,-21.063076497593773,1.3770521531319435,4.3302597955601225,-10.504666949104255
2.172,-10.142237574793533,-15.425012833958192,-13.239384178168839,-16.18772234826197,-20.992220893784012,1.6472446651500343,4.329390912387799,-11.041316972706982
2.176,-9.972747439095624,-14.444945717531441,-14.01704332098975,-15.171674370270473,-20.074901799866442,0.871653441261417,4.111712993686375,-10.971864292575896
2.18,-9.00711398135515,-12.262880486212484,-13.42916694745018,-13.38864017187905,-18.260019803120663,-0.7583024779305205,3.864741970413119,-10.196833406558426
2.184,-7.326464325731845,-9.220488297590132,-11.196694351907272,-10.87332211346238,-15.270380243125995,-2.5193763656722776,4.215591222548221,-8.562983698806672
2.188,-5.276338677344059,-6.01258444743442,-7.462727182459968,-7.852234221973991,-10.896071669751105,-3.5906247481954088,5.814085747133063,-6.043972331676335
2.192,-3.3807297119003787,-3.415435772365603,-2.8675921006358385,-4.802520751596011,-5.2900661043402355,-3.530159523383647,8.854453631593556,-2.8568667681609363
2.196,-2.0954856486731623,-1.924038501402768,1.6472619676987952,-2.3013743925752124,0.937316816367161,-2.498261554842345,12.837072282735297,0.5949458021711926
2.2,-1.5605467197716,-1.5084045845276113,5.2241263966079154,-0.7542955943072096,6.882953501008045,-1.1052904648936552,16.719401066319566,3.9047103882626413
2.204,-1.5026129124106302,-1.6228810180906588,7.471821361306548,-0.15994601548570397,11.69319115792458,-0.008070120441007411,19.39544188353866,6.841461891102712
2.208,-1.3774935299275592,-1.5038879501239053,8.610278660943498,-0.08954879501418755,14.872884212265614,0.5038996840066003,20.20931472621473,9.382118755618084
2.212,-0.6997332209281013,-0.6066061559270424,9.270067964203694,0.06777171297319828,16.39098344687241,0.6443208316860183,19.225623793253042,11.565993446210394
2.216,0.6451980918292843,1.0665313900322833,10.061235713926854,0.7369495667646717,16.553076045658074,0.9080269590235817,17.120111093623954,13.294319254413102
2.22,2.299228206090155,2.9366368107411356,11.160190066369683,1.8821400808893674,15.746179210390236,1.6613839912868618,14.776960957398812,14.23900039919777
2.224,3.6144425125755952,4.142030677225689,12.16071873310454,3.0040838075249052,14.222212958988063,2.8193470652784933,12.839928657270523,13.962958603215753
2.228,4.0121363371350025,3.9960641142178455,12.286212998884123,3.4204887013448864,12.04071709663459,3.841871470874155,11.470190539235679,12.207644276882924
2.232,3.2916129284904874,2.3458681708152476,10.836862208743465,2.653089059958197,9.172571606454811,4.054106069570013,10.41911794450532,9.154118996695239
2.236,1.6995042024004543,-0.3858838143299632,7.604275439939769,0.6965210617335091,5.661172212869756,3.0890684702300506,9.309178303201872,5.479298826004049
2.24,-0.2871884818509356,-3.4966649456065504,3.0136403093163784,-1.994350528320337,1.7097646656395895,1.1505917913695842,7.916764940804146,2.120262909064925
2.244,-2.3022014591123927,-6.441332190666244,-2.080730130441575,-4.7660026162413445,-2.3626233800745142,-1.086557644490727,6.281792608155332,-0.13986845129702563
2.248,-4.3132522839059995,-9.12984244942472,-6.804789957547511,-7.100616230907146,-6.246541794890133,-2.888840424015443,4.60487996811103,-1.0244773533942877
2.2520000000000002,-6.5607008521718795,-11.875196585477713,-10.617349270318272,-8.809817631642069,-9.73741814283244,-3.9110425545717105,3.0679897285310624,-0.848118972548179
2.2560000000000002,-9.233122750544045,-15.012641668423669,-13.4043085982317,-9.983190853074053,-12.72509445440153,-4.379344323159648,1.7383412537276783,-0.2782554019729324
2.2600000000000002,-12.10876544190431,-18.44005643858241,-15.292931572532199,-10.764728754646692,-15.08337629423221,-4.898497857687666,0.6427193640801252,0.07548398998217998
2.2640000000000002,-14.440911913614649,-21.405345884528067,-16.346890976955216,-11.140045801834635,-16.55477809742589,-6.01543834211861,-0.06611114199253043,-0.010235657832277534
2.2680000000000002,-15.231823176715885,-22.748614496311177,-16.379793674194147,-10.91569650180293,-16.74774302510278,-7.816776727741598,-0.01005454368485248,-0.31916082222400455
2.2720000000000002,-13.767270431911816,-21.488102887247443,-15.021519747809258,-9.901514767147468,-15.281570629654098,-9.851847723830012,1.3144541155712923,-0.43898337638789076
2.2760000000000002,-10.099079235863796,-17.424976278080763,-12.000573377689193,-8.154400955848606,-12.021526347846844,-11.436567863970257,4.236935841387047,-0.1326367183337882
2.2800000000000002,-5.1654296513570905,-11.39806483826949,-7.4434095772285715,-6.092207378410601,-7.258149065721684,-12.120603436742737,8.593382619342938,0.42604794673751556
2.2840000000000003,-0.41885379116162236,-4.983793565886736,-1.9808953512261214,-4.351810657814444,-1.7069461691918562,-11.985139383716412,13.603632091897502,0.7094284281765844
2.2880000000000003,2.83327128869335,0.21155551890213964,3.418440708822572,-3.466114986913544,3.680470495545668,-11.561115885609304,18.073621268521073,0.1510268351715482
2.2920000000000003,4.033153033176267,3.2985313125591986,7.821397400775463,-3.542110140857575,8.02885334513559,-11.429724959096552,20.87005727781885,-1.4690305590124049
2.2960000000000003,3.5955844928489453,4.468785661093939,10.698344139682174,-4.1499237483157,10.823086339759303,-11.764308847025056,21.429003804787406,-3.8116473626898726
2.3000000000000003,2.620893061402146,4.770476442867206,12.080369974872397,-4.515147601896003,12.030076479946992,-12.14691623054005,20.02222959677509,-6.075225379990458
2.3040000000000003,2.2830218790179213,5.437077746199767,12.438909527025617,-3.9086613798823455,12.020542549339542,-11.814313484617863,17.623752676923164,-7.344589139327999
2.308,3.2328680499004,7.151166416364589,12.371982818330666,-2.0196285708739765,11.350722911488667,-10.199285872705993,15.428260737645601,-6.994562833527377
2.312,5.332192838288309,9.673623882603081,12.27614270994192,0.8841282084711763,10.518929951510497,-7.40844117800367,14.28168813666162,-4.9571536167916666
2.316,7.80918392739917,12.014957421337776,12.160025881698845,4.068927475282789,9.782109025254957,-4.328001253358637,14.299734788051435,-1.7453631541597288
2.32,9.675673707014578,13.006961385632358,11.666338918559823,6.62056433514767,9.0819144998471,-2.2480699375399626,14.86125420513759,1.727264598393716
2.324,10.147841543134199,11.921482836052565,10.255854288534092,7.734421377824316,8.07609963716026,-2.196297774638302,14.94416701197198,4.405196520631432
2.328,8.87013684895208,8.780022366700852,7.447474764908183,6.894852307705612,6.251387036282192,-4.362392448164599,13.61350038544203,5.3325725271591
2.332,5.904051395367258,4.241018771342278,3.0279627647921625,3.934220742583783,3.109552790897698,-7.96381301906151,10.432662331972015,3.835859860333308
2.336,1.6137781922863237,-0.7982734216226981,-2.8198195872781957,-0.9393402300107017,-1.6049629751440406,-11.623466759864861,5.625631275606294,-0.3117893261028093
2.34,-3.4161294702963856,-5.596957711533657,-9.48078667111398,-7.096025796647341,-7.689950672019149,-14.026060024491937,-0.020448508043725555,-6.733286761847923
2.344,-8.375615425854189,-9.698880629075793,-15.955080696699362,-13.440338037857806,-14.359562913309265,-14.4875002068088,-5.4010434998014,-14.350311501927003
2.348,-12.247891058473312,-12.79672709319308,-21.024333741631054,-18.502528354113824,-20.32038195382618,-13.14610856954969,-9.384500775696637,-21.467795423306676
2.352,-13.988616419546606,-14.519625146330402,-23.545687376176165,-20.776416885472962,-24.0953608424103,-10.730245922822762,-11.053247248512621,-26.151974958665797
2.356,-12.88343964533013,-14.378796691875753,-22.810206875322145,-19.251144163740854,-24.519633731428023,-8.077163190753167,-9.875918928371691,-26.84570707055954
2.36,-8.938091310238864,-11.970835043003447,-18.834842152088946,-13.917324830514193,-21.220190525795118,-5.713488904123284,-5.825009693246884,-22.99309118128869
2.364,-3.0412609395049475,-7.322894094589178,-12.44174017887805,-5.94583778394069,-14.846879068568546,-3.7329946668643963,0.58058901105453,-15.368720127965208
2.368,3.2783347846006743,-1.1305607216463418,-5.036835964711445,2.648457967154047,-6.907397076484837,-1.9680726693306987,8.338829101323176,-5.882970573709145
2.372,8.457333388596489,5.343896834879546,1.8656327851951233,9.777032607656277,0.7741169330101885,-0.2854340258454586,16.16967693161979,3.1123733668036366
2.376,11.566420555625157,10.705707982289246,7.155736186681613,14.126349552210602,6.723847590929239,1.2206242451126554,22.823900939074548,9.733427576909808
2.38,12.654548016285247,13.965670283637808,10.428774295315264,15.621048121288798,10.289685455196532,2.2594044337389825,27.390649482522882,13.235734922008604
2.384,12.56143074377142,14.890672852107636,11.941625754388152,15.252126314752838,11.710256464479897,2.568312727947593,29.498958327927703,14.12255792503603
2.388,12.29475060829225,13.963808605447763,12.261147246318352,14.362596732428443,11.759604268704322,2.1590304352250955,29.316779050227066,13.666875049517486
2.392,12.348529068880586,12.009779079381556,11.831174238212524,13.804103879984336,11.195237807567779,1.411155887920259,27.36793271752747,13.118290045694085
2.396,12.405626602421961,9.735334707258282,10.723492231525942,13.475888876344726,10.327090864518992,0.9329158039007179,24.280865092014754,13.057876418830293
2.4,11.604814982892172,7.451152312788066,8.70533629350576,12.503811305413436,8.938857782545263,1.2498040466711986,20.56817889165435,13.225954090117309
2.404,9.196746351852212,5.1078960750136835,5.5537386344609505,9.932270168501223,6.57881860534809,2.5053500611364807,16.543990834366955,12.871205820317957
2.408,5.1693265485938085,2.5612831531902884,1.3881917640832988,5.492047106354298,3.013760954368987,4.339443400855902,12.383098910219044,11.378537063239097
2.412,0.41969323094367805,-0.1503749011112525,-3.207723252242653,-0.04569520843853425,-1.4360048442365567,6.019795597505301,8.254034978015532,8.77373798486363
2.416,-3.6653142124260576,-2.7297600493175054,-7.382315323382096,-5.172561300574517,-5.905419025008021,6.774142702500844,4.4150244715413125,5.790036313299
2.42,-5.948481039353993,-4.761448028518738,-10.388815941049502,-8.404593488838513,-9.309425236094453,6.169685029719263,1.228857407263787,3.4980019439160257
2.424,-6.133348149195708,-5.940081403625332,-11.90307369249484,-9.032129639854478,-10.796385668223287,4.356104101786478,-0.8981229082882232,2.736577908372071
2.428,-4.840977222535969,-6.2108877793923005,-12.088293137636871,-7.411017434052253,-10.089855865118315,2.0359248350649404,-1.6253930216292534,3.6860924689841013
2.432,-3.119779917869175,-5.702589635318902,-11.361162269184781,-4.628176799726298,-7.526716886139862,0.17827429085478375,-0.772967670847404,5.82358379606613
2.436,-1.7294873077622182,-4.539522989120788,-10.045445263837994,-1.7934198578258327,-3.81363401711421,-0.40635493824848745,1.611964841718835,8.238490988757803
2.44,-0.7032792042524663,-2.7245071633323397,-8.173232836327657,0.5570846618604812,0.3046395407699678,0.5357977010241579,5.1940063638107095,10.071556532241008
2.444,0.5337872990735257,-0.20314916166555363,-5.576175521684343,2.580202508582789,4.271287470362993,2.5331753703935846,9.324744810100086,10.815262782087077
2.448,2.568843533513629,2.902405779009803,-2.214475345772855,4.7235309411728075,7.733042470613257,4.549257244766955,13.081226973763226,10.343866314953637
2.452,5.369014115553219,6.102497016089894,1.517081264794757,7.128814252352388,10.423958647949505,5.420357777695694,15.44523186477665,8.740143488721417
2.456,8.091644810436314,8.595407382078976,4.764005054640083,9.309794652313478,12.066253327765,4.384481417624344,15.615531829718048,6.127212229326728
2.46,9.507129205608868,9.605736632803366,6.54045099630549,10.354446875038843,12.400864462524526,1.452039242089691,13.343578920145918,2.6506483367202214
2.464,8.792853046020943,8.835665834622969,6.252350654601259,9.533203837225914,11.34555212212102,-2.560758160185201,9.119045382048752,-1.397841948477264
2.468,6.158366982076604,6.717871564817424,4.08811869608129,6.891009186934896,9.141917731237928,-6.390374612694737,4.062887891926856,-5.452411577287236
2.472,2.8480499141417286,4.252544570582362,1.0003532569103717,3.383358492768295,6.3489188414531075,-8.911956647220903,-0.46983596638750047,-8.722513515514494
2.476,0.443128849436385,2.447956436978278,-1.7750705448478428,0.3913082120158169,3.614193804185045,-9.653084018047347,-3.458163173419299,-10.484964088246139
2.48,-0.14665732643273355,1.6847902407052224,-3.3969094781631393,-1.1170477975757587,1.3461430955669478,-8.98446663193154,-4.674491816646109,-10.469562777348965
2.484,0.6642790344833269,1.441516788002132,-3.8805727053479644,-1.2254467781055425,-0.49232539558028243,-7.887923825659871,-4.758296797856572,-9.081119025927213
2.488,1.305585318863736,0.5970418399799966,-4.0512273459136665,-1.0618787459111396,-2.3104665628716843,-7.422094714745884,-4.849562052766064,-7.2580727269166125
2.492,0.0038066696412264456,-1.8058434650044086,-4.977903679412114,-2.0905311436051885,-4.525997250657856,-8.166023310133566,-5.930884554323603,-5.985069765146491
2.496,-4.0269650981131395,-5.791119472745693,-7.221828216862617,-5.107525055520419,-7.133814508987541,-9.94279028401168,-8.248288500090634,-5.728345577544921
2.5,-9.897939250570941,-10.187638039205593,-10.360904776602741,-9.574292848827767,-9.503187568589073,-11.973509289702788,-11.139248431057528,-6.148099586350878
2.504,-15.333407994911028,-13.101513348887831,-13.095566335671961,-13.744886962028218,-10.587263576953854,-13.347197446873576,-13.369147763407579,-6.297635070010326
2.508,-17.82514334297928,-12.919392058489858,-13.907831293195015,-15.56496207770965,-9.483892020053435,-13.52819264314763,-13.81093732449468,-5.224843972155626
2.512,-16.025519048012214,-9.284459453747228,-11.920199498849387,-13.849621683778796,-6.051963193044623,-12.611152601215775,-12.098899767268808,-2.636665595472178
2.516,-10.56180677023854,-3.4579526425260116,-7.457632547904671,-9.039112821395817,-1.203293760987043,-11.186977483266038,-8.885940482193872,0.7839884076711534
2.52,-3.780967813745416,2.1986248317740764,-1.965799020899866,-3.0573934631522137,3.369044078165775,-9.923348835617574,-5.54706809835669,3.6477758189973857
2.524,1.4622884351498264,5.383070875831877,2.6775465440179507,1.67307787377973,5.933500627346337,-9.122467044062285,-3.486019181971187,4.5859848688473654
2.528,3.281127682673999,5.006850658423572,5.0725068087064065,3.496728012157721,5.5593447288784406,-8.558943349924991,-3.438434105438798,3.0226237186703506
2.532,1.6526149816023623,1.7026446091722374,4.930297301101636,2.337648858246335,2.5982090433946516,-7.68178855046639,-5.159685180586774,-0.4723905196312912
2.536,-1.744137745959616,-2.597057895746234,3.0915673234186722,-0.38802336924806413,-1.4760816860072379,-6.0498859099955435,-7.6486952202071,-4.471884668748377
2.54,-4.626285763897109,-5.762754373956463,0.951564319294534,-2.697457899142825,-4.807525075680002,-3.7166508525742294,-9.763982176661745,-7.484492004705784
2.544,-5.449042802806838,-6.595501581520422,-0.33860297235210646,-3.2224946849710627,-6.077270434679502,-1.3168150589850993,-10.846811609085037,-8.783619710372585
2.548,-4.2186690104279085,-5.365959248334738,-0.4427786316254323,-1.95499411108876,-5.1144430853716605,0.2203382889426222,-11.011790929266418,-8.777567381224653
2.552,-2.3366033197212692,-3.481573116925717,0.1230242823577985,-0.14447112376898708,-2.8726403758745813,0.1856863900614758,-10.940298754427108,-8.702617107291161
2.556,-1.6096588992154817,-2.5298287241991524,0.45948318485657924,0.5625492435363209,-0.8142935977632006,-1.4826286444501289,-11.334235015777228,-9.800196741847035
2.56,-3.0674161363290167,-3.2835051493580174,-0.061470220512441553,-0.8015476044635427,-0.06858772833203686,-4.094171161301864,-12.377383094952595,-12.46523312312841
2.564,-6.3095683699273515,-5.255527847544732,-1.373122345989028,-3.899229229516908,-0.8433738823863473,-6.49019878056834,-13.540950516137704,-15.889142732941353
2.568,-9.761632074354814,-7.053018931191998,-2.7773230216043077,-7.273482263315834,-2.419866093787892,-7.581324788215113,-13.870485284044367,-18.429434325808295
2.572,-11.64188125160799,-7.258718629717757,-3.418169908500523,-9.209520280412953,-3.676243956441984,-6.843686713775842,-12.567082464204336,-18.50917885810201
2.576,-11.030340731771531,-5.300703251950341,-2.8596045647376687,-8.743650400850841,-3.8124901125971715,-4.54127841679441,-9.530180067678808,-15.541018469277585
2.58,-8.402483766656017,-1.801895222937064,-1.4016751156985758,-6.221002297838562,-2.8331576257118543,-1.5745153878375415,-5.536142111668955,-10.35409447286395
2.584,-5.329454033722961,1.7703696457842968,0.056804256523737884,-3.0905607573006972,-1.510363471460049,0.949509729115471,-1.9317481873078606,-4.875281964253246
2.588,-3.552567314457525,3.909725156790916,0.5218331347631804,-1.0766014293978847,-0.8857083141637476,2.1773218571916444,-0.014796486624021554,-1.2249345730295014
2.592,-3.997074089284188,3.856689628084298,-0.5212592240271778,-1.214831961496764,-1.6139850614661138,1.819479995068209,-0.4246046851899514,-0.7090362771694014
2.596,-6.30183652569818,1.9205489363680013,-2.8038077285745033,-3.302832840357213,-3.553393416282174,0.18206293715254418,-2.859600659064067,-3.233306406281651
2.6,-9.095659499685347,-0.7872601881113906,-5.401543426307318,-6.044578325851443,-5.8268258455801885,-2.0325087167801543,-6.24939336506414,-7.420253547060519
2.604,-10.817334016425518,-2.988101700812436,-7.205357552394709,-7.770643372989163,-7.297634614654131,-4.0260111859863965,-9.266299059468464,-11.325878447783847
2.608,-10.577492682314169,-3.8569501678048104,-7.469503163879043,-7.308857396836363,-7.174340778655993,-5.186092482713393,-10.909037588311502,-13.34988539148699
2.612,-8.56217638446017,-3.282793033912904,-6.132338635508757,-4.529844203247739,-5.383484402746621,-5.2510328118603375,-10.857080657777342,-12.888605893193713
2.616,-5.819869393433029,-1.7134539522546546,-3.7804191294609453,-0.33285287517047213,-2.5446700852800626,-4.339931017222479,-9.48524840619403,-10.44935672856435
2.62,-3.608459664580337,0.2428001862498963,-1.30455061104567,3.869973747913166,0.4097475579913765,-2.8655707421210153,-7.576343005758938,-7.247280280994167
2.624,-2.709472566145946,2.173835434775099,0.5442702972772047,6.8545539102247375,2.7276075465842546,-1.374507565092429,-5.897340049836329,-4.563915751286832
2.628,-3.110170778588394,3.9507735070080052,1.4500725904198122,8.086011104959317,4.144262669846725,-0.37100075373586594,-4.88082594924755,-3.2101797522247346
2.632,-4.173891513633052,5.572665495965442,1.5640022699736482,7.80193777499127,4.8732153224741985,-0.15599207368968382,-4.523423721643874,-3.321814843367804
2.636,-5.1112879943829395,6.953319883118212,1.3200935672077438,6.727399191055578,5.347536607362302,-0.7471679683797805,-4.484421054252376,-4.488121355930654
2.64,-5.430741210736844,7.848106187970414,1.175521624823324,5.633651751098249,5.910614256910546,-1.910759192180304,-4.294763503885419,-6.055355843751781
2.644,-5.117260621888821,7.987743874486153,1.4161863148939742,4.981991756990617,6.642100337797535,-3.2823526885600582,-3.568438429526815,-7.407645722258266
2.648,-4.4900996816472,7.312613529814595,2.098141199427472,4.805666042475387,7.379105979760258,-4.553615582992489,-2.1428167748657185,-8.109147672963307
2.652,-3.8805872304430995,6.135438530757347,3.114191340096504,4.838749138059266,7.882480632254656,-5.614411722864778,-0.11007295167039383,-7.916954018604572
2.656,-3.379305689819554,5.072377022469634,4.298133833586979,4.759806527372088,8.00274955657547,-6.565500247204113,2.230299219686794,-6.735378640343557
2.66,-2.8097610102894457,4.762534906111515,5.501289834710326,4.407577786785696,7.747532490277388,-7.608952080003391,4.477985588697518,-4.587758295858483
2.664,-1.915270953562502,5.538012928156484,6.609591598103497,3.8641928086880637,7.2377532393089545,-8.862514142046543,6.270560079714258,-1.6409415616198308
2.668,-0.6025560817825859,7.230782483103611,7.5199099878548985,3.395301578595753,6.611292124934802,-10.210277424325266,7.399936946345262,1.7711702955717368
2.672,0.93476534864207,9.251789729291755,8.128580094789728,3.3111277134825055,5.973695299642051,-11.301384047664424,7.876648183773442,5.1860920691067545
2.676,2.2931272752678775,10.882827348571624,8.342590423929945,3.8166892438256075,5.413258934426631,-11.706219191741354,7.90348290489648,8.119339341395914
2.68,3.083574664125995,11.61064354817554,8.114178590930445,4.910864621885823,5.045756474802268,-11.148400854653069,7.757539656055333,10.212101068881275
2.684,3.165829905638557,11.331975689686246,7.484248763633852,6.376575104011741,5.030578566010776,-9.683352566845093,7.650701622195609,11.346981860923382
2.688,2.744839523869907,10.327028501909465,6.600525219554916,7.857969967578327,5.503158665624483,-7.70520603857749,7.632677925289546,11.670906271458229
2.692,2.2685565741959532,9.070303828279314,5.704218491345184,8.991159896455276,6.470080590318151,-5.77985861142202,7.601113579421405,11.505905884299331
2.696,2.1885144605706848,8.009729252029771,5.083920888245239,9.540488093835958,7.74812135714498,-4.399736186983736,7.409795448141296,11.19740123416121
2.7,2.723013110413238,7.438511933468565,5.003841474806579,9.483843438296873,9.010094297046,-3.799871995568244,7.016158100984564,10.969048711972318
2.704,3.7543385696290974,7.500778841138842,5.61633941326328,9.01371550476508,9.938073702325596,-3.925282928396039,6.563373071085474,10.844063095180392
2.708,4.900023719029543,8.253071290528451,6.884077367608624,8.446951209861762,10.400000137052768,-4.540416005845096,6.323381335200821,10.666866228332026
2.712,5.724884708626772,9.704131667383887,8.55818946206162,8.084374249643002,10.550342116931473,-5.364821915593534,6.52834425397006,10.202449129500383
2.716,5.977787295615418,11.776419333497923,10.233879411183265,8.087554037591943,10.764650221929578,-6.148165340983224,7.186116064902375,9.266926201460853
2.72,5.72233477565284,14.216654269012505,11.471659911389501,8.425303550526175,11.424864952680426,-6.659676333833842,7.999795946619114,7.8252686240259575
2.724,5.313256390462337,16.563971336403256,11.953522527886697,8.918735894669519,12.680497180927826,-6.648933014421719,8.473466506408721,6.023336037563099
2.728,5.236939922596537,18.24241434654055,11.609613549506363,9.356889398912129,14.319628957781017,-5.855075464044539,8.144248023518838,4.152470320385172
2.732,5.875977584165305,18.775310882410416,10.641553289941271,9.603485369062966,15.8348746182284,-4.121328279738536,6.825006686252506,2.547543136896104
2.736,7.295368887060942,18.002345931819995,9.419784734597798,9.631188402885394,16.652783926272956,-1.5767205596378344,4.724913342008483,1.469204021922496
2.74,9.17655408096666,16.18705375080629,8.313819023231718,9.482851396294311,16.41693466896973,1.257448231726027,2.3739082038939445,1.020035506568164
2.744,10.924722666067098,13.938553347923495,7.5375083360443575,9.199911729060561,15.175635046925896,3.564638962117651,0.40176483386711137,1.1254736506976215
2.748,11.908560521551763,11.960089234382853,7.086273646339352,8.776158778422822,13.365528012380878,4.551355838658127,-0.7142354672961062,1.5928055375646788
2.7520000000000002,11.734025257912197,10.76209103501823,6.809426129892907,8.180145439691124,11.610280588551866,3.8432708471143497,-0.7970715247668716,2.2104930169690715
2.7560000000000002,10.42557845422369,10.47712997895183,6.550684695198281,7.426979121236883,10.425927751460643,1.746558344958153,0.03378423994995661,2.83012524737028
2.7600000000000002,8.430242968863057,10.865945086725407,6.266316455287331,6.644129603534129,9.984802309927169,-0.8271820526879924,1.473273406267537,3.3979090884609944
2.7640000000000002,6.4475086113997,11.511382876514622,6.0563319646925375,6.084026706836326,10.066331365849631,-2.764208079691505,3.182244309671359,3.9317146563186207
2.7680000000000002,5.1441168746343,12.054843805134313,6.077729605499616,6.034051666264724,10.197162633413619,-3.2811975169342977,4.88397490168728,4.465935190649072
2.7720000000000002,4.900287130442836,12.365583368555189,6.421856438470894,6.674764922478975,9.926172562760147,-2.288575435350742,6.403039632805963,5.0152912918450205
2.7760000000000002,5.694307450903304,12.546158907592643,7.034698669154634,7.96106889869105,9.069692041308453,-0.3870220040818353,7.655524641161922,5.571566113219907
2.7800000000000002,7.148111668928098,12.777192250129453,7.723415662947283,9.583691573858465,7.7960343804461765,1.4897479449860347,8.619914085289995,6.114525994502781
2.7840000000000003,8.701271015872932,13.114172695932389,8.236837212658472,11.044140932027156,6.5118994023508385,2.593475753185474,9.317131967065622,6.59597033054137
2.7880000000000003,9.811722183648202,13.355163064451553,8.358148261978215,11.804393581969812,5.602563126856005,2.722699165016436,9.767710223694184,6.890254685675901
2.7920000000000003,10.121250558019314,13.095539390466804,7.9733555033328845,11.478706046850037,5.200357684830317,2.2300932410236847,9.945410066206009,6.761727583487097
2.7960000000000003,9.537250932571894,11.940379438221632,7.079048314560641,9.989012913787727,5.110001781235866,1.7118221335513397,9.739056434222729,5.900563506487247
2.8000000000000003,8.227010934280072,9.761770739623184,5.763125434173631,7.623041754722011,4.9445749873558125,1.5926706745514707,8.969521120011228,4.060788845511942
2.8040000000000003,6.5700967904765,6.87501412325524,4.206738776549175,4.986346536341864,4.405766612091412,1.88811781765342,7.496303020204273,1.2692116224947974
2.8080000000000003,5.061661419539328,3.991483559389498,2.6884879433363063,2.833604749744448,3.516865174035491,2.2640481393997565,5.36991421471521,-2.0108294449513124
2.8120000000000003,4.182679808194665,1.9641171522507392,1.5714322149250772,1.8264151827528905,2.6684376050492613,2.3300568713937126,2.951074345540553,-4.908794023153523
2.816,4.245214451664918,1.4208823835907354,1.2166426745638639,2.280915819441533,2.4146098647523666,1.9567385983499408,0.8601451131505792,-6.434488587373044
2.82,5.258873032159282,2.4649338181487597,1.8201784010752893,4.0111232627888755,3.1174985651327294,1.3668178948498522,-0.26093432591610366,-5.921218642205993
2.824,6.888108260926769,4.599992079073779,3.24613588698721,6.349694177183453,4.649431717952593,0.9390759393877981,-0.08338332136945148,-3.415372950777026
2.828,8.547703490720398,6.917245805569566,4.971886112735803,8.366946393582078,6.3452468966976685,0.8759148450941776,1.159006368626943,0.22572474357516414
2.832,9.634898902093246,8.475380379304394,6.234731220933983,9.239916615703379,7.278465489564525,0.9790614741831454,2.7012496759106637,3.640354424654122
2.836,9.805528837288218,8.690934745393887,6.357490504190279,8.617342024257766,6.731261486088027,0.7371017758695517,3.5936112852994104,5.567394326526564
2.84,9.151571315583134,7.552634848121993,5.109932591671415,6.8060926679223295,4.610681251944184,-0.31343723271530344,3.219271585282919,5.457048988352719
2.844,8.159283667869081,5.57098595094087,2.8983906979869904,4.6637923515220825,1.569221488282091,-2.1852460893671974,1.6903934258526017,3.744329504079322
2.848,7.442503464244307,3.492163135189074,0.6411165050591316,3.2175227038459004,-1.2627734640585007,-4.269353627792582,-0.13746377482795014,1.6200143500417048
2.852,7.410002771523496,1.9602739339754445,-0.6352580776327725,3.1949938577823698,-2.7915571870000484,-5.545463847380525,-1.065784771283471,0.40947005215044774
2.856,8.052190034287886,1.2856211678824279,-0.2839284835064646,4.69799893114645,-2.4665191629907715,-5.089361785370601,-0.17973017664334817,0.8948548135695824
2.86,8.974264586270818,1.4083569947249686,1.6387583399095247,7.174004326227775,-0.5142742551417525,-2.5922027136255,2.627595991131729,2.9446609000849455
2.864,9.667843230760985,2.0479396009258215,4.398813457178685,9.70304737686181,2.214215629494104,1.4254626804344563,6.541708488563675,5.646605707461202
2.868,9.846620971266322,2.9005065835422537,6.945176452886187,11.435290407400682,4.673265051063773,5.828854232113038,10.196836021188565,7.851498386907068
2.872,9.617986442115791,3.7600891066770092,8.40085214043254,11.934894129088406,6.080131581702737,9.39105066371559,12.329694940708185,8.789499870464315
2.876,9.366998812877085,4.507055922052151,8.422015481262184,11.266852179725797,6.162434524976122,11.334571733886706,12.354658994158568,8.405314100461753
2.88,9.434431946269466,5.023834356603469,7.26159738946825,9.828477564488145,5.133456272441709,11.600057238243753,10.564033019819309,7.249124300355355
2.884,9.818250632847125,5.1601522359595595,5.549311503239876,8.07683735834566,3.478515898212004,10.71528926181277,7.879684818385615,6.032763461505489
2.888,10.117375755804739,4.80166397077649,3.9470916336638133,6.333121112338286,1.7057306026252395,9.394798980467863,5.322797943812331,5.16041886548246
2.892,9.805322221734944,4.0271421130410445,2.8905636629966414,4.7806227208821355,0.21915491698626655,8.13120894253991,3.524753011657205,4.536315716099531
2.896,8.66738635388375,3.2102927063606157,2.5184779008359213,3.6024517206373847,-0.6834324068662154,7.019172317866422,2.5409644567867664,3.7479935465064327
2.9,7.099045991476487,2.9459203659684903,2.764988131619547,3.100141775574112,-0.7817994947969423,5.88882266610364,2.0150577211021616,2.4791430243826875
2.904,6.0227751571510355,3.776257233543928,3.4855789764771767,3.647850715947442,0.027489517594938784,4.614519295294984,1.529923269986302,0.8487861190920292
2.908,6.399503054036153,5.82731424878354,4.497658042828231,5.460495569698526,1.6015445445186032,3.349824726409608,0.904031840970748,-0.5615811733158768
2.912,8.585134597343277,8.584700220472943,5.532094197259635,8.31580256141503,3.443119069385834,2.5171635929640104,0.2456505176526047,-1.0285646484594275
2.916,11.931719325719799,10.979842280002197,6.183373547807012,11.442169564509086,4.750189777382656,2.5509148715693786,-0.22438105142590903,-0.15993694593676655
2.92,14.925275949698566,11.799691895666227,5.957483327188852,13.703076017589515,4.672882468322964,3.554430886923779,-0.42395681142713393,1.7819825481908051
2.924,15.853720366392011,10.263216947223913,4.474663178348962,14.04194214637863,2.7115167733853798,5.125548903991382,-0.5362037611703554,3.930093331489736
2.928,13.683865421704834,6.458412209598429,1.733408087618046,11.977671175905144,-0.9681149256571144,6.472571722308672,-0.9153820953715699,5.2271835516313745
2.932,8.702841111544839,1.4148254259033326,-1.7199643076645725,7.905651543924333,-5.478319624296523,6.798882750621995,-1.8192786284454558,4.987257371442084
2.936,2.54046247052072,-3.265116115817939,-4.866051830014715,3.0210863632421523,-9.496014877552813,5.765351519366633,-3.1503457182088375,3.3041115639328797
2.94,-2.4844720618938796,-6.057703279110255,-6.556327429265066,-1.1223974592064079,-11.775706100653462,3.754401469698938,-4.400453994668848,1.0758107343590169
2.944,-4.381462698111131,-6.139771485761319,-5.9869437176036575,-3.212014069017074,-11.634697269589793,1.7644359208121205,-4.859481238055621,-0.38649635300989615
2.948,-2.3883550404140865,-3.709512677210528,-3.083825236150129,-2.6737434598075973,-9.191085945600452,0.9606025788597954,-3.9978817566760743,0.034979036611282766
2.952,2.692498771937469,0.13807693581737102,1.4095480363484754,0.1514562753945814,-5.245169156725693,2.098307522971054,-1.8124682698767742,2.72949818136604
2.956,8.866094763112496,3.885438499444471,6.189919099122443,4.191836135999217,-0.9099137543540197,5.099378740291568,1.05190710099283,7.133626028981638
2.96,13.815661007502927,6.185142694594756,9.883944710918623,8.076309360614964,2.8017934771558535,8.999591416192263,3.5019973322958204,11.917596731395124
2.964,15.872642553082825,6.340189223214006,11.57499075042017,10.64359798676905,5.267968318369227,12.325309911791908,4.46366716985462,15.493866011577339
2.968,14.637131785262206,4.481364500612773,11.130164826194765,11.327197971275691,6.324478798973429,13.744552870527093,3.383602251924967,16.627617865427183
2.972,11.012243830532562,1.4317767650417537,9.201942687627556,10.300864788475428,6.164989031089454,12.680711862584507,0.534504037670037,14.89175387473311
2.976,6.679296999438883,-1.6758740885474626,6.902271375044402,8.343656706919436,5.16743142961985,9.584002340033585,-3.0615169949500944,10.78649053100677
2.98,3.2808627841845146,-3.87975710450472,5.2871242789340345,6.473703574144443,3.7327681445776077,5.7217746553435385,-6.0841252053818184,5.490476224270056
2.984,1.6958889823213865,-4.773528767145853,4.882023092242276,5.485600634727469,2.173831999747817,2.5853946057434194,-7.533961182611389,0.3580864846938878
2.988,1.721874426321695,-4.668122267900116,5.445349984354243,5.570016061971174,0.6327719334086512,1.1932803547981177,-7.236140992473593,-3.611191838526649
2.992,2.282903207723052,-4.447493415953133,6.08992334189844,6.192794085709901,-0.9461581954665461,1.6357874359544269,-5.942589561110035,-6.087713348453808
2.996,2.0399307736414993,-5.150138911131757,5.72976185342529,6.324912542500438,-2.7602359864666686,3.10118281494978,-4.9416394772415915,-7.37198497163077
3.0,0.1235916516763842,-7.422225280746104,3.665937210893625,4.963857469190766,-4.987348600748826,4.362102966011375,-5.344564125219571,-8.038441463796133
3.004,-3.357259921136179,-11.072700182521952,0.04318325941022305,1.7313197576572001,-7.5594264610072495,4.472791803554664,-7.408458190255284,-8.469296997212183
3.008,-7.292712487014111,-14.990446917722279,-4.0781119886908375,-2.773580758600085,-10.00366343626592,3.3105323968041445,-10.287862712107902,-8.551783846437575
3.012,-10.067600461804517,-17.528853488097845,-7.119530631009328,-7.102032021593954,-11.485202898608291,1.6422857709050982,-12.390046620900431,-7.734906378913883
3.016,-10.341294536475504,-17.234096853762242,-7.698276273692423,-9.556159136762803,-11.104864771441997,0.6962806894998135,-12.19789809761918,-5.420604497836547
