Timestamp,O1,Oz,O2,PO3,PO4,TP7,TP8,Fz
0,-5.12E-13,-2.33E-12,-1.48E-12,6.25E-13,-4.97E-14,-1.93E-12,1.82E-12,-1.85E-13
0.004,-126.0096142,-397.32742,-11.78667159,-155.9153497,-157.9857244,13.36357325,-188.5084067,43.77853988
0.008,-220.2225634,-690.4123216,-21.96912547,-271.4815299,-275.1394513,23.25728858,-328.8526224,75.45332101
0.012,-264.1457318,-820.2175366,-29.21686436,-323.4856404,-328.1413276,27.96418443,-393.4283698,88.6529153
0.016,-259.3874965,-795.3937597,-32.71322726,-314.4961695,-319.9254208,28.28736088,-385.5088208,85.3957439
0.02,-224.8087122,-681.2911899,-32.34320881,-268.9920836,-275.5379062,26.8763175,-334.4542698,74.29965717
0.024,-186.0112081,-562.9757799,-28.74611962,-219.6302661,-227.9333867,26.56043528,-279.0824252,65.50414422
0.028,-162.9568811,-503.0033664,-23.2064181,-191.3055206,-201.7098849,28.68796282,-248.5034422,65.25972269
0.032,-162.1807841,-516.4573606,-17.37798763,-191.3960321,-203.4245426,32.46079347,-250.572998,73.22016004
0.036,-176.9847579,-574.3581343,-12.86720098,-210.4619107,-222.7471015,35.63117769,-273.071385,83.7382648
0.04,-194.2059802,-629.3957754,-10.77969963,-231.3765278,-242.1652441,36.04544622,-295.0574393,90.01131952
0.044,-202.828429,-646.4940384,-11.36341402,-240.5584893,-248.5335697,33.0498054,-300.6191472,88.37062345
0.048,-199.4343356,-620.3405734,-13.91980331,-234.7515327,-239.693935,27.8987436,-287.0182502,80.17697246
0.052,-188.2413923,-572.5190362,-17.09380392,-220.5156867,-223.4157722,22.97736349,-263.7823022,70.46941937
0.056,-176.9087124,-533.6980419,-19.46916911,-208.2155182,-210.7628804,20.36984823,-244.9755287,64.53599994
0.06,-171.3105799,-523.6342703,-20.21893154,-204.9659441,-208.7146346,20.67520356,-240.1963165,64.6652382
0.064,-172.4936587,-541.1028635,-19.46730247,-210.8353174,-216.5195204,22.78842505,-249.6644197,69.01749275
0.068,-177.0989378,-567.9692856,-18.13931774,-219.9314186,-227.2917078,24.72849007,-265.4865632,73.12137763
0.072,-180.350137,-582.969668,-17.36654776,-224.9679292,-233.1395591,24.95845031,-277.4548764,72.88540011
0.076,-179.381183,-575.5464316,-17.79373652,-222.0580924,-230.2356534,23.3452232,-279.3368699,67.16548558
0.08,-174.6981241,-550.9228684,-19.20199763,-212.6709316,-220.6317856,21.15023359,-271.7651516,58.30137538
0.084,-169.1741943,-524.4344856,-20.69189969,-201.9440631,-210.1393553,20.07564049,-260.5586054,50.39206263
0.088,-165.6487328,-510.0965677,-21.34583598,-194.9557049,-204.1719052,20.98680609,-252.2702231,46.52886754
0.092,-165.0791839,-511.8526619,-20.98722648,-193.7550769,-204.6182884,23.16731869,-250.3305427,46.81184135
0.096,-166.4890828,-523.0079514,-20.54817772,-196.9964745,-209.649059,24.60837669,-254.1224801,48.37262843
0.1,-168.3000268,-532.6631114,-21.71556847,-201.7814786,-215.9049714,23.16258044,-260.7276277,47.28750218
0.104,-169.740248,-533.6533493,-25.94056465,-205.9188339,-221.0193241,17.88686193,-267.3915925,41.10663346
0.108,-171.1541505,-526.2872858,-33.34871351,-208.8863074,-224.5945921,9.759403865,-272.7589026,30.44100965
0.112,-173.1881986,-516.3455247,-42.23011683,-211.1913143,-227.3623077,1.359276222,-276.472488,18.75156557
0.116,-175.7289577,-509.9072119,-49.51276476,-213.0752203,-229.6421655,-4.300812415,-278.0916614,10.57340758
0.12,-177.4316151,-508.7931449,-52.0653724,-213.6767234,-230.4090538,-5.172224454,-276.459944,9.234233406
0.124,-176.2569022,-509.5728651,-48.17312501,-211.2974351,-227.6814787,-1.049438141,-270.1066512,15.30753398
0.128,-170.6219584,-506.2154007,-38.40210227,-204.4889672,-219.8622724,6.49015845,-258.311153,26.55110619
0.132,-160.503364,-494.4873354,-25.39078855,-193.242984,-207.1114042,14.97724574,-242.0954233,39.22996245
0.136,-147.8038133,-475.1968462,-12.67151152,-179.4724326,-191.7881832,22.24992525,-224.3741266,49.99912774
0.14,-135.6216942,-453.9050833,-3.155797179,-166.3036113,-177.4928153,27.28476135,-208.8769845,57.26173414
0.144,-126.80482,-437.4235896,1.964129508,-156.5448315,-167.2255492,30.3003236,-198.3968108,61.36583766
0.148,-122.6123281,-429.4981852,3.369262058,-151.2824811,-161.8377301,32.19262016,-193.4406981,63.73865297
0.152,-122.3631641,-428.8728262,2.830558634,-149.5992935,-159.8871336,33.75381279,-192.3019637,65.66576893
0.156,-124.2130537,-430.9595248,2.02886511,-149.5501855,-158.9700515,35.18437032,-192.5217348,67.50991397
0.16,-126.3133596,-431.2494132,1.685922865,-149.5017651,-157.4192127,36.11201711,-192.5394468,68.71224371
0.164,-127.5745242,-427.8799138,1.46567337,-148.8615658,-155.1495159,36.01282792,-192.3374868,68.39594759
0.168,-127.6566372,-421.7344902,0.576806005,-147.8207256,-153.1761691,34.70089005,-192.7429522,66.09167638
0.172,-126.5647326,-414.8453769,-1.417532001,-146.6559617,-152.4654116,32.55508747,-194.2320322,62.14971748
0.176,-124.4107639,-408.8440867,-4.149681098,-145.3418864,-153.125993,30.36970707,-196.3171025,57.63914915
0.18,-121.4514414,-404.2237055,-6.636902168,-143.6567677,-154.3813457,28.91594502,-197.8136216,53.80354644
0.184,-118.2455964,-400.5275212,-7.940627117,-141.5529182,-155.1777364,28.49063658,-197.6359268,51.37757917
0.188,-115.5841902,-396.85901,-7.815189634,-139.3347597,-154.8644644,28.73089324,-195.4478519,50.17495954
0.192,-114.2226468,-392.545091,-6.915016807,-137.5617116,-153.586506,28.81352841,-191.8575312,49.21981683
0.196,-114.5840263,-387.7531969,-6.410084841,-136.7900651,-152.2249028,27.94203066,-188.1395263,47.36751182
0.2,-116.4798641,-383.3846731,-7.24564448,-137.1967527,-151.820251,25.8257487,-185.5331738,44.01775569
0.204,-119.0383436,-380.2913197,-9.492686328,-138.3011767,-152.7884588,22.88739249,-184.4736727,39.49678835
0.208,-120.9224693,-378.3026871,-12.20113115,-138.9945268,-154.4178088,20.08233258,-184.2003324,34.90823561
0.212,-120.888619,-376.0969031,-13.86827876,-138.0487253,-155.1133078,18.46368946,-183.148448,31.59866708
0.216,-118.4731596,-372.2218152,-13.26285468,-134.9014454,-153.3406064,18.71465592,-179.9922401,30.55424164
0.22,-114.2776369,-366.1626144,-10.12945153,-130.0933179,-148.5594466,20.83743998,-174.5214749,31.98495007
0.224,-109.6207907,-358.61083,-5.363321741,-125.0020468,-141.5208552,24.13611347,-167.7353973,35.24543777
0.228,-105.8051009,-350.9108946,-0.571972598,-121.0909933,-133.8487365,27.4760571,-161.2100949,39.11805514
0.232,-103.5048897,-344.3262783,2.72094508,-119.2169627,-127.2752423,29.71313247,-156.2637666,42.33483765
0.236,-102.5311004,-339.3329379,3.802189393,-119.2669307,-122.8389112,30.10972398,-153.2718552,44.04058404
0.24,-102.0598357,-335.3482164,3.033235983,-120.305587,-120.4822367,28.56561301,-151.5293208,44.00176518
0.244,-101.2979716,-331.4728381,1.528935761,-121.272913,-119.4039186,25.60407138,-149.906488,42.55323655
0.248,-100.0592974,-327.3340871,0.443724471,-121.6501975,-118.7492297,22.10650125,-147.6851972,40.28718105
0.252,-98.79021427,-323.1736208,0.298312826,-121.5735289,-118.0874692,18.93040336,-144.9291011,37.64545122
0.256,-98.15716639,-319.3968727,0.692167348,-121.4762232,-117.5338225,16.57548468,-142.3046563,34.65088532
0.26,-98.59068314,-316.2107842,0.527909294,-121.6662188,-117.6166698,15.04546959,-140.6359882,30.95272447
0.264,-100.1122291,-313.7977752,-1.360589763,-122.1886904,-119.0468054,13.99799827,-140.5445748,26.19038997
0.268,-102.3769386,-312.425503,-5.495216926,-122.8640203,-122.3110601,13.04077916,-142.1356206,20.4108858
0.272,-104.7554297,-312.0615604,-11.32504439,-123.3162828,-127.1629272,11.9935953,-144.742079,14.25295703
0.276,-106.4605647,-311.933467,-17.32617903,-123.043722,-132.3845279,10.97434116,-146.9837576,8.788444859
0.28,-106.7924543,-310.6606151,-21.63009575,-121.6350118,-136.1436716,10.25636134,-147.3236096,5.095762004
0.284,-105.4765044,-307.1829444,-22.87963767,-119.1081965,-136.898716,10.01983831,-144.972916,3.795675639
0.288,-102.8184922,-301.5471232,-20.87949858,-116.0188972,-134.2176208,10.15360425,-140.4485238,4.73783237
0.292,-99.51863095,-294.7896651,-16.70193585,-113.1559594,-128.9524066,10.24218975,-135.3191316,6.987464415
0.296,-96.29676558,-288.169547,-12.17692453,-111.0470099,-122.734231,9.801289962,-131.3373615,9.187427275
0.3,-93.58634361,-282.4612399,-9.036430027,-109.6620938,-117.1744876,8.621979478,-129.5626265,10.16299511
0.304,-91.50888783,-277.9424575,-8.163708557,-108.5803748,-113.2924154,6.999951963,-130.0710269,9.480981726
0.308,-89.98914722,-274.6212575,-9.320503697,-107.36223,-111.2831176,5.660004592,-132.1597902,7.609568684
0.312,-88.84085186,-272.2299536,-11.45952848,-105.8083339,-110.5939,5.350300315,-134.757724,5.545815294
0.316,-87.8432865,-270.1749574,-13.41983025,-104.03273,-110.3031695,6.343231911,-136.8807001,4.147790824
0.32,-86.86831895,-267.7586569,-14.607663,-102.4170829,-109.6816373,8.17109909,-138.0055431,3.598422804
0.324,-86.06651801,-264.796916,-15.26699322,-101.5396976,-108.6918667,9.812382044,-138.2797601,3.34917987
0.328,-85.8302765,-261.843622,-16.17816243,-101.9121493,-107.9669989,10.24197219,-138.2765246,2.538044944
0.332,-86.45286372,-259.6199133,-18.01302116,-103.5570019,-108.2267383,9.006284821,-138.3627744,0.571640308
0.336,-87.757526,-258.2148293,-20.7775587,-105.7645675,-109.6014859,6.489323403,-138.2040971,-2.470706161
0.34,-89.03739364,-256.841376,-23.72920392,-107.3337634,-111.4286256,3.69370153,-136.8838287,-5.853769301
0.344,-89.46944599,-254.5781212,-25.8472538,-107.3022562,-112.7703776,1.660071946,-133.6809066,-8.608079582
0.348,-88.65222819,-251.2250167,-26.5263611,-105.5899013,-113.1465035,0.862010682,-128.8050032,-10.11488847
0.352,-86.83431511,-247.4023073,-26.01182136,-103.0368691,-112.8546673,0.946953776,-123.4393363,-10.50836164
0.356,-84.71451127,-243.9577886,-25.26420471,-100.8325989,-112.6860168,1.003618603,-119.0810237,-10.60354555
0.36,-82.99394669,-241.2635196,-25.31804761,-99.75152362,-113.2840869,0.185762817,-116.658798,-11.3533916
0.364,-82.00924959,-239.0959548,-26.54310873,-99.74167549,-114.6545056,-1.685907681,-116.09122,-13.14708756
0.368,-81.57801329,-236.8610948,-28.30824117,-99.9999209,-116.0494311,-3.956011711,-116.4162605,-15.45646865
0.372,-81.09052062,-233.7963229,-29.2906081,-99.41647516,-116.2495189,-5.54332955,-116.3085996,-17.10713986
0.376,-79.85941188,-229.2284098,-28.27570028,-97.21085318,-114.1750739,-5.65788087,-114.7558245,-17.00883723
0.38,-77.58023975,-222.9494964,-24.96780004,-93.4608254,-109.5463431,-4.350311329,-111.5835793,-14.86739006
0.384,-74.66595357,-215.6897662,-20.27882051,-89.26405303,-103.2487268,-2.52266482,-107.6003395,-11.40346821
0.388,-72.07924981,-208.9765271,-15.85986068,-86.23302509,-96.98432336,-1.382834752,-104.0997197,-7.958448872
0.392,-70.66843716,-204.1614429,-13.13488222,-85.4890189,-92.28453253,-1.691530349,-101.9122347,-5.752655584
0.396,-70.50578728,-201.3850284,-12.43503146,-86.8355119,-89.54510324,-3.270756811,-100.6960412,-5.242003377
0.4,-70.73553822,-199.3507483,-12.79426524,-88.72181414,-87.78309907,-5.088980333,-99.05581332,-5.932030869
0.404,-70.13194446,-196.3224164,-12.55725514,-89.15279143,-85.38176991,-5.875741082,-95.54647103,-6.719547482
0.408,-67.930275,-191.3944597,-10.41403536,-86.88710073,-81.22543527,-4.885986316,-89.75242358,-6.561244985
0.412,-64.3229469,-184.9870395,-6.221878483,-82.11514618,-75.42536967,-2.342084094,-82.62266742,-5.087361411
0.416,-60.31298629,-178.3967598,-1.111808669,-76.26665667,-69.2416158,0.717410638,-75.89701125,-2.778790026
0.42,-57.06502545,-172.8771671,3.168937028,-71.15238885,-64.34195937,3.086203229,-71.06852035,-0.60448122
0.424,-55.25312533,-169.0807059,5.249621567,-68.05836862,-61.96089667,4.115575076,-68.6549839,0.627038363
0.428,-54.71713781,-166.8842638,4.867263667,-67.19813331,-62.327139,4.0452473,-68.08458995,0.751795176
0.432,-54.58039482,-165.4377631,2.920430343,-67.70940586,-64.57165286,3.735071242,-68.12828577,0.264863496
0.436,-53.80860765,-163.5366791,0.851145726,-68.20379144,-67.1737836,4.004472755,-67.64227528,-0.088308493
0.44,-51.89886571,-160.241246,-0.226753913,-67.5749583,-68.71055314,5.031946415,-66.21358955,0.182934656
0.444,-49.30506586,-155.5894219,-0.103780303,-65.65171523,-68.55117231,6.227718665,-64.39979085,1.0730904
0.448,-47.21024421,-150.662767,0.579501366,-63.20589215,-67.00416894,6.65634662,-63.28572036,2.196949324
0.452,-46.7257812,-146.7650163,0.91549427,-61.29455407,-64.84083684,5.709799457,-63.58719159,3.107337513
0.456,-48.09264307,-144.4154608,0.40181044,-60.46010361,-62.64828227,3.574954143,-64.99021431,3.566323326
0.46,-50.43292844,-142.9406442,-0.743175837,-60.35185234,-60.49822308,1.193852036,-66.26202993,3.611412918
0.464,-52.29444458,-141.1463344,-1.811860806,-60.0773315,-58.19684908,-0.261059364,-66.1624202,3.433567551
0.468,-52.54839629,-138.3090455,-2.17375701,-58.88902288,-55.74354668,-0.078402619,-64.4066112,3.175411976
0.472,-50.98945,-134.5890266,-1.755625971,-56.63548201,-53.51459459,1.570886956,-61.91354169,2.805781977
0.476,-48.31743686,-130.7372864,-1.107727903,-53.73775085,-52.04567419,3.743785648,-60.19386281,2.181343214
0.48,-45.58286242,-127.4405764,-1.019280729,-50.80539624,-51.60908106,5.295905874,-60.31489373,1.252502859
0.484,-43.56828747,-125.0094393,-1.97177599,-48.29760725,-52.01552136,5.551004619,-62.23568056,0.236176224
0.488,-42.42276221,-123.3526531,-3.796709423,-46.37578021,-52.71700491,4.625820299,-64.8268686,-0.441347419
0.492,-41.6880746,-122.0124861,-5.754765535,-44.94128281,-53.08186551,3.229447917,-66.47802842,-0.433494496
0.496,-40.69806895,-120.340117,-6.978058717,-43.82263686,-52.72230934,2.111207945,-65.97681803,0.207299012
0.5,-39.07103762,-117.789747,-6.983115775,-42.96692342,-51.69439059,1.538796559,-63.17711481,0.946541213
0.504,-37.02345811,-114.3672594,-5.928390973,-42.53709567,-50.49699657,1.175400876,-59.13558148,1.054159604
0.508,-35.23288069,-110.7103741,-4.471436,-42.74286667,-49.76544643,0.409137451,-55.52498037,0.074807173
0.512,-34.29712578,-107.5580869,-3.33608705,-43.46953051,-49.77870283,-1.104617218,-53.58653253,-1.834804648
0.516,-34.22027318,-105.0964658,-2.873134129,-44.05240837,-50.1510664,-3.06058404,-53.32350905,-3.914134249
0.52,-34.33814137,-102.7359937,-2.906565156,-43.47767206,-49.98941381,-4.579503662,-53.50419088,-5.173930825
0.524,-33.8212201,-99.68372948,-2.942670462,-41.0257134,-48.50541591,-4.698705783,-52.55869246,-4.904555548
0.528,-32.31472666,-95.66128418,-2.556268912,-36.8399771,-45.58322937,-2.97576641,-49.67295184,-3.042978108
0.532,-30.21994754,-91.0923654,-1.69580693,-31.95956176,-41.86820121,0.162818426,-45.31000731,-0.224488975
0.536,-28.4545436,-86.76669369,-0.725730526,-27.79161926,-38.36276972,3.564990711,-40.8994457,2.509143002
0.54,-27.87120476,-83.31435718,-0.219041485,-25.37032827,-35.85493966,5.920542257,-37.98372695,4.16766007
0.544,-28.76740614,-81.05305148,-0.649725987,-24.91094408,-34.62825953,6.428323734,-37.45658895,4.21788973
0.548,-30.72072639,-80.04039927,-2.157122704,-25.81606934,-34.50481327,5.173165757,-39.2141818,2.728929612
0.552,-32.79570337,-80.05178688,-4.496454366,-27.03886047,-35.07266511,2.996783224,-42.28495848,0.212105134
0.556,-34.00060295,-80.55150665,-7.150603174,-27.59537615,-35.93515865,0.972476563,-45.3395948,-2.670298347
0.56,-33.75692746,-80.76501516,-9.528381745,-26.97979059,-36.85166223,-0.185318029,-47.29382393,-5.34152294
0.564,-32.19752189,-80.07333726,-11.14883221,-25.35176575,-37.78299122,-0.423335897,-47.77241081,-7.376311611
0.568,-30.07109468,-78.33876172,-11.75246114,-23.35576443,-38.78574522,-0.230100321,-47.13043665,-8.485960104
0.572,-28.27608183,-75.83875181,-11.342303,-21.65591954,-39.80691349,-0.22040453,-45.99907258,-8.553910799
0.576,-27.36459359,-73.0054202,-10.17432225,-20.53308876,-40.58186906,-0.697357371,-44.75699005,-7.728923516
0.58,-27.30554825,-70.18830137,-8.707490436,-19.80959972,-40.73884735,-1.464077625,-43.29642528,-6.483939282
0.584,-27.65921445,-67.74536591,-7.493039545,-19.17665908,-40.0954153,-1.962742556,-41.28125971,-5.495325105
0.588,-27.92370055,-66.09755001,-6.97990056,-18.56523172,-38.8239752,-1.632372248,-38.57667019,-5.337709888
0.592,-27.76096896,-65.45652467,-7.303277374,-18.21947004,-37.29357107,-0.265078477,-35.43928696,-6.140380174
0.596,-27.03618075,-65.50384465,-8.180717836,-18.46863698,-35.74995581,1.855456847,-32.38545014,-7.409388893
0.6,-25.76106878,-65.35089948,-9.021561571,-19.40433832,-34.10201336,4.090556252,-29.87985286,-8.1695604
0.604,-24.10036399,-64.10066104,-9.236124838,-20.77793871,-32.07082679,5.77407412,-28.16470925,-7.394196716
0.608,-22.40040589,-61.50662316,-8.578877004,-22.11818815,-29.52793468,6.531515387,-27.23732963,-4.522678045
0.612,-21.14280341,-58.14446591,-7.318420435,-22.93480962,-26.70514693,6.412118967,-26.88562586,0.210696841
0.616,-20.78410223,-55.03671508,-6.095574653,-22.89820291,-24.12609617,5.8028585,-26.76941281,5.863561401
0.62,-21.50071422,-52.95583564,-5.523420146,-21.89868864,-22.28619221,5.205331835,-26.51317113,11.28229629
0.624,-23.03356984,-52.03506158,-5.76926101,-20.06447437,-21.36488856,5.020389974,-25.88092048,15.74989361
0.628,-24.69100181,-51.74215988,-6.382803042,-17.69450718,-21.10705932,5.418871783,-24.87413821,19.36864111
0.632,-25.52313742,-51.08396841,-6.509729347,-15.11916555,-20.9233012,6.314972605,-23.65220208,22.90197548
0.636,-24.69342173,-49.07335048,-5.404308003,-12.6235618,-20.22523237,7.427020607,-22.39496953,27.16239273
0.64,-21.90809188,-45.2537945,-2.958381429,-10.47355116,-18.81872445,8.376483418,-21.20588651,32.31837198
0.644,-17.71202067,-40.16844133,0.103024472,-9.036730035,-17.15417188,8.808798304,-20.16868402,37.5980532
0.648,-13.38437324,-35.28629862,2.51979379,-8.782049117,-16.17394315,8.499089577,-19.41049049,41.58552951
0.652,-10.35816914,-32.19660509,3.170674101,-10.02592089,-16.73189632,7.419234787,-19.02785153,42.95674985
0.656,-9.462308509,-31.60552737,1.757840195,-12.58574805,-18.93643184,5.767730701,-18.94959205,41.2645486
0.66,-10.43319398,-32.77118004,-0.925288955,-15.61023155,-21.86120813,3.92882408,-18.87297538,37.30211898
0.664,-12.06109449,-33.94927721,-3.331797799,-17.84426864,-23.91962072,2.37352321,-18.43036053,32.83050466
0.668,-12.86484404,-33.45004367,-3.947416243,-18.18069676,-23.66478243,1.518849589,-17.42126799,29.77502533
0.672,-11.87680708,-30.53948947,-2.102364648,-16.1675288,-20.5274914,1.581430134,-15.89707783,29.28972303
0.676,-9.126694602,-25.75665697,1.652197746,-12.22491112,-15.1091987,2.50499052,-14.07635729,31.19161028
0.68,-5.570919212,-20.50249729,5.814323974,-7.457006301,-8.88452564,3.981126347,-12.17530018,34.0632269
0.684,-2.567916362,-16.36056857,8.707569483,-3.212022793,-3.557363271,5.565421976,-10.36935583,35.97459015
0.688,-1.152110351,-14.37065775,9.351949116,-0.533288851,-0.331346776,6.830512044,-8.819100356,35.4240595
0.692,-1.489477093,-14.50479431,7.942510667,0.277449889,0.594075952,7.490311825,-7.668557309,31.99784042
0.696,-2.800131924,-15.6677303,5.717930663,-0.230405178,0.063709114,7.473181732,-7.000761435,26.47937203
0.7,-3.772207401,-16.19889322,4.311459794,-0.921515024,-0.455016928,6.923794848,-6.737983192,20.42947924
0.704,-3.303971595,-14.82125671,4.918312913,-0.680266035,0.365782306,6.136525953,-6.64370229,15.5054268
0.708,-1.085620707,-11.34871978,7.737349677,1.025178296,3.062007469,5.456124588,-6.367525233,12.84572035
0.712,2.349078927,-6.631623682,11.96055503,3.954596615,7.196035191,5.149694653,-5.484831197,12.74934756
0.716,6.027343809,-1.936591906,16.24632081,7.297656207,11.64283123,5.29030797,-3.618864411,14.70452053
0.72,9.119535673,1.845138683,19.39020723,10.12912783,15.16937858,5.703345328,-0.61109184,17.67426978
0.724,11.26439347,4.483135511,20.82157817,11.79004259,16.9272845,6.008510124,3.249955651,20.48740479
0.728,12.53417575,6.223907337,20.71111092,12.09396551,16.72069851,5.77335629,7.176362619,22.16793505
0.732,13.17588967,7.47736556,19.71250341,11.35794364,15.03227042,4.723654508,10.16413222,22.121308
0.736,13.3461957,8.54849277,18.55333401,10.25793379,12.80892411,2.91938183,11.47934133,20.20089127
0.74,13.07660424,9.626045778,17.73471596,9.606859086,11.12436054,0.808390568,11.09813492,16.70245761
0.744,12.41548882,10.7719809,17.45112576,10.03820205,10.7511611,-0.898451768,9.731791011,12.30475525
0.748,11.61832023,11.95651996,17.68367919,11.73724511,11.85222266,-1.517768581,8.4350922,7.912748697
0.752,11.22117121,13.19605766,18.33622312,14.3741784,13.97362724,-0.72383447,8.073289377,4.415020231
0.756,11.83218495,14.5769005,19.2714077,17.21592674,16.27845566,1.259596125,8.888575308,2.411107083
0.76,13.7222067,16.17434282,20.22722014,19.37450275,17.9174386,3.704257292,10.40498812,2.017043077
0.764,16.42169949,17.75568288,20.71887301,20.03949023,18.29700441,5.668794373,11.63158256,2.873876094
0.768,18.6917007,18.64244499,20.09226909,18.6975164,17.21241358,6.414916848,11.5274603,4.363029653
0.772,19.04728189,18.03166393,17.78883904,15.34122378,14.88419059,5.738158685,9.563931,5.909073195
0.776,16.59075521,15.54124498,13.70873609,10.5528635,11.87237312,4.039264687,6.063429953,7.217669297
0.78,11.67624634,11.67721394,8.448940834,5.405157242,8.922707308,2.114697674,2.143496791,8.343943694
0.784,5.911884971,7.698000548,3.215858927,1.102266592,6.71528835,0.79776814,-0.799159775,9.58264523
0.788,1.454259369,4.991272784,-0.62546984,-1.472315443,5.632233192,0.619003889,-1.759446747,11.22958508
0.792,-0.023350925,4.417882252,-2.165785911,-2.050853514,5.673550255,1.645004856,-0.551787337,13.35364283
0.796,1.814481092,5.890145545,-1.427740467,-1.031597579,6.490982472,3.543181004,2.149306744,15.69111516
0.8,5.77038766,8.458864338,0.563159826,0.741661955,7.516242846,5.777884164,5.148121165,17.69958065
0.804,9.65486139,10.68263691,2.196214467,2.294913189,8.079964329,7.822024008,7.18735636,18.7658484
0.808,11.31922287,11.20707715,2.004547429,2.846362716,7.565821905,9.27719674,7.373234975,18.45414482
0.812,9.682421343,9.407171337,-0.637525889,2.068960172,5.641563731,9.891321043,5.476262418,16.67962556
0.816,5.215705977,5.719835601,-5.187549687,0.183547973,2.472449417,9.535856475,2.009702724,13.76182536
0.82,-0.316671702,1.557677319,-10.14601136,-2.113921741,-1.184740153,8.218186187,-1.908862712,10.35565177
0.824,-4.753657667,-1.35825021,-13.71221226,-3.944204776,-4.190988441,6.164373937,-4.975811539,7.309181072
0.828,-6.54378822,-1.822017725,-14.56766465,-4.599160425,-5.476676568,3.875074009,-6.20218344,5.459062352
0.832,-5.306551848,0.404802482,-12.41343653,-3.76527343,-4.507134073,2.055137522,-5.244169873,5.389189269
0.836,-1.781967612,4.602604748,-8.049073812,-1.594575821,-1.574100649,1.376321195,-2.498258553,7.199080448
0.84,2.710382601,9.562795255,-2.99054987,1.398451535,2.278220824,2.148375629,1.106419325,10.36552531
0.844,6.900867918,14.06710691,1.185398738,4.508441303,5.638060504,4.109520028,4.458249947,13.83459619
0.848,9.980885915,17.23616823,3.458578935,7.04594634,7.302946913,6.46911164,6.645021741,16.35849553
0.852,11.70026618,18.75907886,3.689661572,8.567741744,6.829314281,8.234345735,7.277446538,16.97488711
0.856,12.19870876,18.89078454,2.543494978,9.028188818,4.751222106,8.689359091,6.58779252,15.42648154
0.86,11.79820609,18.33210997,1.083156348,8.804597044,2.359752365,7.761934635,5.279111355,12.29703445
0.864,10.81724633,17.83471524,0.226175306,8.479578865,1.044391315,6.066439971,4.109752364,8.776163572
0.868,9.478918865,17.76998861,0.310140393,8.496689602,1.547789734,4.564395507,3.449758398,6.119960361
0.872,7.934929519,17.98850258,0.97537494,8.918101525,3.576729076,4.024829714,3.114871528,5.061844126
0.876,6.319511339,17.97295308,1.421112386,9.41284467,5.968909227,4.594410207,2.555466486,5.494365248
0.88,4.813590932,17.29464804,0.909495305,9.526797991,7.362260573,5.728849311,1.32341866,6.602153559
0.884,3.635276409,15.94213905,-0.739069043,9.02539561,6.93593436,6.547159083,-0.539084466,7.400382191
0.888,3.016412469,14.41422278,-2.918748786,8.13373881,4.8474991,6.38574097,-2.407590634,7.355516245
0.892,3.229733652,13.62390054,-4.414540119,7.556796986,2.188655455,5.226824658,-3.312326157,6.714695977
0.896,4.557459472,14.52473097,-3.951870909,8.182560424,0.453098331,3.740733491,-2.424568768,6.339133025
0.9,7.179522129,17.69492141,-0.870032086,10.6254006,0.829642038,2.904774341,0.49365948,7.120360819
0.904,10.95357585,22.89446275,4.434463489,14.78234055,3.623337417,3.424991583,4.843374606,9.352127128
0.908,15.2454054,28.91900558,10.55533508,19.69931516,8.122052011,5.305538868,9.332130535,12.44464409
0.912,19.00691219,34.00356863,15.63703629,23.91177689,12.99518156,7.809775646,12.51566518,15.16566262
0.916,21.12755971,36.56276732,18.19409947,26.0963112,16.96234502,9.839528822,13.43952345,16.27810129
0.92,20.97940436,36.02848293,17.79566691,25.75230488,19.41511846,10.51348211,12.12024187,15.21009304
0.924,18.79833462,33.14098757,15.24631745,23.4668724,20.60805421,9.624247977,9.548259381,12.38497732
0.928,15.6522465,29.54481422,12.1464612,20.61110971,21.35864015,7.724396985,7.219619212,9.005486215
0.932,12.99935868,26.99345125,10.07479851,18.67111557,22.50877458,5.819816874,6.491175893,6.431795486
0.936,12.01299892,26.51203274,9.835510913,18.54596882,24.45281026,4.874142236,8.048458251,5.530707302
0.94,13.05627589,28.05127438,11.1573137,20.20227792,27.00287356,5.371592433,11.73815671,6.334588852
0.944,15.53975016,30.60438581,12.96917965,22.76691522,29.53470728,7.155737338,16.69655812,8.17282766
0.948,18.2486496,32.73468155,14.0465891,24.97335906,31.28854586,9.572591118,21.66830969,10.11544463
0.952,19.96893968,33.29324846,13.62054216,25.722232,31.65676548,11.76316239,25.37697228,11.39295625
0.956,20.03417723,31.86965292,11.6012591,24.43930795,30.29832128,12.94169599,26.78637137,11.55211299
0.96,18.50167845,28.85292701,8.328172366,21.11916297,27.10908246,12.54019035,25.2640629,10.31278523
0.964,15.84522281,24.94896827,4.074908456,16.05859461,22.07639205,10.23991444,20.5824102,7.35078571
0.968,12.44254948,20.56342726,-1.285362981,9.548011217,15.20987824,5.97623012,12.89831214,2.284719839
0.972,8.292191797,15.59485422,-8.147107352,1.812566276,6.691020829,0.006164593,2.837183348,-5.017321463
0.976,3.159014113,9.726859333,-16.61547933,-6.777954818,-2.863534686,-6.975715079,-8.405247979,-13.97369164
0.98,-2.893902718,3.147804725,-25.8866774,-15.35572429,-12.17603005,-13.79856233,-19.02175382,-23.01837328
0.984,-9.04121404,-3.003974306,-34.04929898,-22.44697023,-19.42009598,-18.96772151,-26.8431734,-29.81162614
0.988,-13.67202021,-6.826005533,-38.57463474,-26.27521969,-22.71430879,-21.03613745,-29.89273897,-31.97600288
0.992,-14.9351969,-6.40568184,-37.36350438,-25.38287166,-20.81160202,-19.10670439,-27.03847523,-28.07878053
0.996,-11.64371412,-0.846702584,-29.83369976,-19.30779344,-13.69737787,-13.23484502,-18.49152177,-18.36640555
1,-3.994024083,9.131515685,-17.43742329,-8.905459175,-2.743681648,-4.533226081,-5.847929757,-4.844694996
1.004,6.275904199,21.22739442,-3.269872336,3.798590591,9.620120421,5.106880928,8.302641979,9.410313218
1.008,16.45213083,32.31940097,9.105870566,16.21024502,20.64431732,13.60813503,21.11781017,21.41301632
1.012,23.92995821,39.72614011,17.07321998,26.01513285,28.16372323,19.38674361,30.36418432,29.34505622
1.016,27.25055968,42.27198105,19.91354055,31.87795143,31.26854038,21.83298026,35.03708334,33.04215792
1.02,26.61027885,40.74710039,18.84002094,33.76097855,30.51725006,21.40340297,35.55048368,33.69196355
1.024,23.55477161,37.36096086,16.14282726,32.70255378,27.53526295,19.32030318,33.36014543,32.98560969
1.028,20.08446926,34.51394132,13.94256883,30.21615429,24.20653562,17.02246369,30.23003683,32.20249444
1.032,17.70870375,33.63460837,13.2259851,27.64440344,21.87476252,15.58958439,27.51799894,31.69217717
1.036,16.88752407,34.59984217,13.61719912,25.70574851,20.88216478,15.37203497,25.75592886,30.95902695
1.04,17.14993063,36.14730126,13.94046199,24.45064731,20.7043744,15.9731453,24.74399866,29.22684227
1.044,17.66536201,36.80934979,13.17372598,23.50664048,20.51312287,16.5647501,23.95298604,26.13683609
1.048,17.84527686,35.79576824,11.19484475,22.43084559,19.82681041,16.36308869,22.97273645,22.15332369
1.052,17.65377094,33.42505428,8.905920356,21.02529721,18.91612938,15.05108061,21.79548917,18.45635769
1.056,17.48343058,30.84661468,7.691160612,19.45635435,18.70955334,12.94917222,20.77167948,16.39351497
1.06,17.79773823,29.40443806,8.565892589,18.20164805,20.28633835,10.84719448,20.36185689,16.78022538
1.064,18.75365332,29.85713356,11.51841093,17.79562879,24.15499099,9.594531562,20.77278258,19.43345915
1.068,20.0698813,31.91704845,15.43400818,18.51834415,29.74808468,9.665876877,21.72409596,23.19830045
1.072,21.23469055,34.43313192,18.64838263,20.21727852,35.48790233,10.9162688,22.53555855,26.45021831
1.076,21.84349915,36.01457362,19.80643223,22.33117347,39.42058148,12.64089677,22.46379731,27.81888694
1.08,21.86187537,35.85257716,18.5313853,24.15197887,40.15983175,13.89801997,21.15739082,26.7617056
1.084,21.57804089,34.09703297,15.53149736,25.12356152,37.56444476,13.93759247,18.88333284,23.73199172
1.088,21.28045197,31.60949645,12.11226335,25.02345746,32.77363433,12.51761844,16.40565691,19.87730104
1.092,20.92006282,29.34725838,9.389441079,23.96394411,27.580629,9.950321417,14.59756091,16.4274677
1.096,20.0124473,27.72729977,7.6789925,22.2242734,23.47698555,6.904351922,13.97831199,14.10203761
1.1,17.95152391,26.51530218,6.428779923,20.09751963,20.97250341,4.082151545,14.51263012,12.83996612
1.104,14.51229534,25.11765273,4.703391217,17.79151697,19.49979445,1.954484839,15.6879172,11.98372904
1.108,10.21095909,23.06960481,1.915378572,15.4329182,17.94636185,0.672182498,16.8143816,10.78835916
1.112,6.285392619,20.46853972,-1.65242903,13.17735366,15.50671103,0.148693212,17.39397954,8.956050184
1.116,4.179593164,17.98086345,-4.888223065,11.27406061,12.28096475,0.212420151,17.32101791,6.87259588
1.12,4.833262419,16.56929966,-6.438684736,10.05773406,9.315457837,0.708106924,16.90796245,5.395340969
1.124,8.103992395,16.92743222,-5.517231487,9.764579137,7.983097127,1.503013516,16.65075255,5.325530985
1.128,12.65974303,18.94817093,-2.459547515,10.27391673,9.065326034,2.430933218,16.87563202,6.868895499
1.132,16.4960333,21.65120135,1.335008546,11.00350934,12.15018958,3.257197783,17.52079914,9.411184211
1.136,17.84935063,23.58280401,4.075723061,11.07272039,15.72534349,3.729376707,18.13923552,11.76116755
1.14,16.08715503,23.63568662,4.507935244,9.761653131,18.00257371,3.688788111,18.18718404,12.73716924
1.144,12.04418041,21.66870908,2.5778313,6.958321645,17.93653602,3.168928134,17.33918739,11.79549543
1.148,7.598525418,18.54351704,-0.56279116,3.302110216,15.80840006,2.392255634,15.6327829,9.332441821
1.152,4.703493065,15.62574822,-3.217460587,-0.079447641,13.03452936,1.642201665,13.40662274,6.476223705
1.156,4.384768684,13.98986144,-4.090266869,-2.138764184,11.29643446,1.100332916,11.06825263,4.485513055
1.16,6.286973908,13.93150531,-2.979578719,-2.417945769,11.5639428,0.749866534,8.917948182,4.066666212
1.164,8.952415694,14.906809,-0.825844641,-1.257451585,13.53787933,0.432335574,7.07178001,5.013472554
1.168,10.65929233,15.89353361,0.892530329,0.423664978,15.83631916,0.021446941,5.500799554,6.359713033
1.172,10.37423199,16.01445422,1.041029381,1.675148891,16.82413838,-0.41740503,4.1580123,6.946955127
1.176,8.260891405,14.98707308,-0.530051959,2.041332434,15.56496418,-0.597309042,3.063810964,6.084889268
1.18,5.531181719,13.30686977,-2.943357655,1.804786464,12.39326514,-0.172211702,2.351180091,3.922662736
1.184,3.743611255,11.948634,-4.830054024,1.776875548,8.745187192,1.031831274,2.186938717,1.367838784
1.188,3.924627546,11.74356635,-5.126835151,2.735714884,6.33639087,2.843128513,2.59557672,-0.398218725
1.192,6.05272166,12.88605623,-3.653236684,4.891301127,6.213286447,4.754836262,3.342175785,-0.531489048
1.196,9.160920317,14.81553657,-1.128361215,7.707321272,8.225171376,6.161520182,3.961811408,1.087645453
1.2,11.97375938,16.65329341,1.316202801,10.21775628,11.22333494,6.658696515,3.991247178,3.845594248
1.204,13.60980358,17.74401013,2.785401192,11.57318942,13.75126858,6.248484676,3.201144307,6.741293247
1.208,13.91900776,17.94099467,3.030852962,11.467935,14.79010866,5.316124593,1.670285557,8.867209253
1.212,13.31075197,17.54281242,2.413132874,10.22544387,14.16790895,4.389980575,-0.309604658,9.767455738
1.216,12.25814922,16.91697999,1.507773041,8.51873922,12.44858382,3.846995693,-2.448559724,9.515614632
1.22,10.90683407,16.23973964,0.64979652,6.990861412,10.49745973,3.716503266,-4.584327927,8.502518342
1.224,9.0433699,15.39955702,-0.266381581,5.97502539,8.976937424,3.70978062,-6.710141693,7.124044914
1.228,6.405507511,14.09925803,-1.615872751,5.448097704,8.054759584,3.439950285,-8.881391135,5.571033404
1.232,3.116566855,12.14017717,-3.648916326,5.2137148,7.459326504,2.677982161,-11.03621147,3.828428099
1.236,-0.121604545,9.619142417,-6.163598402,5.116701688,6.751142676,1.499634248,-12.87494628,1.85114991
1.24,-2.250190779,7.040151185,-8.493364295,5.166051383,5.655170886,0.229885894,-13.83006932,-0.249801215
1.244,-2.456377987,5.098819304,-9.845455771,5.427521864,4.191236394,-0.771950757,-13.26481757,-2.148652636
1.248,-0.785002065,4.250453855,-9.777446712,5.790456583,2.56258364,-1.339047082,-10.82925485,-3.428732619
1.252,1.703815464,4.420582933,-8.489559359,5.862438678,0.972678031,-1.592876261,-6.742463189,-3.819061922
1.256,3.373207288,4.979402847,-6.741572142,5.096464671,-0.496906857,-1.857438061,-1.855493691,-3.396546051
1.26,2.88478009,5.172192919,-5.43187004,3.153809992,-1.80601676,-2.464583965,2.661236237,-2.638115558
1.264,-0.027748674,4.59967394,-5.092239255,0.209632596,-2.814060229,-3.566827397,5.811493795,-2.25066222
1.268,-4.386729678,3.413051321,-5.607318154,-3.048412064,-3.235830026,-5.05536797,7.186531478,-2.852624005
1.272,-8.479890058,2.194792826,-6.304097545,-5.740592,-2.739729817,-6.615668565,7.122984543,-4.662074134
1.276,-10.77784632,1.558557078,-6.339491868,-7.266314885,-1.164068945,-7.857668429,6.504072172,-7.34716888
1.28,-10.69076008,1.879609716,-5.163434847,-7.584494369,1.343652971,-8.462190371,6.35567069,-10.16005412
1.284,-8.781015879,3.15693855,-2.815669653,-7.177289438,4.301744896,-8.281869472,7.359492428,-12.28506771
1.288,-6.327870059,5.050706108,0.097291023,-6.708647898,7.022677156,-7.358844182,9.522264535,-13.21909854
1.292,-4.538015828,7.087990194,2.691235613,-6.584294609,8.854706967,-5.894489218,12.17995883,-12.99885296
1.296,-3.914739474,8.815150131,4.177160027,-6.730868682,9.389408212,-4.209894558,14.30383352,-12.15527975
1.3,-4.103805526,9.975374521,4.132428043,-6.685387973,8.597991484,-2.708766369,15.02054634,-11.44216215
1.304,-4.282303723,10.52663844,2.598840739,-5.966629461,6.822262121,-1.789418804,14.03604416,-11.44060643
1.308,-3.817326713,10.50470032,0.002296959,-4.507079972,4.618650693,-1.718305123,11.73337692,-12.25801594
1.312,-2.730724442,9.93065447,-3.029635439,-2.826447676,2.563236135,-2.511632857,8.939099492,-13.48615194
1.316,-1.682387154,8.786422183,-5.85154075,-1.82196251,1.090333553,-3.881784948,6.477047906,-14.4324791
1.32,-1.430935009,7.241921532,-7.923760584,-2.212685152,0.479371731,-5.305753687,4.852620828,-14.51570411
1.324,-2.223474136,5.780792125,-8.894351082,-4.053345061,0.874695244,-6.226628017,4.143065806,-13.6013975
1.328,-3.550264097,5.051146448,-8.646234216,-6.636551708,2.274089474,-6.29884675,4.092578335,-12.0860819
1.332,-4.417239705,5.549991223,-7.309382071,-8.844535271,4.499423475,-5.564429156,4.350506962,-10.69418641
1.336,-3.979277464,7.263275566,-5.212028636,-9.767535216,7.170185483,-4.450342183,4.663583104,-10.09256763
1.34,-2.093373645,9.653992061,-2.777237887,-9.169609318,9.789264101,-3.574336519,4.994996638,-10.55485605
1.344,0.523098576,11.89139266,-0.415700757,-7.582433385,11.86418555,-3.440713584,5.452356462,-11.85210342
1.348,2.631413169,13.17504307,1.539539643,-5.989541041,13.00446371,-4.17621082,6.085222874,-13.42192842
1.352,3.130903238,13.05245904,2.837466879,-5.276397488,12.9901689,-5.455003001,6.731469904,-14.71216293
1.356,1.640220769,11.51048784,3.284522751,-5.775192476,11.78965352,-6.65321512,7.014341538,-15.48550715
1.36,-1.287321864,8.978501348,2.738937926,-7.096248038,9.596861151,-7.166611368,6.574514126,-15.93575594
1.364,-4.445710547,6.139284173,1.179311066,-8.360791702,6.834257732,-6.712352032,5.339744931,-16.52907712
1.368,-6.563525729,3.64921652,-1.165597946,-8.667650851,4.105691062,-5.445155906,3.667376208,-17.65737375
1.372,-6.864582323,1.955863827,-3.749821145,-7.523762066,2.076828477,-3.857809842,2.254828915,-19.3383235
1.376,-5.302453806,1.2250868,-5.789431576,-5.014307082,1.272318244,-2.50761236,1.830296939,-21.12891472
1.38,-2.363180376,1.524753395,-6.510187764,-1.604102833,1.916911639,-1.726249262,2.858956491,-22.32241012
1.384,1.29065544,2.924082874,-5.49638939,2.182089203,3.811054527,-1.490880118,5.334586636,-22.31433639
1.388,5.102757661,5.38898629,-2.939595067,5.978872119,6.33299754,-1.492403613,8.755874111,-20.91172219
1.392,8.708094528,8.622093129,0.386011536,9.595623503,8.637696318,-1.358121245,12.32388074,-18.4218887
1.396,11.82847267,11.93490597,3.451075317,12.85492231,9.987946162,-0.880716246,15.2362989,-15.47259539
1.4,14.20667089,14.49086713,5.464912193,15.49114747,10.14963987,-0.121037398,17.02713893,-12.68943502
1.404,15.65559254,15.70827975,6.271196557,17.17369648,9.574143733,0.662478738,17.71684095,-10.40687399
1.408,16.16020982,15.53684424,6.394580904,17.64092384,9.194453519,1.2032263,17.68528917,-8.582200327
1.412,15.95471671,14.50092949,6.695953852,16.8846517,9.926402734,1.400122864,17.37203687,-6.940849254
1.416,15.42418515,13.37425146,7.823678588,15.21012276,12.09475533,1.364698881,16.95907647,-5.241468529
1.42,14.90035582,12.82147036,9.78524295,13.17488193,15.17638236,1.325483306,16.29526646,-3.497706479
1.424,14.42961527,13.07332579,11.9018795,11.37475099,17.98161245,1.456560891,15.04039233,-1.997477244
1.428,13.67416669,13.77220633,13.17003258,10.16790698,19.18301841,1.748977007,12.92687269,-1.118742517
1.432,12.09364731,14.16917715,12.81862789,9.529874343,17.96137338,2.016870707,10.01263476,-1.070866887
1.436,9.316458674,13.50456634,10.73586108,9.105906922,14.39997901,2.03575089,6.742572591,-1.724971476
1.44,5.533129113,11.5289874,7.524498203,8.490409062,9.480870271,1.714723666,3.864641828,-2.664568443
1.444,1.595088842,8.723089997,4.165442782,7.515072419,4.630960414,1.193956509,2.14562214,-3.414037034
1.448,-1.316083056,6.036677538,1.504129288,6.351629764,1.045331341,0.801967103,2.012754505,-3.695135255
1.452,-2.27187276,4.384569823,-0.118113651,5.401080805,-0.819027446,0.877756486,3.341096591,-3.549715322
1.456,-1.110579171,4.134935855,-0.886943607,5.030761081,-1.342845632,1.574304924,5.484206108,-3.259610337
1.46,1.473036377,5.035985959,-1.22943763,5.376175005,-1.363188473,2.744653217,7.602735421,-3.14700655
1.464,4.301364123,6.46385876,-1.438103573,6.272610119,-1.609756773,3.988169232,9.05568725,-3.370346529
1.468,6.329808764,7.761654301,-1.472459077,7.331048844,-2.320197241,4.844574417,9.635359515,-3.849511223
1.472,7.150255327,8.516724731,-1.067890568,8.11357186,-3.224854749,5.012765498,9.570668098,-4.360699776
1.476,7.08005992,8.578132203,-0.037591079,8.293589574,-3.870529245,4.481093741,9.289737603,-4.708266253
1.48,6.852752521,8.023591599,1.465935962,7.784078075,-3.981862891,3.499964031,9.173058472,-4.873786135
1.484,7.068383427,7.016640854,2.924124337,6.728741103,-3.674958802,2.424434282,9.370894349,-5.02797477
1.488,7.76516162,5.65346251,3.710399139,5.385782984,-3.393063987,1.528794835,9.746578891,-5.393969928
1.492,8.391994218,3.960528739,3.46001238,3.996766661,-3.603601447,0.896705231,9.985189753,-6.065246153
1.496,8.151859957,1.942932679,2.299853416,2.683730681,-4.492884194,0.435976043,9.766477288,-6.891910936
1.5,6.563260448,-0.21466116,0.785683947,1.485324475,-5.792908019,-0.004494298,8.982927379,-7.533932324
1.504,3.836171612,-2.098728972,-0.424552527,0.433507889,-6.894152186,-0.495816968,7.827375818,-7.630408833
1.508,0.801690203,-3.271072386,-0.944308675,-0.406086268,-7.18617449,-0.944101294,6.705075909,-6.96707899
1.512,-1.531925985,-3.531902038,-0.844738614,-0.935444995,-6.397494311,-1.129435215,6.053210511,-5.555905413
1.516,-2.538509092,-3.128350887,-0.548116015,-1.089609935,-4.759690297,-0.838600888,6.135283249,-3.599183447
1.52,-2.269538055,-2.588298032,-0.506650027,-0.859006798,-2.854182075,-0.01657803,6.973465502,-1.40586064
1.524,-1.360561302,-2.406704132,-0.89681718,-0.305948683,-1.305760343,1.150703037,8.368754271,0.686793047
1.528,-0.631116674,-2.821986937,-1.531284587,0.414531093,-0.518945416,2.28198405,9.946770452,2.349521316
1.532,-0.624766449,-3.739896172,-2.030877447,1.070861536,-0.561841215,2.953474402,11.2529316,3.271924137
1.536,-1.363675336,-4.897618565,-2.117723101,1.399811329,-1.240419304,2.894950545,11.85905044,3.206797153
1.54,-2.353578272,-5.959933797,-1.806988502,1.25806223,-2.195013452,2.138457585,11.5536055,2.060492333
1.544,-2.867802616,-6.613957214,-1.371868813,0.743183399,-3.010447314,1.027727919,10.47155854,0.001035649
1.548,-2.340403165,-6.673781904,-1.112199836,0.191265145,-3.320780863,0.075470899,9.06315476,-2.490744253
1.552,-0.640623875,-6.098853061,-1.117434462,0.043235397,-2.893417137,-0.286478942,7.9074088,-4.73413433
1.556,1.861730269,-5.027738914,-1.206575604,0.59644691,-1.735062767,0.059015674,7.4057117,-6.106792902
1.56,4.478240019,-3.670908621,-1.099747788,1.825661101,-0.127294623,0.812935462,7.579536086,-6.351231096
1.564,6.48354927,-2.241899259,-0.688000457,3.345229779,1.417090016,1.36356306,8.0427257,-5.723641874
1.568,7.358499071,-0.981519643,-0.18441987,4.551208593,2.304394092,1.085522648,8.183443922,-4.855752608
1.572,6.927303225,-0.137415735,-0.029313285,4.920148768,2.114248226,-0.305909204,7.494185507,-4.392736161
1.576,5.360003931,0.070327775,-0.587607878,4.298190431,0.826484256,-2.53907349,5.848824533,-4.604581006
1.58,3.138983663,-0.325008714,-1.82551843,3.083818668,-1.045823177,-4.839807185,3.648354814,-5.226578557
1.584,0.935148222,-0.916177962,-3.204523735,2.11805599,-2.597166867,-6.257581634,1.660181816,-5.628121195
1.588,-0.60172005,-1.087100444,-3.907780061,2.280329838,-2.952360721,-6.106841683,0.592836861,-5.216655234
1.592,-1.068776246,-0.338975015,-3.300430892,4.00136321,-1.754421694,-4.32114609,0.662717678,-3.857468206
1.596,-0.492249762,1.327724244,-1.346115101,6.943501081,0.546072288,-1.530936004,1.396910767,-2.038101165
1.6,0.696850115,3.398886999,1.294553991,10.11989045,2.876287178,1.19978931,1.895303211,-0.666519634
1.604,1.864245611,5.10574507,3.55840053,12.36048689,4.080081758,2.861458487,1.350681436,-0.590594481
1.608,2.452212119,5.771064667,4.517165426,12.86612183,3.509982,2.972618811,-0.505883765,-2.112101335
1.612,2.227862993,5.150725769,3.857896294,11.58112118,1.37931748,1.792355851,-3.255962758,-4.786852479
1.616,1.361667292,3.514715726,2.031699403,9.169806041,-1.35559858,0.16688257,-6.060136686,-7.624257724
1.62,0.358293185,1.593450116,-0.001294384,6.687330492,-3.460718371,-0.912662619,-8.100031337,-9.588127489
1.624,-0.194059107,0.271612137,-1.279192511,5.068229347,-4.029688384,-0.812333287,-8.976895831,-10.09242439
1.628,0.073412667,0.131392245,-1.303012682,4.691084232,-2.912092032,0.455218818,-8.848645567,-9.215377362
1.632,1.133306045,1.166644099,-0.224808395,5.261160408,-0.718869185,2.273627847,-8.222543836,-7.559593007
1.636,2.565895554,2.746846829,1.31129514,6.015961094,1.544012817,3.757006908,-7.604841859,-5.871951542
1.64,3.793851218,4.021763066,2.564462048,6.185676372,3.055337692,4.200232412,-7.164229332,-4.680404105
1.644,4.362006272,4.398937574,3.075099553,5.392073328,3.576085467,3.394019124,-6.697847556,-4.133698248
1.648,4.114179169,3.778872651,2.841762668,3.780976862,3.443263762,1.686547534,-5.93254807,-4.072970556
1.652,3.228054468,2.54777441,2.247820818,1.894129983,3.245344491,-0.215848434,-4.871843646,-4.23289885
1.656,2.098893623,1.332469011,1.819716328,0.376177899,3.406007894,-1.604542265,-3.929039331,-4.415518905
1.66,1.152022326,0.698439577,1.972585604,-0.305815482,3.953109303,-2.086346218,-3.701743889,-4.53784822
1.664,0.654236869,0.870792161,2.843236546,-0.042499229,4.540597178,-1.731043326,-4.56627408,-4.571936001
1.668,0.618536236,1.667008124,4.255221203,0.918162871,4.705733197,-1.002413269,-6.333554427,-4.507203704
1.672,0.802606284,2.613562528,5.782164016,2.084232605,4.149740211,-0.527846953,-8.260972402,-4.394072569
1.676,0.74415992,3.026750701,6.851698113,2.825352404,2.801106439,-0.815334139,-9.539791439,-4.437515633
1.68,-0.063776076,2.250989442,6.897185291,2.56079744,0.759492323,-2.028692522,-9.856164887,-5.03999645
1.684,-1.899587522,-0.001954058,5.551943147,1.002308047,-1.780270679,-3.899003934,-9.644817849,-6.665332309
1.688,-4.576874401,-3.420695443,2.845990986,-1.639846379,-4.537740901,-5.796315055,-9.841505528,-9.536120243
1.692,-7.376751166,-7.080018612,-0.692369788,-4.606686703,-7.087389947,-6.948894548,-11.24234587,-13.33043708
1.696,-9.288463368,-9.838239344,-4.127637173,-6.843682596,-8.885693963,-6.741428145,-13.92026317,-17.10083168
1.7,-9.434532166,-10.80953376,-6.416022211,-7.419282737,-9.378132304,-4.98499868,-16.99928276,-19.5716453
1.704,-7.515904282,-9.712493771,-6.830985631,-5.963580022,-8.219787826,-2.05911882,-18.99539259,-19.71515275
1.708,-4.073886894,-7.008633327,-5.31986928,-2.929688928,-5.531462312,1.174195401,-18.59536456,-17.31790836
1.712,-0.376506625,-3.722559234,-2.595073501,0.498875549,-2.014586853,3.663360802,-15.4347645,-13.20609739
1.716,2.052219906,-1.118984864,0.144259074,2.838575407,1.182310036,4.588281005,-10.44709549,-8.913811478
1.72,2.133034454,-0.176506093,1.76553329,2.982323467,2.934151426,3.722156968,-5.450509885,-5.952379341
1.724,-0.174344653,-1.091540297,1.758688276,0.786507244,2.716717884,1.552661295,-2.202245276,-5.059177674
1.728,-3.763434179,-3.163754482,0.479295427,-2.790594059,0.932789811,-0.924101418,-1.478324989,-5.856119697
1.732,-6.858135888,-5.117071519,-1.072919003,-6.111081836,-1.243636805,-2.66368297,-2.706580272,-7.120093707
1.736,-7.895839884,-5.831222168,-1.827208564,-7.683901169,-2.511237658,-3.040739868,-4.425081308,-7.49162633
1.74,-6.313562766,-4.924790525,-1.241313165,-6.895219676,-2.152140502,-2.102288655,-5.180497091,-6.243950705
1.744,-2.802802939,-2.864712335,0.41025238,-4.249990774,-0.41115867,-0.474029818,-4.332832502,-3.674267255
1.748,1.097511473,-0.621305353,2.231480939,-1.003669689,1.676911312,1.045462331,-2.312156795,-0.901148197
1.752,3.875669057,0.963956181,3.270864116,1.609812887,2.929626131,1.965116672,-0.196464213,0.80013878
1.756,4.839593052,1.57196867,3.101341655,3.038391183,2.682096526,2.371413356,1.009956782,0.728286128
1.76,4.426559597,1.502266518,2.076227385,3.65096231,1.161920124,2.827799396,1.007647898,-0.885338425
1.764,3.879802757,1.460289447,1.118542058,4.431032943,-0.646891382,3.953409687,0.36271238,-3.052962502
1.768,4.470322255,2.116912877,1.194807868,6.312992721,-1.55352741,5.9645588,0.118639136,-4.581524477
1.772,6.718703595,3.740279871,2.783801931,9.567192308,-0.783362401,8.450586212,1.147896081,-4.649306734
1.776,10.04959841,5.996149717,5.6548516,13.56219723,1.635411639,10.54946381,3.616543,-3.063393934
1.78,13.11578071,8.17908878,9.060757249,17.10216235,4.987286666,11.43369877,6.960441204,-0.150269143
1.784,14.58989221,9.693378246,12.16113504,19.09797688,8.322800224,10.80004014,10.29221901,3.540025947
1.788,13.89321803,10.36311577,14.37005282,19.11735176,10.88739547,9.055209073,12.87658886,7.436824417
1.792,11.43163552,10.40675208,15.40929988,17.48560167,12.26251736,7.062901051,14.33703202,10.91764163
1.796,8.180232589,9.977118809,15.07832291,14.85218268,12.13142177,5.5919499,14.40503129,13.14781093
1.8,4.97079353,8.786957756,13.00170832,11.62526713,10.013616,4.801879177,12.56388694,13.0231445
1.804,1.958826667,6.145902825,8.634675952,7.677263494,5.27513598,4.086204326,7.962968427,9.445334667
1.808,-1.379215049,1.410258829,1.642855492,2.554118651,-2.468055175,2.417654378,-0.172507365,1.921318339
1.812,-5.701643859,-5.351131347,-7.537376364,-3.915251427,-12.73868604,-0.979971656,-11.76012895,-8.818688397
1.816,-11.11914851,-13.04988735,-17.36579482,-11.08648878,-23.86931708,-6.0246024,-25.27039629,-20.60762482
1.82,-16.80107136,-19.75348319,-25.43246447,-17.39754777,-33.23843471,-11.61836645,-37.75417979,-30.34736183
1.824,-21.1859955,-23.35020049,-29.29428002,-20.88243692,-38.11938077,-16.07089767,-45.69399668,-35.11894729
1.828,-22.7405813,-22.47864181,-27.54994332,-20.0963622,-36.79828951,-17.88616886,-46.41676203,-33.40202056
1.832,-20.78817547,-17.17633556,-20.57847401,-14.91640149,-29.37295689,-16.47911094,-39.36012811,-25.77714695
1.836,-15.93799484,-8.996502841,-10.48777952,-6.781580199,-17.82393423,-12.42862889,-26.53966295,-14.68879833
1.84,-9.776600944,-0.326815069,-0.221360597,1.89586153,-5.191034496,-7.140037254,-11.79091232,-3.372965545
1.844,-3.994269857,6.741195793,7.729628205,8.849829401,5.720951875,-2.132516009,0.869161061,5.514194364
1.848,0.482680448,11.29672487,12.33621622,12.96536213,13.41277622,1.631404758,8.925384293,10.87004578
1.852,3.821937069,13.80753944,14.22525533,14.62467607,18.00926272,4.016867044,12.23602212,13.25388646
1.856,6.828753389,15.41521404,14.97804269,15.16516935,20.66473829,5.486514984,12.60708107,14.16864939
1.86,10.06524721,16.95664491,15.98665572,15.86981763,22.54663322,6.573947424,12.4628109,14.97533459
1.864,13.16936932,18.35300953,17.55977562,17.12655805,24.03558036,7.436272572,13.39754052,16.10019446
1.868,14.87045538,18.69435082,18.81648705,18.26120011,24.6096604,7.791874514,15.40775686,16.97030667
1.872,13.76976965,16.99867483,18.39318978,18.12455546,23.43277093,7.25546073,17.18037955,16.62823952
1.876,9.389885771,13.01793599,15.49091079,15.98741535,20.15989318,5.815411905,17.11608394,14.59287878
1.88,2.847884267,7.693822653,10.59558177,12.20810058,15.47259758,4.078707781,14.48434949,11.36846319
1.884,-3.378038806,2.908914404,5.382311294,8.19411579,10.93440717,3.048845686,9.981780771,8.269894724
1.888,-6.589904683,0.549672813,1.838709458,5.637665589,8.204562543,3.54096465,5.352353562,6.67028868
1.892,-5.30654244,1.462578319,1.127438833,5.501001244,8.097092275,5.588310769,2.366652003,7.150744542
1.896,-0.207692399,4.808676764,2.879407474,7.341503295,10.01463042,8.241431878,1.755654472,9.110370936
1.9,6.056929166,8.394513354,5.362763569,9.482811369,12.19271327,9.942201578,2.830270332,11.05843484
1.904,10.16041195,9.842980994,6.436178969,9.951163069,12.62991858,9.314737275,3.971120117,11.42727552
1.908,9.813071611,7.900937786,4.766052079,7.640376652,10.19768028,5.959176745,3.659168023,9.448958547
1.912,4.970711201,3.187535233,0.59843368,3.023883618,5.307584732,0.783697167,1.42532735,5.583226188
1.916,-2.184516328,-2.19133816,-4.362107812,-2.072702374,-0.307150415,-4.344485347,-1.908301971,1.280016636
1.92,-8.39602042,-5.774683365,-7.863678497,-5.428595708,-4.475265472,-7.46958116,-4.731894397,-1.77723603
1.924,-10.98298113,-5.991560646,-8.293448075,-5.581848856,-5.661070597,-7.487767717,-5.57283735,-2.504771957
1.928,-9.129139232,-2.932355979,-5.495711928,-2.563767538,-3.689287144,-4.667214565,-3.904501586,-0.895920847
1.932,-4.129791921,1.809415153,-0.800286162,2.188945514,0.266763817,-0.48997813,-0.38265917,2.066698899
1.936,1.399230513,5.941615212,3.691087191,6.580450206,4.324379747,3.096688982,3.502808896,4.957202114
1.94,4.89384804,7.613298613,6.14378273,8.878311442,6.848606693,4.613112915,6.210595347,6.571177428
1.944,5.037086988,6.28555843,5.789743554,8.446017871,7.204083931,3.688578361,6.892294609,6.370301997
1.948,2.179140052,2.833319462,3.113198734,5.829226988,5.917934887,1.118297385,5.69076725,4.528858387
1.952,-2.123920513,-1.042309045,-0.59211468,2.257474176,4.233317194,-1.660647685,3.519040685,1.658499243
1.956,-6.099283564,-3.830325266,-3.970873251,-1.117723432,3.296048686,-3.357812991,1.45119717,-1.546181528
1.96,-8.633340258,-4.944939981,-6.230938748,-3.742044203,3.501059067,-3.458482258,0.158941969,-4.566023366
1.964,-9.587926413,-4.805580008,-7.35699046,-5.700165688,4.327166556,-2.398107923,-0.325863471,-7.117770284
1.968,-9.530351719,-4.387477541,-7.874354109,-7.378880742,4.705997315,-1.218652943,-0.47077399,-9.063551332
1.972,-9.144444839,-4.512169148,-8.377876168,-9.020099733,3.712639339,-0.928558696,-0.850192638,-10.30502131
1.976,-8.784645057,-5.444983199,-9.132055679,-10.52610676,1.129259703,-1.924662355,-1.806898795,-10.7396729
1.98,-8.379028646,-6.854376454,-9.94294226,-11.55423216,-2.369232515,-3.772511873,-3.251043048,-10.32833672
1.984,-7.641467445,-8.068528955,-10.33426098,-11.78686266,-5.516695474,-5.46391613,-4.681037569,-9.205183973
1.988,-6.423146685,-8.523228478,-9.899302146,-11.20362518,-7.116168075,-6.002801838,-5.420143832,-7.746313208
1.992,-4.922041075,-8.062057938,-8.606987516,-10.15709044,-6.683980693,-5.006246436,-4.926923942,-6.529989577
1.996,-3.649331374,-7.067495171,-6.892510507,-9.259138407,-4.778321695,-2.993165284,-3.120443762,-6.15541257
2,-3.162808713,-6.248619531,-5.492696351,-9.106273103,-2.762190875,-1.186416117,-0.503666873,-7.018759496
2.004,-3.751089394,-6.218480752,-5.124161104,-10.00987207,-2.115683123,-0.9167181,1.962486242,-9.129824164
2.008,-5.284242581,-7.187790049,-6.165947632,-11.87659781,-3.666254433,-2.913828228,3.179401723,-12.05241106
2.012,-7.274572306,-8.857741344,-8.492450359,-14.24286841,-7.117542816,-6.855783731,2.369673304,-15.00310493
2.016,-9.137360889,-10.68381189,-11.53238363,-16.48143317,-11.19644953,-11.41713519,-0.584348545,-17.0786107
2.02,-10.44604387,-12.19651796,-14.50960337,-18.01543313,-14.2829839,-14.84621316,-5.009748491,-17.5732289
2.024,-11.04917665,-13.17736578,-16.74924703,-18.48120619,-15.20547879,-15.80846608,-9.616785351,-16.26561565
2.028,-11.04609478,-13.68559774,-17.90209737,-17.82977259,-13.80405941,-14.07254785,-12.97629518,-13.55378193
2.032,-10.6634962,-13.89491982,-18.00228056,-16.34011364,-10.95182966,-10.67893228,-14.09877712,-10.36051171
2.036,-10.16383422,-13.99855027,-17.36579114,-14.59722741,-8.103900411,-7.469127697,-12.92401915,-7.804228544
2.04,-9.783521577,-14.12129981,-16.40312393,-13.33701285,-6.574781088,-6.21439112,-10.39548003,-6.786214278
2.044,-9.683443263,-14.25527199,-15.45295019,-13.16619587,-6.931997722,-7.754207648,-8.050205094,-7.651817661
2.048,-9.920584673,-14.31443923,-14.70919756,-14.27144299,-8.83098614,-11.57045015,-7.311403086,-10.07211733
2.052,-10.40602337,-14.19319653,-14.25305442,-16.24580846,-11.31349398,-16.02763666,-8.803778359,-13.21623028
2.056,-10.94259033,-13.91802517,-14.13262157,-18.23034183,-13.41215684,-19.16595976,-12.09657035,-16.11383056
2.06,-11.31475605,-13.67363766,-14.41073171,-19.30302207,-14.64173546,-19.65140215,-15.94005908,-18.06972661
2.064,-11.36181239,-13.65597079,-15.13015661,-18.93685549,-15.11552885,-17.40196069,-18.88168825,-18.92090371
2.068,-11.07150063,-13.94982311,-16.23671285,-17.33318238,-15.31022738,-13.58576881,-19.97252262,-19.03082409
2.072,-10.6209804,-14.44534561,-17.53431858,-15.39572234,-15.65781365,-10.01588901,-19.17344925,-19.04776306
2.076,-10.33470481,-14.96382506,-18.72671218,-14.34649539,-16.28346285,-8.247592561,-17.33295329,-19.53977641
2.08,-10.51444477,-15.37515461,-19.5273401,-15.07600868,-16.97506212,-8.831550799,-15.68730227,-20.70681817
2.084,-11.23258272,-15.61057544,-19.78070757,-17.57705231,-17.36649534,-11.0998364,-15.16830256,-22.29251333
2.088,-12.23981062,-15.63757088,-19.51504355,-20.8135162,-17.19304782,-13.56412384,-15.9231092,-23.71865652
2.092,-13.01910104,-15.33971778,-18.8793687,-23.10629952,-16.40687787,-14.6992297,-17.27206529,-24.35040775
2.096,-13.04321954,-14.54910385,-18.01598623,-22.95288369,-15.16451977,-13.69790355,-18.16923056,-23.75181176
2.1,-12.08400842,-13.1340006,-16.96956846,-19.82830928,-13.6940441,-10.8511915,-17.83252642,-21.85118327
2.104,-10.39639535,-11.09461361,-15.70685869,-14.54591508,-12.17533524,-7.389153079,-16.18884778,-18.95266454
2.108,-8.68200401,-8.691167192,-14.231458,-8.978801702,-10.74175508,-4.87012025,-13.89158541,-15.59697614
2.112,-7.785807924,-6.414005397,-12.6921042,-5.216713663,-9.542163581,-4.433593657,-11.87632903,-12.34323794
2.116,-8.289693916,-4.88180844,-11.37052792,-4.612871305,-8.807943029,-6.268171729,-10.78954755,-9.545687915
2.12,-10.17099432,-4.550807718,-10.50786202,-7.140522037,-8.759819942,-9.5420631,-10.55700431,-7.240080234
2.124,-12.70902976,-5.371240342,-10.08119892,-11.40202203,-9.399360526,-12.82468619,-10.38786093,-5.198254556
2.128,-14.73598972,-6.680909871,-9.681992977,-15.30196917,-10.34890851,-14.76105976,-9.242543298,-3.109370586
2.132,-15.12848042,-7.389870383,-8.642852928,-17.02840662,-10.88855174,-14.6802806,-6.480604854,-0.814175143
2.136,-13.37245814,-6.562872876,-6.413342931,-15.91559476,-10.30462943,-12.84768181,-2.388045086,1.539351519
2.14,-9.860630843,-3.966081132,-2.963971698,-12.69081964,-8.309481612,-10.23693305,1.833769648,3.508235157
2.144,-5.733942531,-0.227807744,1.043112838,-8.995179535,-5.274477057,-7.964779721,4.648230176,4.565676675
2.148,-2.351528074,3.437233451,4.480437881,-6.465061071,-2.09861042,-6.67180739,5.016099746,4.425166097
2.152,-0.620437297,5.889772927,6.30299639,-5.845562527,0.278249056,-6.196580028,3.046594445,3.284432106
2.156,-0.578345527,6.611725517,6.111434432,-6.667233914,1.385482264,-5.718280419,-0.00180093,1.828996599
2.16,-1.423552742,5.947161084,4.400520121,-7.585114502,1.500335449,-4.301146214,-2.326859406,0.937226785
2.164,-1.985548579,4.896598582,2.304513407,-7.184055198,1.483182842,-1.54481892,-2.486468873,1.223457537
2.168,-1.408071632,4.501915105,0.974053466,-4.812856249,2.235553754,2.057632119,-0.145478203,2.678539002
2.172,0.362719886,5.266905811,0.950160803,-0.953601129,4.141639638,5.283555272,3.794375909,4.637196754
2.176,2.524896537,6.824609229,1.906399035,3.011068747,6.78473099,6.8171879,7.692974546,6.140943133
2.18,3.880160455,8.180706301,2.933383517,5.550469388,9.199054138,6.019348712,10.07236644,6.507834394
2.184,3.56924828,8.415097263,3.192485767,5.835163204,10.50386531,3.381230922,10.41214284,5.792160641
2.188,1.640615271,7.332934403,2.533615119,4.192337528,10.50005231,0.383975619,9.369202333,4.839987693
2.192,-0.866878662,5.725176428,1.67260777,1.949590188,9.863222076,-1.214467804,8.340661925,4.855564628
2.196,-2.426031873,4.928113591,1.795301358,0.719650038,9.741872674,-0.290048744,8.592887887,6.717995469
2.2,-1.819357764,6.042472555,3.822447544,1.575191557,11.04968302,3.048015756,10.53369218,10.41044205
2.204,1.198048234,9.269291101,7.759399502,4.537135618,13.86575503,7.496192517,13.51804241,14.89639942
2.208,5.711533565,13.68402226,12.54140931,8.612153237,17.30240317,11.23453135,16.25643438,18.54670669
2.212,10.0775527,17.68126123,16.49916277,12.35350851,19.96973457,12.87405319,17.58595206,19.90617153
2.216,12.68161827,19.69453839,18.17618257,14.54527556,20.69866961,12.13472026,17.05682669,18.40182517
2.22,12.6669309,18.92302624,17.05308163,14.70915665,19.15266961,9.885214323,15.07716506,14.60569612
2.224,10.28290289,15.71411344,13.78244695,13.21011344,15.9825537,7.552704092,12.5785349,9.940838323
2.228,6.667073636,11.32880978,9.813540909,10.93893108,12.4209946,6.267537417,10.40997508,5.99517391
2.232,3.249599458,7.337441419,6.645983162,8.834652437,9.608230697,6.250953598,8.891877665,3.818030491
2.236,1.07229076,4.853190006,5.127783195,7.456459354,7.996665815,6.802311528,7.732177514,3.573713169
2.24,0.405505185,4.101819952,5.152384419,6.845791073,7.205753612,6.852775424,6.353988809,4.638799553
2.244,0.800157407,4.507720426,5.852221325,6.664106871,6.348895949,5.706415401,4.367740664,6.029284444
2.248,1.447911592,5.099595122,6.129781755,6.439699277,4.576832708,3.49970851,1.849779397,6.889966046
2.252,1.658797734,5.077711914,5.225411313,5.813502922,1.562067809,1.108321091,-0.687191448,6.797291416
2.256,1.14654404,4.114752327,3.040954678,4.632918452,-2.367802735,-0.412444138,-2.632991391,5.807644067
2.26,0.060855435,2.404335104,0.12111835,2.968536422,-6.411280061,-0.483308103,-3.616812646,4.2956871
2.264,-1.173317384,0.524367753,-2.639974479,1.105857171,-9.646249795,0.659811408,-3.63032295,2.740562161
2.268,-2.115581714,-0.858867441,-4.391902364,-0.500375545,-11.3771826,2.14187961,-2.915474716,1.574595056
2.272,-2.489166847,-1.215260849,-4.640994701,-1.294296128,-11.30702305,3.016415376,-1.714664609,1.111212258
2.276,-2.260453415,-0.380537896,-3.395960682,-0.810525424,-9.591777398,2.85234006,-0.166684975,1.524023521
2.28,-1.60825882,1.374393132,-1.132457592,1.079578785,-6.771477581,1.954664347,1.635929551,2.805559628
2.284,-0.819614087,3.47685492,1.392570197,3.985832009,-3.618408515,1.097753358,3.495191442,4.732775811
2.288,-0.181720306,5.262843131,3.416493843,7.007164374,-0.948575038,0.96090116,5.004620945,6.895971189
2.292,0.127168972,6.288172362,4.448651894,9.03387935,0.622286345,1.629848396,5.682034614,8.811770005
2.296,0.081360421,6.474898012,4.450250556,9.199338522,0.864817332,2.495170122,5.221536995,10.11205663
2.3,-0.164736368,6.14304896,3.853081789,7.337557193,0.047253086,2.62831301,3.767004239,10.69693645
2.304,-0.298788503,5.902476381,3.371047413,4.174630745,-1.141071231,1.392137522,1.982326844,10.75894853
2.308,0.020938587,6.341244182,3.659356808,1.071795655,-1.897764939,-1.091063087,0.776531995,10.6437331
2.312,1.013466531,7.742598057,4.974201511,-0.566738542,-1.690023824,-3.906744546,0.84363725,10.61466754
2.316,2.597810238,9.829665142,7.000535367,-0.011172192,-0.577109568,-5.796161071,2.20682271,10.6815424
2.32,4.349405615,11.81906964,8.979113831,2.397209255,0.794185455,-5.827975222,4.127728934,10.59296032
2.324,5.669351293,12.80939352,10.08089754,5.405206321,1.549304051,-3.926833552,5.462833011,10.01145188
2.328,6.068796216,12.22609681,9.832352906,7.47209995,1.09522057,-0.952818414,5.258209229,8.75698634
2.332,5.472175046,10.18727406,8.361094144,7.585689561,-0.480428975,1.718079037,3.289403297,6.950162019
2.336,4.313509774,7.435018684,6.313745759,5.776912642,-2.427930235,2.893025382,0.172513063,4.979466872
2.34,3.376835786,4.962088369,4.502590875,3.099337051,-3.731130218,2.175041279,-2.944004511,3.30583267
2.344,3.442121232,3.553397549,3.481476275,1.071950665,-3.677041517,0.157764386,-4.93669587,2.234173136
2.348,4.867649549,3.403335334,3.28675558,0.848193983,-2.302019612,-1.89131777,-5.243280728,1.782116964
2.352,7.358031484,4.105364171,3.483643443,2.589121117,-0.408085157,-2.703646358,-4.063830982,1.69628897
2.356,10.00944708,4.866606756,3.475141933,5.325033674,0.815035809,-1.68771447,-2.209127524,1.607038114
2.36,11.64945563,4.896225512,2.865227818,7.413243911,0.381597266,0.722375664,-0.677847343,1.175989288
2.364,11.33379111,3.777343142,1.655576912,7.35515657,-2.012734963,3.223864464,-0.215019438,0.172005945
2.368,8.752081584,1.578535138,0.192359733,4.539050445,-5.880647182,4.252825727,-1.06803906,-1.513252325
2.372,4.373070749,-1.229330362,-1.084818185,-0.438287119,-10.21481927,2.729521005,-2.972380345,-3.88214729
2.376,-0.762260869,-4.092345437,-1.915233592,-6.071337084,-14.00790536,-1.39772495,-5.374960717,-6.791826827
2.38,-5.460219934,-6.640316667,-2.324514005,-10.65109689,-16.66284325,-7.077068279,-7.673156704,-9.889103593
2.384,-8.794324439,-8.736340683,-2.516892735,-13.00653855,-18.10218552,-12.59491929,-9.373145842,-12.58404987
2.388,-10.36159291,-10.39209407,-2.649422254,-12.93901716,-18.59067512,-16.30175384,-10.15645999,-14.13784152
2.392,-10.25144016,-11.54424552,-2.653297931,-11.13344104,-18.39186121,-17.2741898,-9.858213865,-13.90268339
2.396,-8.859265054,-12.01331357,-2.254290728,-8.71853918,-17.57546186,-15.63300103,-8.507164502,-11.61961021
2.4,-6.652326445,-11.60476462,-1.180101893,-6.698636239,-16.04418635,-12.38933865,-6.352874535,-7.632886255
2.404,-4.014587892,-10.27325763,0.576048374,-5.559464881,-13.73884123,-8.922028127,-3.852563991,-2.869065806
2.408,-1.254243982,-8.307536325,2.615517436,-5.238935093,-10.87567279,-6.373578861,-1.605486942,1.451983595
2.412,1.3183052,-6.293632606,4.227618354,-5.364992116,-7.992179396,-5.261487044,-0.174790277,4.248724234
2.416,3.310086264,-4.973276577,4.686552499,-5.610472647,-5.797624585,-5.423777362,0.073379131,4.976639849
2.42,4.306898051,-4.948601764,3.610782994,-5.877343481,-4.854364804,-6.264326452,-0.898186506,3.800978705
2.424,4.071646704,-6.357958283,1.180046544,-6.232280689,-5.292969527,-7.121938104,-2.776502116,1.469420649
2.428,2.741561445,-8.770316276,-1.912451075,-6.699935802,-6.751400823,-7.547021456,-5.026560239,-1.037147701
2.432,0.897623983,-11.27225568,-4.755824357,-7.070009834,-8.53971737,-7.389312026,-7.067633575,-2.903888373
2.436,-0.643180334,-12.87937869,-6.622545342,-6.960374783,-9.99972175,-6.723562335,-8.494734869,-3.739229982
2.44,-1.214529719,-12.9886604,-7.254762128,-6.074957128,-10.79261917,-5.722369374,-9.18766334,-3.609103482
2.444,-0.669603568,-11.63389087,-6.910451737,-4.498924319,-10.97343461,-4.591394803,-9.281106349,-2.870594233
2.448,0.48864447,-9.471294139,-6.151617021,-2.817338399,-10.83273719,-3.554696512,-9.041665346,-1.916738873
2.452,1.367736491,-7.383645327,-5.49688084,-1.880750392,-10.57896454,-2.841516134,-8.662023002,-0.971044366
2.456,1.193720425,-6.038071017,-5.132539745,-2.359010993,-10.12754173,-2.613330022,-8.145057437,0.004280203
2.46,-0.185962438,-5.554831894,-4.838048805,-4.305335094,-9.103645174,-2.840480463,-7.291043744,1.232909049
2.464,-2.134127244,-5.468362563,-4.181029066,-7.034894425,-7.092724298,-3.240118515,-5.814150533,2.931005926
2.468,-3.565464753,-5.084034158,-2.86670568,-9.463000132,-4.013556473,-3.361512222,-3.557577738,5.094533116
2.472,-3.570857551,-3.897298582,-1.016693019,-10.67759627,-0.329399382,-2.817949146,-0.647254255,7.370259618
2.476,-2.039206482,-1.989478749,0.775875705,-10.48489556,2.994286737,-1.568983768,2.42372799,9.099620055
2.48,0.163051286,-0.059664073,1.695063531,-9.530091887,4.872624353,-0.046567934,4.914399102,9.540436586
2.484,1.637854815,0.982119654,1.138119556,-8.884042674,4.644360918,0.996393341,6.122711761,8.203088509
2.488,1.281411689,0.558569975,-0.892475593,-9.342812839,2.47070571,0.885751093,5.700292008,5.163023507
2.492,-0.94958046,-1.112903428,-3.679942216,-10.83349571,-0.616707393,-0.552744571,3.870123345,1.161864601
2.496,-3.882671281,-3.092765827,-6.08023583,-12.38493899,-3.159351641,-2.815804341,1.35045242,-2.58215254
2.5,-5.716923171,-4.23735515,-7.065690713,-12.67748742,-3.957597312,-4.928618022,-0.938075023,-4.823036869
2.504,-5.060884266,-3.857840411,-6.253337511,-10.87195589,-2.662778742,-5.95929044,-2.256095244,-4.806517234
2.508,-1.835229387,-2.181388989,-4.112894183,-7.226423948,0.036374133,-5.540140465,-2.339673214,-2.601048515
2.512,2.56613287,-0.199280605,-1.719040096,-3.052536266,2.786861394,-4.082344094,-1.40602467,0.932095625
2.516,5.95114099,0.891808338,-0.185366159,-0.05481297,4.250056067,-2.533593357,0.034234652,4.545908671
2.52,6.532872626,0.414424849,-0.077419962,0.616496971,3.778258369,-1.801262558,1.4891101,7.175964547
2.524,3.982142921,-1.331094731,-1.149885932,-0.971814995,1.706658539,-2.206478169,2.710559687,8.371294541
2.528,-0.33593267,-3.250191161,-2.555491649,-3.596677485,-0.912881215,-3.301465907,3.686613752,8.365178557
2.532,-4.071223066,-4.076451218,-3.397330618,-5.598363469,-2.930983011,-4.175159047,4.487008108,7.763423161
2.536,-5.196268617,-3.191531895,-3.290895422,-5.882063019,-3.763111554,-4.055886881,5.031193977,7.08258089
2.54,-3.141586098,-1.053627148,-2.573516784,-4.553355336,-3.65625596,-2.815141046,5.027362577,6.425144508
2.544,0.905774502,1.066721838,-2.042522085,-2.800570635,-3.425758048,-1.067998223,4.135512325,5.496274568
2.548,4.676342842,1.824981787,-2.390904344,-2.120145077,-3.863070663,0.194462142,2.234472605,3.936332491
2.552,6.100342877,0.682450449,-3.704809377,-3.321070642,-5.146118222,0.207018573,-0.346617622,1.709728631
2.556,4.415493712,-1.755950573,-5.35905635,-5.977609044,-6.687134136,-1.106917661,-2.893467642,-0.718359359
2.56,0.496114318,-4.099703391,-6.382757036,-8.632074432,-7.476419332,-3.094437078,-4.617784171,-2.583118234
2.564,-3.715425214,-4.973047287,-6.059863165,-9.619017023,-6.700724785,-4.767413357,-5.026294069,-3.268013145
2.568,-6.31753934,-3.841924394,-4.385075187,-8.035913681,-4.273693451,-5.369593705,-4.148091306,-2.706412377
2.572,-6.377191301,-1.226526435,-2.058674845,-4.225794142,-0.895129952,-4.763116553,-2.411647222,-1.454878268
2.576,-4.223278821,1.678829852,-0.027871725,0.437811888,2.332039685,-3.412120027,-0.324223987,-0.342344149
2.58,-1.011678698,3.773605357,1.129512184,4.341784696,4.51314713,-2.014233664,1.865100933,0.071108052
2.584,2.081220754,4.727059314,1.564777122,6.503223596,5.408509965,-1.058452204,4.272432624,-0.123182826
2.588,4.464518268,5.053745635,2.016810591,6.979846918,5.432747505,-0.593734959,7.153110618,-0.214208086
2.592,6.223342943,5.667916255,3.242775131,6.653105024,5.279916378,-0.3376913,10.54858423,0.660181827
2.596,7.697544268,7.103954839,5.394832226,6.518095474,5.395040552,-0.009022897,14.0053339,2.914932179
2.6,8.96090004,9.013975762,7.788710549,6.999172525,5.710711741,0.394177449,16.65797737,6.178400248
2.604,9.628830415,10.33518077,9.253727787,7.725283821,5.827281014,0.576459387,17.67467556,9.457247115
2.608,9.114832993,9.954000931,8.869876041,7.847548054,5.455499565,0.208174044,16.77639052,11.7178894
2.612,7.195399987,7.565660554,6.640409597,6.717394521,4.833719632,-0.723725426,14.54598714,12.50931394
2.616,4.399606734,4.022232327,3.649007349,4.423512193,4.732615922,-1.748509363,12.21836118,12.24838219
2.62,1.912539257,0.965730005,1.562613708,1.872683221,6.027416905,-2.072994124,11.08420867,11.95078506
2.624,1.005735241,-0.030218576,1.746198419,0.372361276,9.104340996,-0.987043845,11.84758087,12.58795023
2.628,2.301738958,1.62501119,4.5119111,0.945763352,13.48556392,1.7213271,14.29319863,14.48720886
2.632,5.388646542,5.257190027,8.966459997,3.826534184,18.00330935,5.611274442,17.52003262,17.14645788
2.636,9.025296787,9.321213317,13.53936109,8.355056076,21.39865743,9.801876496,20.51656421,19.58983725
2.64,11.82380173,12.26286426,16.85650731,13.30953423,23.00572052,13.40153664,22.73340044,20.98887178
2.644,12.99584136,13.33583908,18.4047216,17.42799675,23.04733108,15.87907104,24.25550202,21.11379292
2.648,12.64350534,12.76985507,18.55960748,19.77207865,22.27302045,17.14212808,25.41922878,20.28130382
2.652,11.47216849,11.35318687,17.99960206,19.83592706,21.21660322,17.3012656,26.20857454,18.83534871
2.656,10.11421342,9.639173815,16.94102102,17.40519784,19.53006508,16.33827351,25.82899242,16.58463828
2.66,8.553324015,7.399849775,14.76192678,12.40862036,15.94718711,13.94762658,22.89106469,12.64993623
2.664,6.091603713,3.773131229,10.33994149,4.951458349,9.029341764,9.708663535,16.20801986,5.961176598
2.668,1.933251182,-2.007414422,2.973620769,-4.463286306,-1.687924944,3.544976671,5.775473625,-3.796642112
2.672,-3.974414253,-9.672435562,-6.699142577,-14.67692705,-14.80704358,-3.849062576,-6.627825426,-15.39471213
2.676,-10.47542921,-17.56297439,-16.44768386,-23.91013731,-27.14798273,-10.93893106,-17.75694772,-26.00303919
2.68,-15.47372229,-23.13252786,-23.14674644,-30.1724489,-34.88072287,-15.76117662,-24.06167491,-32.09160087
2.684,-16.86292387,-24.08652401,-24.15999016,-31.92665642,-35.21922846,-16.68689135,-23.18507415,-30.93745029
2.688,-13.65043642,-19.62750766,-18.68356259,-28.72251561,-27.81910705,-13.14476549,-15.08130807,-21.97406138
2.692,-6.563666403,-10.93994442,-8.277313056,-21.39956991,-15.04444734,-5.934088457,-2.093688456,-7.249215963
2.696,2.209742108,-0.72714627,3.760122159,-11.76852033,-0.962776359,3.047076295,12.00485283,9.32730532
2.7,10.04035777,8.019815412,13.87604215,-1.891855658,10.47058599,11.53681359,23.56582241,23.57187103
2.704,15.08056034,13.37598023,19.82095208,6.671483014,17.08239979,17.73837502,30.44942062,32.65471083
2.708,16.98902018,15.15440173,21.47203089,13.25861896,19.14065294,20.86287197,32.57767696,35.97526649
2.712,16.81340755,14.69204241,20.52075451,18.01127593,18.75847071,21.16856822,31.52653505,34.89324434
2.716,16.1423569,13.83200335,19.27342519,21.38105984,18.40542134,19.57409303,29.421598,31.6155958
2.72,16.09684135,13.79552449,19.29955257,23.60987252,19.4451182,17.12250771,27.80916676,27.92514606
2.724,16.78899955,14.63249335,20.68357829,24.51349098,21.50415965,14.5827005,27.06277275,24.45539203
2.728,17.49251665,15.41716732,22.23650484,23.65277026,22.92671426,12.34915634,26.50191099,20.82775959
2.732,17.36498981,15.09938802,22.44611658,20.79794822,22.00471768,10.57924615,25.08045555,16.41002622
2.736,16.13661314,13.27683807,20.50364807,16.2824006,18.12407933,9.36821,22.11048631,11.11394167
2.74,14.28687428,10.43528822,16.78171541,11.009808,12.17751429,8.802111972,17.66287025,5.679144465
2.744,12.64511356,7.598988794,12.54646879,6.106627912,6.069817063,8.866222301,12.50559952,1.315873391
2.748,11.70760695,5.603099707,9.161496112,2.409311629,1.646874644,9.334637454,7.699579363,-1.0014045
2.752,11.20985151,4.615859582,7.317304445,0.143151015,-0.232502862,9.759964709,4.189843867,-1.127271446
2.756,10.26524729,4.116751326,6.76567573,-1.057297056,0.000329101,9.646593605,2.528456048,0.188677482
2.76,8.010906591,3.356919521,6.673429164,-1.784982246,1.090242005,8.733672521,2.83337388,1.778681558
2.764,4.332895899,1.977214094,6.287168218,-2.405137094,1.827824941,7.18506771,4.875853149,2.74245446
2.768,0.143824574,0.26901123,5.447723256,-2.827771696,1.731793761,5.549661166,8.144216513,2.910692512
2.772,-3.005246873,-0.995479856,4.60701631,-2.623496854,1.187756711,4.459818621,11.89836319,2.781958923
2.776,-3.800689184,-1.135160193,4.379703318,-1.432664652,0.974700279,4.241774114,15.20675804,3.032274792
2.78,-1.980240439,-0.085426805,4.985538768,0.647863213,1.581672041,4.68663832,17.10616607,3.935582666
2.784,1.435460398,1.515664809,5.986732796,2.974159803,2.789461925,5.136358449,16.90087464,5.08874825
2.788,4.648685187,2.670597516,6.526761413,4.627465987,3.761901788,4.865193353,14.46082852,5.62873836
2.792,6.066133535,2.687061133,5.904694056,4.934168254,3.604342775,3.533570004,10.38843232,4.769962236
2.796,5.136318678,1.615335042,4.094164461,3.86173583,1.958085539,1.445382728,5.854613645,2.330906104
2.8,2.577448156,0.210544925,1.851528544,2.061056874,-0.73391018,-0.564079526,2.165883295,-1.098484727
2.804,-0.126518129,-0.534213266,0.304312647,0.503468245,-3.469662977,-1.584609688,0.248509353,-4.441833909
2.808,-1.64760077,-0.059957488,0.26974112,-0.099184085,-5.302613925,-1.157655868,0.272646195,-6.684786272
2.812,-1.559327444,1.431217569,1.728666692,0.308138268,-5.889113777,0.423990942,1.674684042,-7.370603382
2.816,-0.531623033,3.069548075,3.769771895,1.090768369,-5.689722436,2.229246113,3.486351123,-6.752853442
2.82,0.109484156,3.794490706,5.047165946,1.296707234,-5.689553677,3.17296452,4.81740835,-5.569257172
2.824,-0.818681452,2.944884863,4.488426182,0.219332787,-6.811430872,2.598007973,5.23898952,-4.595156343
2.828,-3.698973166,0.525815446,1.852692135,-2.19577464,-9.403809019,0.640250499,4.85156859,-4.252167852
2.832,-7.90140823,-2.815020939,-2.147740833,-5.265722809,-13.01983913,-1.825800446,4.121483888,-4.474624267
2.836,-12.10186353,-6.139210051,-6.205835745,-7.895500087,-16.64151908,-3.630305255,3.557009761,-4.847135554
2.84,-14.90898288,-8.635517866,-9.043291348,-9.097837476,-19.17911019,-3.895059397,3.431913069,-4.909007629
2.844,-15.4697989,-9.862730183,-9.97413382,-8.436050568,-19.9737268,-2.475933694,3.685513559,-4.431776597
2.848,-13.79554938,-9.84354607,-9.139090908,-6.201367377,-19.07551592,-0.016523284,3.97706044,-3.518878518
2.852,-10.69409296,-8.922756939,-7.349682349,-3.227429204,-17.14387061,2.378420649,3.880559858,-2.529049414
2.856,-7.435646538,-7.632651633,-5.672419624,-0.509650824,-15.11790184,3.663430897,3.049094496,-1.880137388
2.86,-5.282149295,-6.567152268,-4.949693852,1.203737128,-13.79136025,3.318499808,1.348363333,-1.853883006
2.864,-5.032363299,-6.213863254,-5.466937427,1.677128112,-13.49237687,1.52547772,-1.070007437,-2.473546119
2.868,-6.764766016,-6.846033477,-6.882547974,1.177266023,-14.03153372,-0.995149553,-3.800011338,-3.497969509
2.872,-9.819236229,-8.349463721,-8.421498266,0.266356604,-14.86123219,-3.386762576,-6.255916834,-4.549481065
2.876,-13.06618336,-10.2101859,-9.254175847,-0.524792767,-15.40392324,-5.073276034,-7.865514577,-5.306521029
2.88,-15.37969962,-11.71181925,-8.902535978,-0.975649658,-15.36396671,-5.973330522,-8.315139955,-5.703343111
2.884,-16.14073623,-12.28866778,-7.517714567,-1.295407516,-14.88914175,-6.44667896,-7.748832409,-6.044800742
2.888,-15.55908718,-11.9554115,-5.898394638,-2.04550063,-14.53952563,-7.0173849,-6.831695411,-6.949616903
2.892,-14.56429328,-11.38659124,-5.196937455,-3.828111485,-15.00881046,-8.034376364,-6.513577287,-9.109989357
2.896,-14.2925994,-11.62594351,-6.40168106,-6.91564332,-16.76755895,-9.445647453,-7.598156227,-12.91420007
2.9,-15.40562417,-13.4904822,-9.81160153,-10.9807642,-19.77466351,-10.79776805,-10.27742583,-18.11439493
2.904,-17.59463959,-16.9534613,-14.76867763,-15.07747542,-23.40022707,-11.46403962,-13.90130016,-23.7260663
2.908,-19.63774247,-21.00453916,-19.826267,-17.96965043,-26.64887734,-10.98268485,-17.19225435,-28.27055766
2.912,-20.03142365,-24.01818104,-23.33750041,-18.65877319,-28.55178982,-9.340539959,-18.80455842,-30.34160021
2.916,-17.86837908,-24.55505642,-24.18868787,-16.88247204,-28.57728627,-7.038605494,-18.01908536,-29.23763554
2.92,-13.44330625,-22.13043341,-22.29772328,-13.29193953,-26.82903497,-4.885819182,-15.15710868,-25.35218725
2.924,-8.211955414,-17.48738081,-18.62169486,-9.19299666,-23.94561261,-3.634037022,-11.46450281,-20.09223183
2.928,-4.096466504,-12.29201688,-14.66059575,-5.980126217,-20.80685422,-3.618983289,-8.543765456,-15.3255346
2.932,-2.472513576,-8.275946533,-11.72040713,-4.493105816,-18.15736683,-4.61325103,-7.548177003,-12.62464111
2.936,-3.477169312,-6.431946021,-10.35278573,-4.697285476,-16.39634481,-5.986076441,-8.641803201,-12.65719244
2.94,-6.044550989,-6.683337077,-10.26985854,-5.841971577,-15.6004919,-7.080527094,-11.01164613,-15.03395538
2.944,-8.624231699,-8.138582505,-10.73970614,-6.986910332,-15.69493841,-7.607391497,-13.39702565,-18.64244697
2.948,-10.142931,-9.801795004,-11.16978104,-7.59562044,-16.62938142,-7.801961779,-14.8513629,-22.23579189
2.952,-10.57136615,-11.1227253,-11.48604796,-7.780017789,-18.35594556,-8.24408749,-15.21852268,-24.95738726
2.956,-10.76218823,-12.14841223,-12.07257859,-8.096307527,-20.67612543,-9.444691611,-15.11163028,-26.52168814
2.96,-11.6759752,-13.20284172,-13.32042838,-9.007001606,-23.06780689,-11.42115204,-15.40273597,-27.02391582
2.964,-13.51828808,-14.34767648,-15.12253258,-10.37573704,-24.67978839,-13.53679027,-16.54644752,-26.57898999
2.968,-15.42857799,-15.16786405,-16.70717977,-11.40030723,-24.62749702,-14.74488512,-18.2285046,-25.08699743
2.972,-15.91715728,-14.92388141,-16.96596958,-11.01298936,-22.40582386,-14.13141392,-19.49031581,-22.31544718
2.976,-13.81503488,-13.07855374,-15.11730248,-8.568167901,-18.24070921,-11.46171216,-19.30740827,-18.215984
2.98,-9.133473905,-9.807612449,-11.29735318,-4.370705452,-13.12031845,-7.411050089,-17.24118387,-13.25018956
2.984,-3.248578873,-6.069960928,-6.676619291,0.322412005,-8.424429505,-3.321506851,-13.74608784,-8.44132614
2.988,1.727424138,-3.230060812,-2.970347575,3.85037436,-5.348057006,-0.576001654,-9.98772237,-5.034116596
2.992,4.053195729,-2.304407444,-1.586564885,5.003377875,-4.362789965,0.064212681,-7.207721246,-3.925685521
2.996,3.256397324,-3.380954658,-2.888380256,3.652596881,-5.04487375,-1.195803984,-6.063671929,-5.166038381
3,0.315412842,-5.550751043,-5.987822972,0.810340437,-6.331499833,-3.327373291,-6.312222326,-7.852977937
3.004,-2.969060021,-7.377439291,-9.190590959,-1.911740773,-7.045707072,-5.036693869,-7.000942902,-10.50336007
3.008,-5.021312302,-7.714320762,-10.83496316,-3.152518748,-6.433812587,-5.402898434,-7.057663862,-11.71588367
3.012,-5.269545499,-6.246826191,-10.06450785,-2.420821967,-4.392835077,-4.262371898,-5.865550001,-10.81005025
3.016,-4.241276619,-3.550402877,-7.134035715,-0.192473554,-1.368477127,-2.165254495,-3.557156159,-8.09239393
3.02,-2.988597748,-0.649386687,-3.134503558,2.528365143,1.970196626,0.043686879,-0.870927172,-4.650898472
3.024,-2.276067638,1.642549507,0.637097636,4.864538729,5.047883288,1.720857822,1.298380459,-1.819611187
3.028,-2.109194826,3.087297236,3.289668021,6.491213461,7.492502912,2.699593988,2.327112415,-0.597136272
3.032,-1.838202066,4.036246758,4.615115971,7.647547583,9.100884013,3.226135281,2.098880317,-1.313698455
3.036,-0.763979529,5.030444435,4.932816784,8.733506209,9.712058186,3.645086124,0.901154554,-3.64571036
3.04,1.223225262,6.31720416,4.694553789,9.840629641,9.1707272,4.081941158,-0.856348804,-6.89479754
3.044,3.445353439,7.653422749,4.139930022,10.56850119,7.445927732,4.321691437,-2.885138194,-10.31969157
3.048,4.795247581,8.413395043,3.22147566,10.23585249,4.787675491,3.966226588,-5.103967955,-13.32285606
3.052,4.466664224,8.057560599,1.810347609,8.410927508,1.837145463,2.747987665,-7.477989352,-15.45971912
3.056,2.558353056,6.561886533,-0.002666702,5.364651092,-0.480661742,0.791660571,-9.815186258,-16.34056945
3.06,0.139637761,4.54327202,-1.744156028,2.142875216,-1.254260285,-1.353199416,-11.66985338,-15.59253656
3.064,-1.300132861,3.014973268,-2.698582849,0.150519431,0.039011185,-2.959014015,-12.47033311,-12.98428839
3.068,-0.716970795,2.813145443,-2.280003921,0.429331113,3.240797881,-3.465556673,-11.84803499,-8.646383028
3.072,1.851168458,4.15898088,-0.414458454,3.080780614,7.506362137,-2.746997884,-9.905403255,-3.247348234
3.076,5.216998221,6.492928492,2.294590265,7.111954144,11.54846472,-1.174351584,-7.306190546,2.057602665
3.08,7.628823897,8.71922475,4.775447219,10.84885452,14.08478275,0.583199645,-5.056979505,5.966492389
3.084,7.679007934,9.755558007,5.972398788,12.7097268,14.29892409,1.866646808,-4.063198985,7.538740949
3.088,5.024669162,9.006924301,5.374689974,11.92188453,12.11585884,2.305054876,-4.714525239,6.644071061
3.092,0.603020455,6.682185733,3.315915788,8.888579633,8.259862462,1.935325644,-6.644666128,4.083104722
3.096,-3.801077764,3.698535295,0.853985536,4.977762575,4.010165896,1.134501216,-8.858847788,1.290271431
3.1,-6.372706472,1.263413806,-0.714973197,1.87631383,0.764589135,0.436999044,-10.15958943,-0.279905544
3.104,-6.062202706,0.365401772,-0.491193689,0.829869641,-0.44759816,0.309535759,-9.672744428,0.193751927
3.108,-3.042099945,1.280784851,1.547016551,2.071431868,0.615606967,0.973464277,-7.2975318,2.520227717
3.112,1.412534851,3.480045887,4.486677944,4.759170276,3.308219435,2.324350241,-3.781314947,5.585452127
3.116,5.502623646,5.887347506,6.902976522,7.401434433,6.350479445,3.970945641,-0.418392678,7.908077641
3.12,7.665688905,7.388155166,7.569534967,8.575825138,8.387034353,5.387495546,1.52367044,8.385560417
3.124,7.204582562,7.396245451,6.101015689,7.619027525,8.621396535,6.124795162,1.395831225,6.859286178
3.128,4.517413734,6.105035064,3.202955013,4.942967785,7.196851563,6.019508294,-0.545102255,4.220701883
3.132,0.883416915,4.419524863,0.363787099,1.871891178,5.14691072,5.285638617,-3.237391859,1.952038342
3.136,-2.10364926,3.499197844,-0.877513052,0.031444418,3.860456172,4.443361929,-5.321660592,1.350802114
3.14,-3.199959559,4.146056543,0.283322952,0.585034895,4.329968498,4.084957495,-5.78463387,2.82293385
3.144,-1.995836393,6.390719798,3.475867911,3.67604611,6.577449522,4.572311282,-4.42228416,5.616273192
3.148,0.948501437,9.39306659,7.312614526,8.313179811,9.562914135,5.839886059,-1.925984079,8.178545538
3.152,4.422268521,11.88418878,10.09535199,12.83300578,11.73286945,7.427827395,0.543305439,8.967623626
3.156,7.149049777,12.83785949,10.69633575,15.67757527,11.88392397,8.741241309,2.005007272,7.314415808
3.16,8.345042196,12.0075859,9.131338091,16.10621937,9.870495006,9.39082977,2.19473723,3.85665253
3.164,8.000949463,10.07611145,6.505057966,14.49355081,6.748133784,9.408396911,1.69165321,0.288198062
3.168,6.719883283,8.198241871,4.346427681,12.01650097,4.190399206,9.206236361,1.494156462,-1.476966326
3.172,5.287741089,7.341287655,3.724758052,9.967171103,3.556214177,9.28960385,2.368000967,-0.314460075
3.176,4.193338006,7.701241947,4.635656073,9.028082923,5.077689617,9.897259864,4.288980753,3.472943992
3.18,3.412497689,8.57363438,6.037241237,8.949761104,7.687001286,10.81965822,6.358395463,8.246198473
3.184,2.580009623,8.821638236,6.517245662,8.813754651,9.607685525,11.51583256,7.283229969,11.82770637
3.188,1.391497227,7.570484257,5.208059066,7.69415581,9.359769519,11.49345695,6.121149085,12.61630419
3.192,-0.00041836,4.858093558,2.411408914,5.373684865,6.667969436,10.6975732,2.920721764,10.41668096
3.196,-0.921575451,1.7425571,-0.469367594,2.614750904,2.68799371,9.620753339,-1.194448928,6.54085531
3.2,-0.542608017,-0.226223931,-1.680257366,0.803593069,-0.578723433,9.046030578,-4.57193269,3.105097603
3.204,1.558379211,0.167769675,-0.133508184,1.169559783,-1.358355047,9.549356018,-5.908791123,1.905834365
3.208,4.960182585,3.036204197,3.896386709,3.988557265,0.890315252,11.06676315,-5.009658322,3.490064619
3.212,8.457655526,7.270688301,8.823160551,8.317279634,5.16434668,12.8265235,-2.899447132,6.905560456
3.216,10.60016848,11.06636807,12.52476526,12.38967375,9.419907665,13.72526184,-1.267190301,10.26537125
3.22,10.46106883,12.84330446,13.44961254,14.51091399,11.64452771,12.97146801,-1.502408497,11.80057665
3.224,8.21201868,12.1129375,11.43819547,13.96609466,10.92265251,10.61534483,-3.847384977,10.82337771
3.228,5.091557173,9.680621784,7.800242794,11.3763672,7.88821997,7.621611794,-7.213206018,8.078166515
3.232,2.802979323,7.224662081,4.616326515,8.351023042,4.399714987,5.401710571,-9.718126202,5.278735268
3.236,2.6256261,6.394199857,3.644084,6.581476995,2.577723363,5.048305958,-9.710112664,4.137624039
3.24,4.724439237,7.924367407,5.430645534,6.893849758,3.73382051,6.707528722,-6.695370421,5.429962159
3.244,8.073796797,11.29052117,9.082001066,8.802904176,7.734833285,9.444440556,-1.659875911,8.601780381
3.248,10.9851441,14.94421033,12.77540277,10.76398531,13.05091748,11.70168504,3.341001288,12.13233186
3.252,12.01400745,17.14303237,14.72973425,11.05627498,17.50683152,12.11683518,6.187078601,14.40796945
3.256,10.71509672,16.82755965,14.08972633,8.770111154,19.29677558,10.25285875,5.707981006,14.61399878
3.26,7.822571282,14.09349248,11.27622262,4.362796026,17.78258311,6.843232503,2.215989818,13.13587872
3.264,4.817953333,10.10620083,7.662898451,-0.50243185,13.73116699,3.416258672,-2.686279745,11.26507338
3.268,3.108182637,6.421754738,4.802346417,-3.790449974,8.866039369,1.511315811,-6.940407247,10.41603969
3.272,3.325506822,4.243388138,3.646208438,-4.092103237,5.045662911,1.9244837,-8.996314554,11.30698045
3.276,5.087368452,3.914955518,4.158667231,-1.31330785,3.426423271,4.365194436,-8.479698334,13.58523666
3.28,7.309947534,4.892796643,5.49121438,3.29915251,4.019208419,7.669545268,-6.236226725,16.07890778
3.284,8.878886456,6.213227494,6.561608063,7.809635915,5.837295052,10.42901052,-3.771902774,17.49830949
3.288,9.226619667,7.036725725,6.681744637,10.51676202,7.4858358,11.67356748,-2.464747631,17.16639185
3.292,8.563486893,7.10324298,5.904199603,10.73574204,7.944167556,11.25142547,-2.878194655,15.33920788
3.296,7.65653406,6.788232151,4.919977801,9.026362797,7.096024547,9.748273753,-4.552214662,12.97360152
3.3,7.303289823,6.755864124,4.594686803,6.783045633,5.741153398,8.042029549,-6.33433203,11.09041228
3.304,7.859848486,7.506037863,5.427503721,5.457118933,5.103713624,6.778753684,-7.025049251,10.14233697
3.308,9.060496787,8.986108895,7.241116919,5.792857781,6.074800493,6.081670898,-6.041337647,9.792962628
3.312,10.22244739,10.60595557,9.257040547,7.505327065,8.656176334,5.625102588,-3.70085695,9.210644165
3.316,10.63867467,11.54402649,10.48329207,9.484251108,11.86546457,4.96761519,-1.061849646,7.693583457
3.32,9.93170639,11.17047123,10.19916671,10.3962563,14.18577271,3.897488299,0.592725079,5.212885731
3.324,8.201864741,9.408463429,8.281308084,9.376474034,14.35010453,2.581256242,0.38387281,2.527030897
3.328,5.863863791,6.70682595,5.214977264,6.404287826,11.99049798,1.432225622,-1.785416832,0.790577394
3.332,3.357494136,3.794582037,1.811243206,2.255426809,7.848506164,0.789651496,-5.207437869,0.862461325
3.336,0.916561366,1.300500333,-1.19060321,-1.930322191,3.391428373,0.644919613,-8.739665882,2.763463384
3.34,-1.470858858,-0.536706926,-3.413308494,-5.202107854,0.058032545,0.608364452,-11.3427795,5.601294059
3.344,-3.904522541,-1.857276295,-4.904183336,-7.169584063,-1.444628395,0.140835036,-12.49968454,8.016621747
3.348,-6.371933218,-3.016137433,-5.970618569,-8.062275639,-1.449138102,-1.07731485,-12.37016963,8.909124498
3.352,-8.624229162,-4.258813091,-6.910162739,-8.441407746,-1.027535396,-2.882659518,-11.56569004,7.992947163
3.356,-10.25619105,-5.535924366,-7.817509998,-8.814685382,-1.321335605,-4.649111734,-10.74399162,5.874874055
3.36,-10.94145511,-6.556315394,-8.563206825,-9.364872376,-2.8715944,-5.600630202,-10.23596383,3.616191775
3.364,-10.62393134,-6.946282397,-8.911730071,-9.891017171,-5.290477738,-5.242748838,-9.860506923,2.068831141
3.368,-9.581853681,-6.527230718,-8.68335595,-10.01223691,-7.484296635,-3.658523557,-9.062139587,1.411529405
3.372,-8.277710356,-5.407565648,-7.85149828,-9.429729124,-8.239656967,-1.50309476,-7.232124501,1.139340519
3.376,-7.103746429,-3.924322447,-6.543068777,-8.130866339,-6.891545231,0.293353024,-4.101468718,0.485334825
3.38,-6.217510024,-2.504098021,-4.970501661,-6.428189964,-3.700010443,0.958975185,0.012437424,-1.02885166
3.384,-5.536246783,-1.465524944,-3.357913599,-4.80149894,0.26295088,0.221054082,4.24296231,-3.272346214
3.388,-4.910225855,-0.995978381,-1.907054235,-3.687813399,3.595703793,-1.61615401,7.428980326,-5.604667312
3.392,-4.309764312,-1.153876202,-0.804155672,-3.282132501,5.214577694,-3.862518126,8.548576474,-7.332890883
3.396,-3.900029259,-1.919438429,-0.227760894,-3.47625148,4.805804675,-5.773384897,7.105625646,-8.187857329
3.4,-3.922153117,-3.220265936,-0.306108759,-3.930689373,2.899081199,-6.831634535,3.341935068,-8.497867781
3.404,-4.434264329,-4.837884329,-1.038331288,-4.213965384,0.577609208,-6.874090054,-1.794681132,-8.940513003
3.408,-5.167005413,-6.416427195,-2.244316743,-4.007864346,-1.067503657,-6.050101504,-6.97541431,-10.0168143
3.412,-5.592013087,-7.499058849,-3.599374796,-3.238657946,-1.426502832,-4.690724243,-10.92325957,-11.61867446
3.416,-5.213301603,-7.690193858,-4.759234315,-2.111055636,-0.61386053,-3.172474417,-12.82830142,-12.95695831
3.42,-3.919603447,-6.877829367,-5.514349196,-1.027950041,0.635605262,-1.828297784,-12.57815826,-12.92701547
3.424,-2.138570801,-5.309286032,-5.888575168,-0.408074788,1.359528003,-0.913441474,-10.70231773,-10.70594081
3.428,-0.689224524,-3.565956398,-6.108075397,-0.515215241,0.818707767,-0.569112064,-8.117611922,-6.218504053
3.432,-0.339264889,-2.279111039,-6.438951776,-1.320292916,-1.133940645,-0.780984034,-5.722872171,-0.223685629
3.436,-1.36263724,-1.825353073,-7.010613607,-2.526749528,-3.98839911,-1.375287876,-4.090877267,6.011148162
3.44,-3.389640868,-2.194014905,-7.745170807,-3.755942548,-6.830221038,-2.084553368,-3.375074641,11.22428827
3.444,-5.621316352,-3.018240298,-8.434591023,-4.769330908,-8.751555256,-2.676918898,-3.404564095,14.58270906
3.448,-7.314538138,-3.862848002,-8.8980971,-5.631019065,-9.254445519,-3.076685124,-3.924329143,15.84879943
3.452,-8.183554794,-4.442873748,-9.086791354,-6.630987986,-8.385193363,-3.393337775,-4.734654722,15.28363526
3.456,-8.468275645,-4.697439835,-9.062308633,-8.022928053,-6.593468277,-3.817259429,-5.700432242,13.44034701
3.46,-8.614330831,-4.684316098,-8.852641939,-9.703660933,-4.403412411,-4.443827719,-6.652186763,10.98694057
3.464,-8.763609912,-4.317045284,-8.296766933,-11.03646107,-2.081193358,-5.1275965,-7.259983133,8.617960734
3.468,-8.497591512,-3.308238952,-7.039313381,-11.05489905,0.433186345,-5.503905909,-7.081888008,7.000097341
3.472,-7.02531015,-1.285077303,-4.725158268,-8.950445797,3.349375286,-5.215425802,-5.748758537,6.636536944
3.476,-3.774532158,1.892809444,-1.304075762,-4.644198874,6.68971893,-4.203312904,-3.227448138,7.675176458
3.48,1.011092316,5.832144747,2.76201834,0.927053972,10.04659497,-2.845616302,0.031895117,9.764517696
3.484,6.145959503,9.651546569,6.568728313,6.085462282,12.65897201,-1.814119688,3.239582865,12.1135232
3.488,9.95138964,12.27061513,9.117665699,9.115605128,13.7473674,-1.706171567,5.593658689,13.81216946
3.492,11.14730769,12.95487241,9.787563763,9.130159781,12.97795433,-2.649613071,6.681966157,14.26920106
3.496,9.643108334,11.72273919,8.649254085,6.582694349,10.71865722,-4.135270245,6.658501962,13.5377554
3.5,6.666631391,9.321707479,6.418614054,3.087833023,7.904239538,-5.228077168,6.071054811,12.29543749
3.504,4.12277628,6.847732552,4.066627693,0.623461727,5.592653632,-5.070446946,5.46875094,11.45648391
3.508,3.492823736,5.103312548,2.313492313,0.492979477,4.4272032,-3.384620106,4.993074251,11.64374745
3.512,4.974508186,4.226483209,1.330106918,2.682176467,4.399210331,-0.667514495,4.307062835,12.83198468
3.516,7.393530619,3.763850778,0.821552094,5.944230693,5.019803792,2.04947363,2.905625686,14.40479935
3.52,8.96635886,3.119477784,0.406920761,8.560779378,5.774879843,3.738029384,0.609874773,15.57337648
3.524,8.473473759,2.141068779,0.018518073,9.339784196,6.561560072,3.87829285,-2.087351597,15.86597945
3.528,6.037477981,1.274339229,-0.006082837,8.186279859,7.706989652,2.609225445,-4.193538293,15.33301237
3.532,3.023538558,1.254721768,0.763858001,5.964603719,9.573273997,0.445252518,-4.828376824,14.29163671
3.536,1.083029173,2.442510745,2.328937692,3.734961866,11.96689961,-2.226236265,-3.971257019,12.80397734
3.54,0.957012039,4.254136814,3.922103315,1.906212815,13.8110059,-5.490264779,-2.817055259,10.28542782
3.544,1.856351853,5.226844787,4.17968282,-0.081228652,13.4484329,-9.817342283,-3.353782156,5.616696725
3.548,1.882446485,3.70376048,1.857407059,-3.306958563,9.506977769,-15.54596629,-7.301892443,-2.144580431
3.552,-0.676550406,-1.0751575,-3.274183262,-8.368359209,1.926820861,-22.27062061,-14.89803692,-12.84999528
3.556,-6.00292553,-8.198182122,-9.912946276,-14.53293046,-7.527956431,-28.59926211,-24.29351302,-24.70940783
3.56,-12.24259806,-15.16546214,-15.47944026,-19.66318824,-15.67502916,-32.51983402,-32.00947888,-34.56576364
3.564,-16.26185346,-18.86677831,-17.16570155,-21.09552333,-19.17197654,-32.2866566,-34.35187005,-39.04600334
3.568,-15.37156043,-17.15178604,-13.31153042,-17.11002986,-16.10831179,-27.36720582,-29.19702725,-36.07074594
3.572,-8.971116356,-10.0117418,-4.36452941,-8.085510291,-7.03151631,-18.89104779,-17.14727664,-25.95686669
3.576,0.864809719,0.240180326,7.123440087,3.354466084,5.135913716,-9.291472727,-1.454991359,-11.47486737
3.58,10.28299756,9.948912675,17.54539036,13.40870507,16.32806782,-1.264236865,13.32377448,3.241034267
3.584,15.63728687,15.87369126,23.84100917,18.90204977,23.14970455,3.430245507,23.31745365,14.42240629
3.588,15.39504216,16.6551996,24.83052001,18.79817442,24.30190248,4.682176342,26.89591461,20.17650174
3.592,10.89253244,13.33238112,21.59601456,14.62678593,20.9604937,3.882662891,25.09902919,21.01820694
3.596,5.483987716,8.588643924,16.73407515,9.547217957,15.92428443,3.004415886,20.73792129,19.22548557
3.6,2.560328581,5.15988805,12.91138897,6.572137622,12.036706,3.44427363,16.73113147,17.40957179
3.604,3.615356312,4.384377239,11.50477951,6.967190632,10.76209345,5.252136147,14.63606421,17.08617255
3.608,7.453842942,5.575768503,12.05318362,9.676960691,11.6152813,7.187844781,14.10302931,18.02493419
3.612,11.01006909,6.654142857,12.77156596,12.11193493,12.72572342,7.545657216,13.52385144,18.63720541
3.616,11.25632852,5.566058983,11.78270276,11.77573884,12.11214824,5.258655809,11.35759873,17.13512508
3.62,7.075508903,1.642851297,8.343851948,7.79441214,8.923601924,0.657958494,7.303778103,12.75844763
3.624,0.020510652,-3.834159584,3.35713519,1.486879499,3.969572954,-4.557549675,2.634327545,6.366013088
3.628,-6.522684148,-8.315840132,-1.111924538,-4.375616208,-0.76589465,-8.133900884,-0.55607433,0.093489931
3.632,-9.226264966,-9.4040091,-3.014056632,-7.117178879,-3.252872523,-8.421241298,-0.659541141,-3.735322312
3.636,-6.684187482,-6.250637601,-1.511217821,-5.640701993,-2.548846241,-5.250843967,2.339423332,-3.809465711
3.64,-0.197208746,-0.140557896,2.50184071,-1.009288573,0.705617098,-0.06917285,6.659261042,-0.501300342
3.644,6.96272873,6.162303235,6.842100019,4.194885619,4.703801876,4.752263794,9.608920943,4.334974454
3.648,11.31817203,9.817956771,9.193617384,7.294070596,7.476793986,7.084710727,9.030661682,8.325036926
3.652,11.01114198,9.409833346,8.339834193,6.953385853,7.954041172,6.083646126,4.558506543,9.757931626
3.656,6.672051733,5.656775052,4.794455673,3.811624811,6.460274294,2.577138507,-2.063434828,8.388989385
3.66,0.922070347,0.953754067,0.504861279,0.018779714,4.420038769,-1.370562021,-7.797554809,5.453710846
3.664,-3.110510725,-1.903733033,-2.195239272,-1.986073999,3.497974978,-3.486203592,-9.810748471,2.915443824
3.668,-3.412507769,-1.221309876,-1.802933378,-0.787942863,4.643935698,-2.373271374,-6.904146866,2.390935784
3.672,0.039014572,2.779299918,1.603192262,3.346533464,7.619891896,1.854181108,-0.071704385,4.292253007
3.676,5.501762748,8.178877456,6.448007794,8.72905194,11.20030309,7.679874006,8.042432967,7.642216228
3.68,10.57108502,12.44545156,10.51673213,13.2257165,13.90169373,12.9598513,14.48542149,10.63935028
3.684,13.4850656,13.84590502,12.1022558,15.38708284,14.82515698,15.93791668,17.44699638,11.6473398
3.688,13.86092355,12.27792597,10.82535143,15.0664705,14.08627378,15.9988339,16.99549906,10.08510404
3.692,12.61534196,9.241576901,7.744842304,13.31742716,12.68514892,13.82842356,14.82627089,6.736785453
3.696,11.21665001,6.952366957,4.741887104,11.67008307,11.8951239,10.94627073,13.18666396,3.337016387
3.7,10.76658724,7.092813985,3.535846692,11.24222618,12.54261229,8.9025435,13.60897136,1.651754932
3.704,11.47188371,9.972287872,4.844287349,12.19720217,14.59784927,8.542576202,16.1620054,2.533483055
3.708,12.6847945,14.37687986,8.081355169,13.73792278,17.21230109,9.687399379,19.51242816,5.453019784
3.712,13.42291271,18.25790629,11.70640569,14.62494275,19.19627862,11.34701212,21.7705749,8.736642922
3.716,12.98549122,19.79313171,13.98886797,13.8588187,19.5987946,12.29781882,21.56202459,10.38878283
3.72,11.29308079,18.22411044,13.79184847,11.15875951,18.0849964,11.69872352,18.73255801,9.060729333
3.724,8.835312948,14.15379744,11.00802039,7.050317666,14.98138144,9.426913222,14.37381853,4.67441248
3.728,6.297903271,9.088452851,6.492146693,2.532263683,10.98912196,6.032598322,10.14868697,-1.579648054
3.732,4.181934741,4.646339705,1.594198973,-1.39590911,6.83292647,2.403762938,7.402141173,-7.844972894
3.736,2.610468012,1.813050645,-2.443900097,-4.124761557,3.011543985,-0.651442077,6.515445603,-12.44166952
3.74,1.422360264,0.615814505,-4.91652915,-5.556972546,-0.22634607,-2.665034214,6.842408611,-14.51593931
3.744,0.464994986,0.401660372,-5.767189141,-5.938077596,-2.71998586,-3.546276425,7.223355735,-14.22012374
3.748,-0.20097228,0.334126744,-5.423622766,-5.618486771,-4.286977408,-3.458939352,6.667082396,-12.41295814
3.752,-0.271671242,-0.084007935,-4.494650957,-4.849388929,-4.726046697,-2.667143735,4.858456603,-10.13834822
3.756,0.599277525,-0.820743803,-3.518237984,-3.75702099,-3.980562394,-1.464693972,2.189846812,-8.183378515
3.76,2.4631479,-1.55088881,-2.861502998,-2.477857607,-2.346661559,-0.194949822,-0.636128932,-6.926244479
3.764,4.870484476,-2.007045959,-2.748894446,-1.28695953,-0.520205716,0.706168447,-3.10297043,-6.461304261
3.768,6.913470396,-2.309299958,-3.318871145,-0.635774818,0.564163643,0.764535137,-5.198421278,-6.795896683
3.772,7.55877692,-2.932320001,-4.613042517,-0.990417982,0.130332165,-0.357815296,-7.291423554,-7.944052066
3.776,6.119755476,-4.379311658,-6.499661634,-2.582285515,-2.035778821,-2.664261382,-9.707013876,-9.841196692
3.78,2.633451361,-6.805604431,-8.604410338,-5.22306742,-5.401975615,-5.721901853,-12.30937983,-12.19302933
3.784,-2.041845925,-9.77116855,-10.35528543,-8.295166033,-8.836547534,-8.767457379,-14.37001339,-14.4538465
3.788,-6.542356586,-12.44248578,-11.19040556,-11.01715692,-11.1049367,-11.00627079,-14.91743753,-16.02059729
3.792,-9.556982362,-14.03429602,-10.84387331,-12.80319275,-11.43394893,-11.96750614,-13.33460149,-16.57637177
3.796,-10.38647425,-14.27922079,-9.54855001,-13.54448296,-9.887066962,-11.71789225,-9.874682565,-16.33486015
3.8,-9.263207211,-13.65992196,-8.004316148,-13.65812838,-7.355203541,-10.81065951,-5.749556574,-15.99051024
3.804,-7.237607565,-13.1431021,-7.08763894,-13.83527548,-5.132713505,-10.01216987,-2.642966988,-16.34541484
3.808,-5.701280688,-13.66652273,-7.419185028,-14.65878124,-4.322900953,-9.935224604,-1.908145899,-17.77893119
3.812,-5.740498437,-15.55789381,-9.006367234,-16.25995776,-5.309812122,-10.76919939,-3.818121209,-19.91486715
3.816,-7.64040774,-18.28356144,-11.18571464,-18.23957991,-7.5986761,-12.23651268,-7.350879059,-21.72261271
3.82,-10.78391489,-20.72243684,-12.92481511,-19.89972856,-10.09563904,-13.77235462,-10.65895764,-22.06835616
3.824,-13.95835056,-21.72495909,-13.34548725,-20.61981141,-11.64429878,-14.81241811,-11.97450797,-20.42597624
3.828,-15.9592257,-20.78071884,-12.19950045,-20.21164201,-11.60759467,-15.02391974,-10.54416548,-17.31090748
3.832,-16.13357367,-18.29537919,-10.01529509,-18.99156734,-10.14164188,-14.38482712,-7.026538639,-14.15155179
3.836,-14.63825938,-15.38318025,-7.84584264,-17.57920244,-8.085526937,-13.12078105,-3.1831735,-12.60942212
3.84,-12.30351373,-13.32059858,-6.749024553,-16.54695449,-6.545747214,-11.56571152,-1.015653802,-13.70950311
3.844,-10.15700491,-12.86633393,-7.271413234,-16.08977024,-6.356275837,-10.02707819,-1.755745504,-17.26170049
3.848,-8.898323768,-13.93717465,-9.200969896,-15.93841262,-7.719100939,-8.700123004,-5.276926831,-21.88418816
3.852,-8.565103116,-15.68611933,-11.6995751,-15.51095912,-10.12517787,-7.644806138,-10.1473162,-25.6412235
3.856,-8.568924309,-16.96481664,-13.73084426,-14.23630733,-12.60796529,-6.797662831,-14.31699286,-26.95430149
3.86,-8.06330361,-16.90951358,-14.52378361,-11.85017144,-14.17077859,-5.994511709,-16.05266437,-25.29698039
3.864,-6.436752701,-15.26897309,-13.85908423,-8.508809348,-14.17282151,-5.032472431,-14.63369938,-21.35079551
3.868,-3.719509184,-12.47657628,-12.08237109,-4.752194006,-12.5892058,-3.769556879,-10.58707672,-16.59683717
3.872,-0.652688926,-9.372242895,-9.8804187,-1.308229697,-9.996852315,-2.224788773,-5.347830131,-12.61331305
3.876,1.60714101,-6.810110739,-7.975612237,1.126582256,-7.344703453,-0.637252351,-0.605369014,-10.44727573
3.88,2.003465713,-5.382632232,-6.885441758,2.049320069,-5.610725264,0.586294513,2.338246292,-10.35544137
3.884,0.113043851,-5.241310871,-6.804276658,1.285011365,-5.425241242,1.045867355,2.982039011,-11.94092444
3.888,-3.605750699,-6.1606333,-7.593103556,-0.965291319,-6.836139719,0.566064063,1.649008775,-14.48819856
3.892,-7.936366831,-7.642404681,-8.832288487,-4.124340935,-9.257416514,-0.665885421,-0.744217675,-17.29515718
3.896,-11.39902281,-9.071963618,-9.929935249,-7.364943267,-11.68103596,-2.152644564,-3.084246347,-19.83542335
3.9,-12.91635225,-9.933234174,-10.29240962,-9.877664032,-13.08898755,-3.326266012,-4.474577455,-21.75954698
3.904,-12.3054742,-9.952627465,-9.561336058,-11.17349521,-12.88739995,-3.870719404,-4.521364431,-22.86734599
3.908,-10.37752469,-9.26240801,-7.825099491,-11.32177412,-11.20214461,-3.898288186,-3.46766383,-23.10632623
3.912,-8.511909977,-8.359897412,-5.664640466,-10.91337302,-8.817085999,-3.863578757,-2.055614908,-22.608097
3.916,-7.927540684,-7.893246567,-3.964070053,-10.74621444,-6.79812798,-4.259794906,-1.186431307,-21.68341825
3.92,-9.033264624,-8.355248397,-3.508596177,-11.36310222,-5.962395584,-5.248442405,-1.497279477,-20.72176963
3.924,-11.16898679,-9.726068317,-4.554974156,-12.66733435,-6.440642445,-6.479539005,-2.998108075,-20.02728274
3.928,-12.94358918,-11.41380113,-6.62813011,-13.91763481,-7.633127362,-7.232928041,-5.017761609,-19.66908584
3.932,-13.00658896,-12.48694914,-8.711965829,-14.12664945,-8.558317563,-6.845488264,-6.488291141,-19.48497321
3.936,-10.86256247,-12.17169841,-9.788998737,-12.69449874,-8.440439241,-5.184504061,-6.504447273,-19.24837538
3.94,-7.237948263,-10.35247538,-9.414655618,-9.885878836,-7.178196977,-2.841807075,-4.861076093,-18.88171179
3.944,-3.752521278,-7.680999097,-7.985509129,-6.809657061,-5.38249292,-0.916824489,-2.218244534,-18.56708482
3.948,-2.076963999,-5.301909162,-6.501971088,-4.901395954,-3.993059201,-0.469658346,0.176364236,-18.63717864
3.952,-2.988419736,-4.204121751,-5.921314882,-5.11736652,-3.645088786,-1.926587959,1.156477296,-19.30617919
3.956,-5.883330994,-4.616862616,-6.49312525,-7.338010161,-4.221115436,-4.794617182,0.296572377,-20.41538713
3.96,-9.070937311,-5.864310174,-7.510299759,-10.37239501,-4.894275899,-7.87156152,-1.83446052,-21.39610621
3.964,-10.67801688,-6.713238877,-7.688730062,-12.57406833,-4.647873838,-9.863514122,-3.969985963,-21.53306921
3.968,-9.713511795,-6.166503067,-5.995786699,-12.78955478,-3.016227397,-10.06919542,-4.900098041,-20.38118491
3.972,-6.655017056,-4.124609407,-2.426692085,-11.03131109,-0.521541698,-8.742021608,-4.180654746,-18.09736224
3.976,-3.2147437,-1.527961499,1.780471475,-8.486424002,1.483232535,-6.933286565,-2.391416758,-15.43786055
3.98,-1.413165846,0.117926477,4.698169971,-6.841113848,1.530526958,-5.900552602,-0.767798514,-13.38938163
3.984,-2.441702603,-0.320967064,4.760199458,-7.273126507,-1.052937444,-6.416967732,-0.379393589,-12.63989709
3.988,-6.015101175,-2.903630576,1.693184996,-9.769599508,-5.657255711,-8.361028547,-1.443794879,-13.20328709
3.992,-10.52588016,-6.477378494,-3.230838926,-13.12981901,-10.5949266,-10.80185257,-3.157190009,-14.44840963
3.996,-13.91323079,-9.269919975,-7.820599679,-15.67237884,-13.95769351,-12.52254957,-4.206991418,-15.50978698
4,-14.76228265,-9.922055387,-10.13809142,-16.21853963,-14.6501107,-12.67426589,-3.674247015,-15.84605559
4.004,-12.97298966,-8.245866534,-9.538375374,-14.72598246,-12.96073977,-11.20309751,-1.693766395,-15.59619644
4.008,-9.709973737,-5.392229204,-6.973532463,-12.25856093,-10.38552101,-8.831166863,0.514317615,-15.49191069
4.012,-6.673480806,-3.202335705,-4.371373483,-10.27672991,-8.737638888,-6.635012875,1.364833021,-16.38080532
4.016,-5.141852492,-3.147593421,-3.459345011,-9.719438439,-9.088059744,-5.478631329,-0.069364061,-18.62974941
4.02,-5.360527619,-5.514417292,-4.735110459,-10.45653881,-11.15622907,-5.604062055,-3.375337639,-21.78846031
4.024,-6.567503201,-9.210660049,-7.209654023,-11.41488078,-13.47930509,-6.606237328,-6.898950053,-24.75343553
4.028,-7.599545425,-12.42225195,-9.066473378,-11.32629753,-14.30961083,-7.755734844,-8.679121428,-26.34069346
4.032,-7.637157506,-13.62460231,-8.81968224,-9.569647887,-12.65246929,-8.433824568,-7.625738712,-25.96564536
4.036,-6.649120294,-12.40551198,-6.274211355,-6.608507021,-8.876658112,-8.439784529,-4.271771417,-24.02696639
4.04,-5.329251559,-9.681030168,-2.704452429,-3.76879263,-4.562568714,-8.009862503,-0.606734353,-21.76976827
4.044,-4.58794534,-7.097630416,-0.140311225,-2.462078155,-1.65507729,-7.576941495,1.003283086,-20.69323899
4.048,-4.97557826,-6.123995386,-0.200786394,-3.382612503,-1.47313708,-7.450839874,-0.85268814,-21.80395742
4.052,-6.357405106,-7.255301884,-3.159981112,-6.107021221,-4.081663524,-7.61282023,-5.755727861,-25.12868566
4.056,-8.020475397,-9.801488507,-7.797829168,-9.346933415,-8.370170421,-7.749414524,-11.58976067,-29.71929642
4.06,-9.131197224,-12.3750604,-12.09441673,-11.68881986,-12.73311485,-7.483291907,-15.63579254,-34.13115953
4.064,-9.217113921,-13.65064288,-14.3344734,-12.33166695,-15.88805342,-6.648101588,-15.97909912,-37.11217994
4.068,-8.422923422,-13.07842158,-13.97250787,-11.44846816,-17.41444732,-5.428264092,-12.49838776,-38.12801164
4.072,-7.384972295,-11.06414635,-11.76854218,-9.94078917,-17.69831219,-4.274180293,-6.842318888,-37.4900781
4.076,-6.843562039,-8.609864231,-9.183608719,-8.807739358,-17.44728474,-3.657101357,-1.490196957,-36.06470962
4.08,-7.237498828,-6.720657829,-7.448698467,-8.537114602,-17.13797706,-3.795116199,1.538244413,-34.76479375
4.084,-8.455949309,-5.822606431,-6.885295709,-8.835432883,-16.71140041,-4.516175996,1.636549123,-34.11431686
4.088,-9.886775025,-5.630863377,-6.861225988,-8.880220779,-15.72946223,-5.329265835,-0.326896129,-34.08205943
4.092,-10.69055903,-5.408453618,-6.355450721,-7.86677153,-13.79862288,-5.662596749,-2.745562422,-34.24791115
4.096,-10.15626969,-4.448472462,-4.731029863,-5.521289051,-10.97006562,-5.135804033,-4.33247439,-34.14822976
4.1,-7.99257925,-2.521486761,-2.198757518,-2.286315725,-7.828734018,-3.716123195,-4.838428311,-33.57725423
4.104,-4.431756987,0.052368395,0.305565513,0.939746289,-5.179132521,-1.709323312,-5.001362453,-32.69995507
4.108,-0.17172437,2.577586802,1.72420572,3.278344496,-3.594468006,0.400883989,-5.890192808,-31.92614569
4.112,3.819327656,4.349324135,1.549459161,4.298839242,-3.093750958,2.150224172,-8.05707304,-31.68137528
4.116,6.578705525,4.969127125,0.12610711,4.151578014,-3.180745423,3.218862215,-11.08187833,-32.21259686
4.12,7.394450859,4.40030654,-1.602086776,3.356992249,-3.231919952,3.456581822,-13.79918914,-33.51788736
4.124,6.020594035,2.900908697,-2.720494545,2.464603268,-2.94978012,2.829988453,-15.00613476,-35.42012969
4.128,2.756365823,0.796466576,-2.938887507,1.750484521,-2.630360564,1.361155817,-14.24601927,-37.69183801
4.132,-1.642126257,-1.669408258,-2.780113676,1.151991507,-3.026966233,-0.88771846,-12.12606044,-40.16393927
4.136,-6.184874292,-4.342916875,-3.236263334,0.429198591,-4.891140001,-3.766957827,-9.995111605,-42.73755734
4.14,-9.948003419,-7.101442749,-5.096821145,-0.593055041,-8.460434436,-6.964929112,-9.179137632,-45.31450015
4.144,-12.32982446,-9.711652682,-8.389593797,-1.864789288,-13.18646313,-10.00651087,-10.20546701,-47.74777641
4.148,-13.22709729,-11.8709835,-12.30687064,-3.197286749,-17.94783544,-12.36791625,-12.55936818,-49.86218121
4.152,-13.02718541,-13.33029897,-15.65574194,-4.471488558,-21.58889944,-13.67445545,-15.04290688,-51.55589932
4.156,-12.44090511,-14.05650551,-17.56352011,-5.82887007,-23.51481437,-13.88863595,-16.5313503,-52.89795879
4.16,-12.24684896,-14.35334041,-17.99099345,-7.675113237,-23.99925704,-13.36047642,-16.65813854,-54.12899068
4.164,-12.98580638,-14.71421052,-17.72553852,-10.40506505,-23.97819385,-12.69718652,-15.97530938,-55.54389636
4.168,-14.754672,-15.58000359,-17.85244796,-14.0471834,-24.49403585,-12.49467659,-15.57106356,-57.2932142
4.172,-17.1276964,-17.01871574,-19.00769397,-18.00469865,-26.03559669,-13.05570389,-16.34348569,-59.24353278
4.176,-19.25658572,-18.55588524,-20.88400706,-21.1248819,-28.17713715,-14.24101984,-18.40330842,-60.99462074
4.18,-20.1814589,-19.36084018,-22.32317141,-22.15408315,-29.75534147,-15.54860713,-20.99301614,-62.07375367
4.184,-19.22072997,-18.62073057,-21.97430425,-20.35105736,-29.4674068,-16.3941925,-22.92483681,-62.22746539
4.188,-16.33589744,-16.05176836,-19.15268226,-15.98901906,-26.6300624,-16.42424285,-23.31191464,-61.60937191
4.192,-12.29060016,-12.18747722,-14.39685953,-10.41279159,-21.64869691,-15.6992212,-22.10201697,-60.75728304
4.196,-8.473140052,-8.263640358,-9.369562907,-5.572034791,-15.95448957,-14.64358001,-20.12123128,-60.33329844
4.2,-6.409816232,-5.755758525,-6.105910186,-3.219904021,-11.42219697,-13.78828594,-18.6143363,-60.75550189
4.204,-7.108289569,-5.660370704,-5.996448246,-4.115112674,-9.515722316,-13.46329246,-18.51288164,-61.9498035
4.208,-10.5558506,-8.004828336,-9.052677997,-7.683690757,-10.64404376,-13.62133323,-19.92285959,-63.36001373
4.212,-15.61150243,-11.76608857,-13.86111492,-12.27587622,-13.997578,-13.89589002,-22.06986644,-64.24745194
4.216,-20.41110171,-15.29707585,-18.2657754,-15.92915954,-17.95634375,-13.86184058,-23.7445791,-64.10682365
4.22,-23.13699442,-17.10902483,-20.40854783,-17.26525322,-20.84574151,-13.32271491,-23.97738296,-62.95964908
4.224,-22.78467275,-16.51346672,-19.59423646,-16.04866315,-21.62542251,-12.45071274,-22.5167668,-61.37073524
4.228,-19.6119668,-13.94147217,-16.54836712,-13.20758012,-20.25051784,-11.68443173,-19.92681705,-60.16903048
4.232,-14.9975446,-10.67735562,-12.94433876,-10.27965046,-17.51518047,-11.43973724,-17.21763061,-60.04446696
4.236,-10.80079766,-8.199289743,-10.50577798,-8.629323172,-14.55235295,-11.84116488,-15.29863792,-61.24956388
4.24,-8.552870382,-7.535977495,-10.17239701,-8.855146839,-12.29920935,-12.63270237,-14.58259298,-63.56238735
4.244,-8.820868615,-8.827381547,-11.7449762,-10.61407495,-11.1435577,-13.33347545,-14.87539419,-66.50663718
4.248,-11.08826795,-11.41700682,-14.15943591,-12.96147937,-10.95003331,-13.55887263,-15.63789829,-69.66366715
4.252,-14.12492405,-14.26399317,-16.16038057,-14.91091447,-11.31078639,-13.2899317,-16.33356732,-72.86579042
4.256,-16.60987229,-16.43630824,-16.9678468,-15.91083138,-11.84306466,-12.91535095,-16.66590386,-76.14709286
4.26,-17.71120171,-17.48439846,-16.57925058,-16.01764188,-12.36581935,-13.00024668,-16.61922793,-79.51684377
4.264,-17.32048111,-17.42364337,-15.58382141,-15.68154902,-12.84265036,-13.9199661,-16.27315064,-82.73701761
4.268,-15.90220542,-16.52630386,-14.66035447,-15.37062065,-13.23037535,-15.57532581,-15.63952422,-85.26607376
4.272,-14.11406437,-15.04015129,-14.11162475,-15.258743,-13.35843361,-17.38098216,-14.62927962,-86.47111237
4.276,-12.43666835,-13.04536057,-13.71546218,-15.15725345,-12.96969343,-18.545506,-13.18691634,-85.97573843
4.28,-11.02738725,-10.57675927,-12.95763129,-14.717834,-11.91758909,-18.48490167,-11.50666391,-83.93608164
4.284,-9.776640178,-7.757894588,-11.4527203,-13.69007763,-10.32999609,-17.13204132,-10.08363585,-81.06168071
4.288,-8.524842499,-4.941479906,-9.275202834,-12.11346696,-8.662916662,-14.96602982,-9.569074456,-78.33630683
4.292,-7.233471142,-2.628894459,-6.969606267,-10.28625242,-7.515822277,-12.74550903,-10.41853654,-76.58765632
4.296,-6.02774889,-1.234614536,-5.251682453,-8.580382818,-7.323478017,-11.12462062,-12.56498959,-76.13660396
4.3,-5.12619816,-0.901091468,-4.587854425,-7.253925861,-8.116283857,-10.36391286,-15.35077476,-76.72457375
4.304,-4.679001315,-1.368265622,-4.913842074,-6.332168904,-9.454978687,-10.28698981,-17.74718712,-77.74564117
4.308,-4.685147823,-2.124549681,-5.683222569,-5.672467085,-10.65741387,-10.4841379,-18.84727803,-78.62062525
4.312,-5.006199348,-2.671718725,-6.211405166,-5.113526708,-11.16522725,-10.60852496,-18.32607628,-79.11824874
4.316,-5.467863847,-2.777634473,-6.11019772,-4.621232304,-10.87573141,-10.57279003,-16.63609986,-79.4318478
4.32,-6.017432667,-2.649215891,-5.561329431,-4.371899418,-10.28116906,-10.55665567,-14.84529506,-80.00838558
4.324,-6.785790027,-2.801112386,-5.255112439,-4.678901212,-10.27155936,-10.84572961,-14.12496575,-81.26344821
4.328,-8.049517739,-3.81989779,-6.019661034,-5.856787985,-11.74241292,-11.6207319,-15.20329118,-83.32547633
4.332,-10.06009334,-6.047991487,-8.332007158,-8.040388665,-15.13473534,-12.83308007,-18.00374489,-85.94846308
4.336,-12.80810556,-9.355916324,-11.98530018,-11.04460735,-20.14390536,-14.22257067,-21.65894756,-88.60331376
4.34,-15.86492714,-13.15962133,-16.08513452,-14.32969274,-25.74425982,-15.42180386,-24.90601849,-90.66038661
4.344,-18.3652803,-16.53661098,-19.37573732,-17.05618131,-30.47548326,-16.08360016,-26.61303091,-91.56316204
4.348,-19.24095637,-18.53586535,-20.75388933,-18.3032202,-32.9492812,-15.95713064,-26.25564062,-90.92320539
4.352,-17.6486741,-18.50211618,-19.73705697,-17.3800462,-32.3480743,-14.9176372,-24.09134379,-88.57690764
4.356,-13.42324077,-16.32704053,-16.67890209,-14.15596359,-28.74525006,-12.99172248,-21.00358628,-84.61615302
4.36,-7.367883624,-12.61099145,-12.64588712,-9.28840351,-23.14313028,-10.39235364,-18.13011721,-79.40205179
4.364,-1.135958369,-8.509125858,-9.001658931,-4.133100619,-17.14126726,-7.535676643,-16.38235695,-73.53170894
4.368,3.31091556,-5.39752199,-6.881438429,-0.336039525,-12.40011004,-4.978896347,-16.12905372,-67.69527753
4.372,4.496438393,-4.36601204,-6.772504785,0.817037052,-10.05849437,-3.242544208,-17.09977679,-62.45240234
4.376,2.125882673,-5.743745747,-8.370955374,-1.000173266,-10.35347723,-2.579094324,-18.55128627,-58.00995774
4.38,-2.698924374,-8.94753898,-10.76161431,-4.932729998,-12.61305222,-2.804666708,-19.63253419,-54.12922746
4.384,-7.870783421,-12.63426874,-12.83160857,-9.223328945,-15.57824969,-3.332202295,-19.72452099,-50.25488292
4.388,-11.17540498,-15.25923005,-13.72962311,-11.96924063,-17.96576925,-3.438704434,-18.68035053,-45.79932774
4.392,-11.24573035,-15.70593631,-13.15697211,-11.95897399,-18.95898929,-2.638764749,-16.8082178,-40.4456914
4.396,-8.099430432,-13.70470136,-11.37547925,-9.182344232,-18.42379547,-0.956005288,-14.64482233,-34.28177709
4.4,-3.012332592,-9.899572331,-8.951338807,-4.764078659,-16.7846698,1.085445211,-12.66498018,-27.68425902
4.404,2.227197725,-5.414157252,-6.400663537,-0.318906783,-14.63178792,2.759461168,-11.02453605,-21.04498838
4.408,6.204728521,-1.31684498,-3.968149006,2.845904682,-12.39177371,3.556259934,-9.569429529,-14.53305894
4.412,8.413498593,1.775204476,-1.677740425,4.256141577,-10.22869238,3.450202459,-8.076802419,-8.111261079
4.416,9.177783798,3.742844219,0.383088971,4.243632444,-8.233796296,2.836594794,-6.617040787,-1.813262535
4.42,9.065472339,4.618898451,1.763208899,3.424333399,-6.746143928,2.181274436,-5.821348334,3.909664671
4.424,8.257473675,4.265135064,1.597289689,2.101752457,-6.463968876,1.591529831,-6.771984298,8.057906192
4.428,6.311334372,2.251183761,-1.064322653,-0.016619012,-8.222281698,0.622479931,-10.54275119,9.39743824
4.432,2.533743043,-1.837873158,-6.648903261,-3.531822739,-12.44277779,-1.497949057,-17.51331425,7.139136944
4.436,-3.263060657,-7.836266957,-14.51015934,-8.674343991,-18.58643595,-5.318494609,-26.82042071,1.65904135
4.44,-10.14840255,-14.62387278,-22.7917992,-14.69975854,-25.00959669,-10.58938585,-36.31243159,-5.181940466
4.444,-16.05783953,-20.16395658,-28.90194274,-19.77543199,-29.38141475,-16.05829193,-43.09691008,-10.43205262
4.448,-18.53829877,-22.19598138,-30.4713613,-21.59267235,-29.60316148,-19.8249773,-44.57835852,-11.06851402
4.452,-15.90161426,-19.23149923,-26.36662838,-18.41892535,-24.75653319,-20.13489754,-39.50307088,-5.225622909
4.456,-8.151431258,-11.33386932,-17.23730133,-10.04045165,-15.57983623,-16.22397811,-28.53166372,6.978921326
4.46,2.843004208,-0.295178342,-5.290410397,1.921443818,-4.198226823,-8.758850129,-14.06737968,23.44593335
4.464,14.10379506,11.06833485,6.626996516,14.58621667,6.827566166,0.380905052,0.663260787,40.92904893
4.468,22.80964649,20.05557511,16.17844105,24.96287347,15.58293183,8.890775789,12.80050405,56.31220908
4.472,27.46062936,25.18839836,22.37564643,31.15945551,21.49841939,15.01827961,20.8346064,67.71024932
4.476,28.35893129,26.7151724,25.7063971,33.04302269,25.30313819,18.24161152,24.9303863,74.90248751
4.48,27.18757466,26.21187298,27.55162023,32.04229939,28.29299581,19.33506027,26.47346194,78.9763114
4.484,26.01953693,25.66137878,29.26520916,30.29872403,31.41850123,19.81709757,27.18858094,81.46110026
4.488,26.28362513,26.39908967,31.4432151,29.59099163,34.68209652,21.09645706,28.24198288,83.48430151
4.492,28.21942943,28.5332896,33.74554759,30.59632853,37.2023745,23.74846296,29.7975411,85.35410886
4.496,31.00534558,31.08212003,35.28489924,32.78181741,37.8424833,27.26746756,31.17332151,86.70784673
4.5,33.36525946,32.62313268,35.29725683,34.87719452,35.98712079,30.41066182,31.42604687,87.04442224
4.504,34.29546524,32.18158035,33.67464964,35.66119046,32.04565947,31.89891575,30.05419532,86.24234306
4.508,33.48080477,29.74819915,31.05699498,34.58324647,27.33577146,31.10328606,27.3642797,84.75660952
4.512,31.29785277,26.27334615,28.48953515,31.98909399,23.4896307,28.38534059,24.39263415,83.40342911
4.516,28.49965151,23.18572281,26.88354194,28.87881325,21.71979206,24.91602103,22.44079438,82.91374645
4.52,25.8043442,21.65002504,26.60692786,26.36007055,22.32409984,22.09735795,22.44784781,83.53314984
4.524,23.63669849,22.06409365,27.40679165,25.13258807,24.69745415,20.88262089,24.58472848,84.88699495
4.528,22.07536219,23.91071276,28.65272993,25.20277395,27.73479353,21.3470173,28.17996775,86.18771885
4.532,20.98795792,26.08874786,29.73336629,25.99191676,30.41189684,22.72284672,32.04669549,86.64252953
4.536,20.2158479,27.50950519,30.34979101,26.72552674,32.20796849,23.84499398,35.00131723,85.83921459
4.54,19.69273801,27.585372,30.57812673,26.88172952,33.17750679,23.78184932,36.30842583,83.92999484
4.544,19.50661943,26.51959563,30.72735304,26.52220367,33.76655208,22.31945443,35.93808357,81.54393837
4.548,19.85676761,25.14074845,31.10612195,26.26915311,34.47493362,20.04728316,34.48576392,79.51550901
4.552,20.9567523,24.45047155,31.8387855,26.96060786,35.59075934,18.01112525,32.86653113,78.54437528
4.556,22.89963404,25.10148584,32.79759541,29.13278284,37.08354859,17.1307728,31.91169237,78.9337427
