Timestamp,O1,Oz,O2,PO3,PO4,TP7,TP8,Fz
0.0,-8.810729923425242e-13,4.725109192804666e-13,-2.4229507289419416e-12,-1.0302869668521453e-12,-1.8616219676914625e-12,2.2168933355715126e-12,-1.1297629498585593e-12,8.348877145181177e-13
0.004,-38.639323643741335,-33.97640611358715,-54.97531811963213,-35.4063888645118,-13.795018598542264,-51.38032663621804,-42.68649635422261,-11.656983376232304
0.008,-67.19944301184225,-58.42333407954823,-94.47109360141378,-61.00857009729535,-22.363970160524275,-89.2018165754728,-73.91786477069155,-20.332550814852794
0.012,-80.01327036620799,-67.91516519013385,-109.83535080236452,-71.297090846645,-22.862215970646183,-105.83241602035454,-87.30671712135687,-24.415826851857947
0.016,-77.95929874014524,-63.193585677884975,-102.58323371647516,-67.17157531450496,-15.990263176865483,-102.48943394656985,-84.00388003775277,-24.3077358463298
0.02,-67.31532459428158,-50.23996672981934,-82.6695756388132,-54.87600959756857,-5.368615313147558,-87.76777041197238,-71.3890863926197,-21.999759584919385
0.024,-56.07663385212765,-36.951098912414,-62.823412972464865,-42.45221953574765,4.461825140659883,-72.74090274075252,-58.81978818844367,-19.86425710652718
0.028,-49.88241421902246,-29.274836352926688,-52.18514053884904,-35.72587520514644,10.292239843982081,-65.40512048255529,-52.870747631043585,-19.357428276198057
0.032,-49.77764468655722,-28.83960196833199,-52.659677068021324,-35.974442753269855,11.550011438654224,-67.43642938357404,-54.63459507555319,-20.367597973400592
0.036000000000000004,-52.81952051693504,-33.13142179317178,-59.62244557542735,-40.319543266198274,10.04504273206679,-74.71977435585572,-60.33055774891179,-21.540297193776727
0.04,-54.80398753469659,-37.77355108951162,-66.00236194077115,-44.24803312571629,8.491692235540395,-80.85611289618211,-64.49137611944919,-21.303302371108725
0.044,-53.19341249695369,-39.33875186644648,-66.93367939744067,-44.53950845918787,8.777559304808587,-81.27790872470382,-63.58265934360458,-18.927100186057874
0.048,-48.49540038608117,-37.07760505819169,-62.26059409847612,-40.89552558149521,10.987454752326386,-75.59128919142219,-57.934670971347565,-14.989606828846622
0.052000000000000005,-43.511479348213065,-32.804807529288965,-55.80204936611422,-35.57474872284588,13.622558082548672,-67.12613601284878,-51.08469212677237,-11.016812969795787
0.056,-41.219236670624525,-29.336721518247124,-52.32524290181765,-31.597284056501714,14.713780849607915,-60.41281423278386,-47.24657129394049,-8.574213242825284
0.06,-42.784812496954956,-28.622329749156837,-54.38163242044649,-30.817355389339244,13.071780242212284,-58.3726707685834,-48.63281759260692,-8.383346633670072
0.064,-46.90463001723123,-30.677930965999533,-60.89458505808776,-33.01666716486869,8.926973264329092,-60.88240129371012,-54.20346137750505,-9.980341848059009
0.068,-50.777863038262865,-33.838778593643994,-68.1495273795497,-36.40743793240529,3.6752860911469085,-65.34590395139865,-60.46844307922058,-12.072561127062531
0.07200000000000001,-51.96733045770202,-36.0013562641563,-72.3151532731203,-39.022912819182324,-1.003246057189795,-68.65406555423105,-63.696266498705754,-13.333793887712048
0.076,-49.909185183073916,-35.96647595186363,-71.77114461979882,-39.97868809049419,-4.034926074187521,-69.15137960589058,-62.09139103334395,-13.128500462413133
0.08,-46.12808986186167,-34.03152612075942,-67.80240583113755,-39.78265117560846,-5.294227531295178,-67.3736851901653,-56.62815153252741,-11.72389751388792
0.084,-43.064859148517264,-31.52053275962523,-63.3435387258043,-39.5868315625216,-5.28268929839173,-65.2376992165455,-50.13820017362519,-9.924787463765025
0.088,-42.389331407807745,-29.70203369119691,-60.80715625352856,-40.04550758979305,-4.4769498086723445,-64.42464131571045,-45.403981057184524,-8.432228996506318
0.092,-43.95851936208851,-28.916922463004255,-60.55111395126957,-40.69465490691694,-2.9024018176916364,-65.17880101692779,-43.57757798093509,-7.4099672469583275
0.096,-46.091329485412714,-28.52034061948007,-60.969396158664146,-40.34461229875818,-0.28362544646774523,-66.32948827696802,-43.907566831361635,-6.575224705473175
0.1,-46.90060591842885,-27.616224074043267,-60.010878766704366,-38.181687294331695,3.3591618925281104,-66.3950416358275,-44.806565363691334,-5.726101797173893
0.10400000000000001,-45.70202253888189,-25.984090441123428,-56.93896768771432,-34.7297873256292,7.1419301552141405,-64.87289902618201,-45.3688320480133,-5.3026430010433145
0.108,-43.57241886090068,-24.528840479195797,-53.11780056354246,-31.922915615242403,9.29190681052382,-62.78792857296087,-46.25125450678963,-6.5126375015078235
0.112,-42.727708288631234,-24.929894471169295,-51.33309569558957,-32.15719411690989,7.814382586372432,-62.15513747033369,-49.32639596034586,-10.82750546665329
0.116,-45.13333119255252,-28.674453242110843,-54.09591034292416,-36.86564353534735,1.5506875347886186,-64.72925089039859,-56.32878773187483,-19.068052991487257
0.12,-51.19996175911851,-36.04341768078089,-61.97825895749696,-45.46875937199471,-8.946352446047634,-70.82410242001929,-67.35238092930985,-30.58343763047368
0.124,-59.29251124505392,-45.61827103726927,-72.93085043848379,-55.33571784841262,-21.26826693215527,-78.89512020359984,-80.13053489274606,-43.04469370815184
0.128,-66.35728369508539,-54.643508959265525,-83.00788551979434,-62.84708671631163,-31.904112890749445,-86.13241906885327,-90.62696822094799,-53.0750542098412
0.132,-69.34798960801695,-60.11890087139567,-88.15098187713798,-65.0365227822266,-37.595968597140555,-89.75772900019945,-94.71837128732352,-57.50495422640192
0.136,-66.69096841179781,-60.09799801173058,-86.09404922801971,-60.95705479096073,-36.665262994841605,-88.32493624838222,-90.1180088747328,-54.678938859590005
0.14,-59.03517421559052,-54.54055175695797,-77.38757501765203,-52.05270192789173,-29.65347438997643,-82.3210570796531,-77.51514765758753,-45.162923437291326
0.14400000000000002,-48.89443222994667,-45.268111470632576,-65.01213317194946,-41.362752799089805,-18.986756590710506,-73.77464382372057,-60.29490939462124,-31.496396171656347
0.148,-39.45403220205982,-35.10278912636507,-52.89387587518425,-32.04919406581297,-7.874304934823687,-65.1750145302679,-43.04167930537663,-17.121752680380425
0.152,-33.217527200304026,-26.687489788472107,-44.18739070299826,-26.08569359903331,0.9703144962513939,-58.378983512368194,-29.663442531225964,-5.038359533441598
0.156,-31.161047367910115,-21.569558730508493,-40.17584278635168,-23.74481148608683,6.1775815791531095,-54.057264618867286,-22.078715930414063,3.174232969453872
0.16,-32.674427702766536,-19.899996737587955,-40.18383371804464,-23.97604311082708,7.856641331568959,-51.82066394501754,-19.982410079251007,7.5763698443343195
0.164,-36.10209626909969,-20.71687276744322,-42.28740347273791,-25.259924226273622,7.115841881367489,-50.76702640962593,-21.563735977141896,9.342966753979143
0.168,-39.549217526204714,-22.58000034738808,-44.36023171650247,-26.396050192496276,5.341463490427351,-50.06925750406883,-24.65952815094294,9.877539997444199
0.17200000000000001,-41.60568267450658,-24.238544932071267,-44.97131176400461,-26.86621089823396,3.6149156406654086,-49.35333645633922,-27.7386855645584,10.054569068569876
0.176,-41.73587540542903,-25.042183363728654,-43.79432892286606,-26.708149025991652,2.492537054015404,-48.75957576132113,-30.300679068424117,9.943294179927845
0.18,-40.263319568281446,-24.97852645403559,-41.448076717398045,-26.123165985519016,2.1339413003680505,-48.71161598481463,-32.62946327804436,9.080752579892364
0.184,-38.013830092255226,-24.389029669137507,-38.90467326832531,-25.136915038719756,2.5515819646878395,-49.529771849344726,-35.149133285313226,7.037752699534849
0.188,-35.83859368482705,-23.603669778266127,-36.85725925188218,-23.537779374114262,3.7613071836999854,-51.109490610904096,-37.85685878599748,3.902465700193689
0.192,-34.27097161895181,-22.749571061824547,-35.430253773126054,-21.128031591496047,5.720580728750717,-52.87300348945357,-40.21591145740953,0.3765687467480161
0.196,-33.44708406790874,-21.817867957499157,-34.34572359407727,-18.089614448290046,8.133485926803202,-54.034331680786686,-41.52098463207941,-2.5566322385203897
0.2,-33.23400262892441,-20.85886498677201,-33.34207550028047,-15.144456340096818,10.345471778824,-53.99883275963258,-41.42671514925485,-4.153974600789514
0.20400000000000001,-33.38633958833835,-20.07295317101601,-32.46249237038407,-13.309839154335378,11.48644444353634,-52.642427356117025,-40.213396927846134,-4.29513593265238
0.20800000000000002,-33.6629520518555,-19.7238933542119,-32.032400792077304,-13.375647698184226,10.845299527156616,-50.345824623465866,-38.622325174074845,-3.501144076848796
0.212,-33.90721024314807,-19.955821605246093,-32.40283599490102,-15.441409606730023,8.251401661449258,-47.830167611663256,-37.41519303354011,-2.6074077708388153
0.216,-34.10914644660094,-20.66758227759585,-33.66816587099208,-18.810952906420656,4.217113807846985,-45.89852758097814,-36.96233676553473,-2.305132895371994
0.22,-34.41232647160389,-21.54179819844819,-35.534498083383085,-22.299750615067826,-0.24574455438019882,-45.15398839700519,-37.09775634319314,-2.7987716216745593
0.224,-34.99481189034811,-22.19328075476884,-37.37676845199525,-24.752625747210153,-4.050064948608352,-45.75631441900937,-37.27228123618062,-3.75305548333837
0.228,-35.92154011476671,-22.380883354152502,-38.51383395142402,-25.525528148004412,-6.480001664957989,-47.3521799714692,-36.930719626251346,-4.537112297633126
0.232,-37.06365404156322,-22.153589815559094,-38.56848590656686,-24.70255791312592,-7.43215750789985,-49.23658257363064,-35.885699059130566,-4.609621765999613
0.23600000000000002,-38.087982580856455,-21.795081185796423,-37.63863424876999,-22.92952283919502,-7.329063993204802,-50.63594669633294,-34.41287085315756,-3.8184539694503137
0.24,-38.58038164228725,-21.617965565656434,-36.21265770518959,-21.011801487158657,-6.7806168117983745,-51.01544747041934,-33.05596646780516,-2.457967336651567
0.244,-38.285256970268364,-21.768177296707197,-34.92828020519948,-19.542900876855278,-6.230467593475783,-50.3174641020685,-32.30641285505417,-1.1018361028453878
0.248,-37.30382175597665,-22.150169014083733,-34.28551740988178,-18.726004480475332,-5.777515495403389,-48.98646685672294,-32.337202813573796,-0.31366861261240864
0.252,-36.08081173483356,-22.498942514526142,-34.424815792597364,-18.409411034483554,-5.2392903870112155,-47.71446327625784,-32.91579499447728,-0.39136597481599633
0.256,-35.16366936525969,-22.546388085396227,-35.09138351056046,-18.271462842532447,-4.384372561249941,-47.042393853498794,-33.53604408894298,-1.275093424103975
0.26,-34.904845518814014,-22.20403245555869,-35.8454538282253,-18.059521163916074,-3.174165288263233,-47.07629883909598,-33.731126718694334,-2.650843549485911
0.264,-35.26918258374889,-21.634663749427418,-36.372340057508595,-17.755259224304304,-1.8638702435334507,-47.46977832168791,-33.37099000848195,-4.165701189472202
0.268,-35.83773084152814,-21.129325710407137,-36.6551474350916,-17.563337722519506,-0.881281593292194,-47.641663998920514,-32.73848590231428,-5.606792217663676
0.272,-35.993281413139655,-20.844436373311265,-36.870437183796,-17.72753815218679,-0.556007191091604,-47.07142951773088,-32.314714385047324,-6.9409051259564105
0.276,-35.226746224468826,-20.608102086116006,-37.12621639554324,-18.314513035198416,-0.891495479014262,-45.5417784587534,-32.43285499485971,-8.226830308099082
0.28,-33.4624715022352,-20.00382487994782,-37.30868812383105,-19.144600763979447,-1.5502426583001965,-43.26807080554171,-33.076725744903236,-9.493355425649373
0.28400000000000003,-31.201432065427035,-18.700838493165286,-37.156198258010924,-19.899691213114775,-2.061944526548502,-40.845264001941835,-33.94288060031586,-10.675236804442292
0.28800000000000003,-29.34323853896698,-16.792692869188418,-36.47165632286474,-20.305206098685947,-2.108017183259957,-38.990960622588055,-34.67499596413911,-11.637850414844522
0.292,-28.720522984058324,-14.871638689848403,-35.274716915084156,-20.255625301489346,-1.6995127410297588,-38.171864107531604,-35.076836030322134,-12.262569738851493
0.296,-29.605825725973737,-13.754151571901772,-33.79039484301311,-19.835984787974994,-1.1492237730282326,-38.32519604207572,-35.180546328836655,-12.533034968871801
0.3,-31.53960842728599,-14.03328015390066,-32.34660991784619,-19.29403802441789,-0.8907824443043637,-38.89965360284627,-35.19268029652245,-12.581329156409566
0.304,-33.59361912776971,-15.71681098793295,-31.251496237678445,-18.991175808859722,-1.2624611657898521,-39.199318698559416,-35.363215632835285,-12.664197191124995
0.308,-34.891342922873115,-18.149993105434774,-30.685606071407165,-19.309033022341588,-2.3618286487599187,-38.794988058027016,-35.84142804002352,-13.066512813387506
0.312,-35.05032352027164,-20.271041239379162,-30.626560696033177,-20.495834625309126,-4.028018890694794,-37.730381397523345,-36.56768641663536,-13.971558586600173
0.316,-34.31451300833411,-21.098244180545237,-30.852551041043327,-22.50708171350174,-5.937308529900654,-36.41715216655757,-37.2626294926022,-15.362586708856616
0.32,-33.34895208310382,-20.228941174791228,-31.074436830127404,-24.947866167314654,-7.751465705332816,-35.33506242370021,-37.57220742395931,-17.010966553060406
0.324,-32.836493132783566,-18.08398109907548,-31.117270231201218,-27.176618825370724,-9.251906723326725,-34.73902208886327,-37.284545973344166,-18.564862825010998
0.328,-33.10283316675877,-15.734148922479818,-31.02219178211909,-28.538321541381574,-10.397680444603495,-34.528861043523754,-36.462798738106905,-19.693559824768187
0.332,-33.938947149333345,-14.365437934353016,-30.980160770131775,-28.612218200188813,-11.296138189070692,-34.32101845076013,-35.38309825410586,-20.210787611924083
0.336,-34.731128113961475,-14.692797486310367,-31.1716899225212,-27.385567206750228,-12.138084307204926,-33.69120229308372,-34.34639545595502,-20.138468072210003
0.34,-34.849698101984394,-16.668923554385863,-31.678873272076352,-25.301844917701565,-13.141180122668604,-32.47722067676857,-33.52243822514707,-19.69524542848614
0.34400000000000003,-34.05512390053812,-19.618730628727377,-32.50691455128957,-23.132541178195368,-14.496927054300969,-30.952591432378128,-32.91866896943004,-19.214599159478357
0.34800000000000003,-32.65768575248903,-22.66970346136742,-33.635474705885045,-21.680946747244462,-16.287697624837737,-29.720132046514372,-32.46209264603242,-19.008646913561638
0.352,-31.310485530899705,-25.17748047917537,-34.986780380457574,-21.41108516919277,-18.378827150767684,-29.333910733897724,-32.09793734335443,-19.216472574172954
0.356,-30.58067885528996,-26.9131209567803,-36.31651522597285,-22.193779403180837,-20.352401453948872,-29.88803160463411,-31.835848294901282,-19.70936414139058
0.36,-30.609356763336503,-27.97395160751584,-37.182025643847226,-23.353080660764228,-21.57542251056217,-30.884542486874516,-31.754212771301294,-20.11667918484944
0.364,-31.062268276775935,-28.522814448097353,-37.06117274083303,-24.009249916534262,-21.428339455303806,-31.489485617134363,-31.953994058806632,-19.978867622013986
0.368,-31.366782661498483,-28.54261175719641,-35.58040365002732,-23.536967353180316,-19.603154997494173,-31.01209784632142,-32.46792356190995,-18.9654342784441
0.372,-31.044420008259557,-27.75145082811302,-32.71297249567448,-21.871022029791,-16.30265608138542,-29.2880265095894,-33.151345165749284,-17.050655002690036
0.376,-29.944496733318996,-25.74161645154564,-28.84030545086857,-19.5063100719333,-12.211352925551656,-26.75073539545706,-33.64160797896978,-14.5633226645296
0.38,-28.302085600896806,-22.295490436145563,-24.68212631125763,-17.23896705405131,-8.235339310285244,-24.19983991078352,-33.47728431159484,-12.078434755539474
0.384,-26.610247588730445,-17.682174790814717,-21.092930735457774,-15.789256997808518,-5.13262219338711,-22.4053830458512,-32.32911440123906,-10.1918192462266
0.388,-25.36707005667153,-12.713126514336563,-18.768252154111174,-15.47771781577621,-3.219407749319613,-21.74953621897991,-30.20506220394703,-9.274882670832453
0.392,-24.804996634317842,-8.471801822058781,-17.95690258277754,-16.088299003016317,-2.3070616757271,-22.063651165190638,-27.48110037294615,-9.318007490336136
0.396,-24.749154160686313,-5.848815580157066,-18.343931264592754,-16.98483193570589,-1.9023363932424924,-22.73889633046778,-24.732469482965893,-9.938724373155123
0.4,-24.710260427645682,-5.165993846080249,-19.23827152118194,-17.44591649330599,-1.5595312882219825,-23.073899314106676,-22.494893816175008,-10.564320373414933
0.404,-24.15662270062952,-6.089871423734977,-19.98051069416899,-17.041204804904012,-1.1763153842918013,-22.65325696030319,-21.07372680502244,-10.70247879117051
0.40800000000000003,-22.796605035810273,-7.84080006526772,-20.31625113292545,-15.840636424506897,-1.0323720484674155,-21.518040091064247,-20.4665391087287,-10.158021153343539
0.41200000000000003,-20.706802227162456,-9.551798880786613,-20.483494117732825,-14.33746349376389,-1.5425583039654578,-20.03303142140971,-20.397648425297085,-9.087683718657894
0.41600000000000004,-18.265276373282287,-10.594423289382538,-20.975444876678154,-13.148334598841945,-2.899578772114049,-18.579128524207803,-20.44864211794155,-7.882157139494122
0.42,-15.988967869004577,-10.758723915737908,-22.175398720943363,-12.696960621785033,-4.857908602711235,-17.32708384125472,-20.24990623673062,-6.959249618170033
0.424,-14.355884649029514,-10.237195354021818,-24.078425935636098,-13.04165297319231,-6.818355590951061,-16.23530502889425,-19.639790241328143,-6.58253609443435
0.428,-13.64845867432836,-9.436779263704675,-26.232680837864304,-13.889516871008258,-8.15124122382318,-15.216504413748403,-18.69501510444561,-6.777568520281191
0.432,-13.832428071951844,-8.713172285134696,-27.889510671217195,-14.7279353405672,-8.533080367555055,-14.290066617303653,-17.603807246217396,-7.349376136555488
0.436,-14.522652838536217,-8.174795894657514,-28.293816459694824,-14.99789152075006,-8.081212150086863,-13.594635514143256,-16.476950619359663,-7.968023295932289
0.44,-15.114407716977599,-7.678798192025782,-27.02491026129163,-14.271039478474766,-7.20342665256044,-13.28136033221094,-15.262620247399393,-8.277081162486176
0.444,-15.0517001795344,-6.990961405235489,-24.222513054074316,-12.398702630714963,-6.27369786757836,-13.380445606070985,-13.820953595132679,-7.990723117327404
0.448,-14.105289390668116,-5.986800284246881,-20.568369237433863,-9.583258501501138,-5.359603081861654,-13.7346454138518,-12.093270627847437,-6.961433338627447
0.452,-12.49933495558501,-4.7441150175070455,-16.989696234242956,-6.332217407685917,-4.1830279853664285,-14.029383214587462,-10.216428119448427,-5.213221378962794
0.456,-10.820895304726328,-3.4892525063818547,-14.244104000676188,-3.3162740360548906,-2.360582386342971,-13.920929053492827,-8.49462297421569,-2.9515742883653493
0.46,-9.774518393380244,-2.4768208266022413,-12.634996580458346,-1.1867522563166986,0.23158971292825203,-13.220316096641639,-7.2683592858495505,-0.5423039344351865
0.464,-9.881422722125205,-1.8879411733549223,-11.972283159919822,-0.38530721558116476,3.2298694845277858,-12.012640587957286,-6.73585504128171,1.567095567821804
0.468,-11.250473788144461,-1.7859380882508267,-11.754245902413862,-0.979062294976877,5.880385269150091,-10.610262269355829,-6.816013962866134,2.9912390965429916
0.47200000000000003,-13.493554732751395,-2.107809092334325,-11.422877592913084,-2.5636325175640153,7.444205916539966,-9.338057450921148,-7.1289660862422135,3.5711297818291188
0.47600000000000003,-15.848788643299006,-2.6924714932812543,-10.577847644443283,-4.327002461521125,7.653632060078666,-8.31222898657212,-7.121807041984587,3.471879354137558
0.48,-17.510698083116672,-3.353824112002199,-9.123367752969294,-5.334241149272261,6.906331602808884,-7.406287590538287,-6.331171542845389,3.1247314080712254
0.484,-18.00490231377933,-3.96547040335098,-7.309405227465005,-4.946403200509691,6.036636510724298,-6.4289312407019175,-4.650643563012917,3.007547465027021
0.488,-17.393967408962958,-4.497073057300043,-5.6349056132286215,-3.1589796635687595,5.800173983053504,-5.361729145967075,-2.4238416907338873,3.384914950176244
0.492,-16.170962771294874,-4.9656780089617545,-4.619661207379755,-0.6379215132917135,6.4026982156255094,-4.446014630958344,-0.27728672947854793,4.158966747395191
0.496,-14.920460091350261,-5.353664776917355,-4.54815027228206,1.5896424483807188,7.369666237209117,-4.038825842843709,1.2248520284656887,4.924321583343013
0.5,-13.984338010019341,-5.586131969822898,-5.356220132966364,2.623356641203623,7.841949527278006,-4.354347250834073,1.8719984495495101,5.214625362643923
0.504,-13.323282961991957,-5.589934162590772,-6.705620994005585,2.112566714222763,7.121683754056583,-5.27218465010256,1.8703929269916815,4.798693607929776
0.508,-12.62630904618954,-5.379788290987964,-8.179645124066642,0.4089524741432924,5.138455582372739,-6.340253667665094,1.6604719618138253,3.855520917811501
0.512,-11.566102598552558,-5.090455455514893,-9.458731183270329,-1.6204931133857094,2.5562205327884584,-6.96818418276743,1.6213829581761257,2.918591266336834
0.516,-10.03208137778574,-4.917909752810802,-10.379825512721041,-3.0216595548163556,0.45358185600367484,-6.712281191771511,1.8508628531795503,2.608735094091329
0.52,-8.23482714359861,-5.016558325185529,-10.910191667703637,-3.2254568099042906,-0.23762861958122272,-5.518095939910032,2.11958063847852,3.2942119733359387
0.524,-6.627916690242193,-5.410137043576382,-11.072511665586466,-2.3110144900544975,0.7989250772982963,-3.774093300387852,2.0368341539151853,4.876579495737634
0.528,-5.694239707320996,-5.956984116718884,-10.860050042996052,-0.9160813103005339,3.1621996824936343,-2.124256024910098,1.3361294668801027,6.837576389635317
0.532,-5.703827522325577,-6.372859314347036,-10.175211878608797,0.16172565203127398,6.036753000052647,-1.1246746773130596,0.12313190280902142,8.52408358537342
0.536,-6.5829438353721335,-6.318145331545322,-8.843307871983068,0.4384615284287001,8.68987970432378,-0.9553256614219441,-1.0731537893719627,9.505087978205726
0.54,-7.988531254752452,-5.551464857384921,-6.745143149006512,-0.008302465207393972,10.835837359582712,-1.3889262345066822,-1.534393850616175,9.780758204876193
0.544,-9.511898981181798,-4.072661323243626,-3.9834273946194063,-0.6440677382680118,12.66168321634417,-2.0195209634834184,-0.7465743746512323,9.72532602382055
0.548,-10.85617085708941,-2.164918902605085,-0.9580554635292913,-0.8480897944733741,14.548931110957628,-2.5742182798598447,1.2808341236352923,9.816374270844246
0.552,-11.857057802344832,-0.2883057439567267,1.748352730329775,-0.2920065429269769,16.71571583512368,-3.0705860458828163,3.987417701457491,10.335107179748535
0.556,-12.370630058720167,1.1231115504116786,3.626579077837759,0.8898057732095968,19.018723233435225,-3.722128359581035,6.552136531192128,11.227135011429755
0.56,-12.196051917200425,1.8267273809283031,4.453503261135184,2.188338325514904,21.01297952435099,-4.710249071811164,8.291181030830103,12.185013550059004
0.5640000000000001,-11.132776523393009,1.8203739699546393,4.340709950787928,2.998070878311859,22.199901954231024,-5.999608994680896,8.933520937351407,12.875955957222798
0.5680000000000001,-9.173030801702858,1.2700446355388813,3.605948757737014,2.917954626743306,22.278480910526106,-7.32507771436854,8.637536634919453,13.158848710715946
0.5720000000000001,-6.671038800686631,0.3930434412353836,2.582320964377633,1.9377962685194312,21.254855114666597,-8.33796163941715,7.7881404940818735,13.15090576736107
0.5760000000000001,-4.318413497696707,-0.6122494341743032,1.4893459303384233,0.446016262569767,19.369681686105935,-8.798063601710341,6.7343956736566595,13.11817450755144
0.58,-2.8973603954295175,-1.5852204796214315,0.391359291608504,-0.9360742471317032,16.928355949588482,-8.698124969395934,5.613243369722819,13.272147967431104
0.584,-2.895841249830652,-2.3869217404876477,-0.7456392597086294,-1.5919411902120748,14.176489436467012,-8.233456937692123,4.365178882379666,13.613817969931395
0.588,-4.190997132728842,-2.882555014382409,-1.9461243200702483,-1.1063129775049978,11.304314563762922,-7.628426679288338,2.9136077051049742,13.942692061265065
0.592,-5.993727690879306,-2.950482710793567,-3.1269494967719553,0.6456784731866545,8.541398664454215,-6.92992902968173,1.3849583760177677,14.0232317361157
0.596,-7.135372050821273,-2.529986221681779,-4.077081158197816,3.500139808966671,6.219270839884774,-5.932869328601115,0.18988876853255454,13.782448521245081
0.6,-6.643500101532558,-1.7043561101436058,-4.5712599576546,7.016299413885838,4.690355340966667,-4.349406170276431,-0.15239668187582112,13.38654190131539
0.604,-4.297966263698961,-0.7372275989117962,-4.531653980798674,10.509321474215245,4.1297307860088015,-2.118888238871274,0.6563348291405662,13.140528010836054
0.608,-0.8334962786797879,-0.00037485892234823126,-4.1110780630535535,13.157578184832406,4.372085507293769,0.37064988918430153,2.4326106881961267,13.280594838126717
0.612,2.3653999203544593,0.21331914344683867,-3.6136760365614515,14.22091471563522,4.9323855680953885,2.3580560652984492,4.523500597421866,13.805803161596153
0.616,3.95282682986746,-0.10699244832603849,-3.2908532223239924,13.326728176999572,5.248791072035123,3.087160975032611,6.122773499097519,14.47078219257183
0.62,3.3006715088114333,-0.6313085331640327,-3.177851721479047,10.67909765302797,5.0288916168249225,2.252734492245951,6.691758326056209,14.941497704013113
0.624,0.7997687993526341,-0.8375344600997785,-3.0776442187453203,7.052695536949775,4.485521660411341,0.24365739684289167,6.242255964921748,15.009109068728291
0.628,-2.373784430232895,-0.31050752881005605,-2.7050762857805504,3.523000822132037,4.279951357792761,-1.9926225688447068,5.317502827928043,14.713509596446459
0.632,-4.8641650838667685,0.997910522506086,-1.8732926589424679,1.0557624462909043,5.179204618800717,-3.39823671946972,4.695593894445896,14.298322546346673
0.636,-5.765227895044712,2.7212485332295833,-0.5953499665487518,0.1551924444758157,7.606661939636031,-3.325954399979377,4.984430996133559,14.031679631813647
0.64,-4.9647243796529485,4.275605747326123,0.9266853245744757,0.7230634074586915,11.337973738507724,-1.8741473510561244,6.313446612174546,14.011065427316304
0.644,-3.0609035528320936,5.191234070478042,2.3998153132603672,2.1882016070057206,15.51138757378026,0.15109635433770752,8.281062614724965,14.079252054320785
0.648,-0.9479858722006318,5.388485106127842,3.561452690715745,3.8343276641246105,18.96515967349977,1.6436826883007702,10.167871082028466,13.911991801344058
0.652,0.6763395688082809,5.234322916301885,4.275915104518592,5.152552988777245,20.739094460014332,1.7787477389616857,11.29647919899395,13.227276130534086
0.656,1.6013668471696185,5.32883073404312,4.5650562433261435,6.022943730479072,20.47195010282524,0.45684931101873394,11.335739005241646,11.976335389518425
0.66,2.0367695991762993,6.122132424525887,4.540591668641518,6.628845056278921,18.499113802189267,-1.6498116519666102,10.383121051692132,10.387542533204712
0.664,2.3000184145188713,7.589867575652787,4.307181421496042,7.189536501140987,15.632827029617538,-3.465408814702659,8.818550543185697,8.838029869119321
0.668,2.513876982323408,9.175398238179238,3.907164569029554,7.703746849448878,12.768175089699652,-4.074156329543804,7.050496633775458,7.631093874090448
0.672,2.5447363701592605,10.07356660372853,3.357377768992176,7.894208884868389,10.533993249463425,-3.155318242878394,5.341334747846034,6.82351326194372
0.676,2.2012756363530492,9.696850914770753,2.7307594463473026,7.3837451001251235,9.137301913496437,-1.0848615387813196,3.7898742666142113,6.199185386856481
0.68,1.4850784344348078,8.022586599422587,2.161166232442693,5.956439233299872,8.412555066210313,1.2952507439585519,2.4042409709608767,5.386634622049301
0.684,0.683596297711274,5.610458587830864,1.7546063609544864,3.7227736716321598,7.999077075402512,3.090345906471414,1.1764361949038213,4.049862772283663
0.6880000000000001,0.2003918500729811,3.279165688433867,1.4714864209016536,1.0810431343303777,7.5361544521451655,3.727443446599487,0.09482505761701354,2.0408937603995128
0.6920000000000001,0.24246447777142954,1.6584341298564755,1.108370562324243,-1.4767504319591014,6.807908989594197,3.146052005730669,-0.8729577950719527,-0.5465705456438172
0.6960000000000001,0.5948232117533623,0.8903210794213452,0.43482502032608306,-3.5826604813634173,5.811127742626597,1.7538024603569324,-1.7709060090517053,-3.4192840069590655
0.7000000000000001,0.6470126079871004,0.6327343077985788,-0.6123619866257899,-5.107951016813822,4.7468646907215755,0.17970366383833003,-2.613592423810851,-6.187481091860647
0.704,-0.29835702135036035,0.33355581447319116,-1.8084031060290675,-6.119933830147378,3.941125356063343,-1.0419348887937163,-3.3287483414931867,-8.483525226728226
0.708,-2.6073520947358926,-0.4168836078332858,-2.7095827152107588,-6.742784678473391,3.701788897671994,-1.7082149591164644,-3.7389732538777407,-10.060275333929594
0.712,-6.023737675260448,-1.6691835173569873,-2.8904474602850057,-7.0239338614230045,4.1563992367248925,-1.9920988332685319,-3.6154948686744213,-10.845905191951768
0.716,-9.690364984691914,-3.154415353242414,-2.213689263074155,-6.905857270634402,5.145719365575102,-2.2902001333132214,-2.7954716576658116,-10.952203608522577
0.72,-12.52161453887416,-4.5381085778522605,-0.998308657166362,-6.339277669141982,6.234232207613466,-2.980362163050386,-1.3288220540370488,-10.63555611552166
0.724,-13.72585144401148,-5.6876815139867745,0.05874233396475148,-5.443159827705518,6.873643678691577,-4.207719668092632,0.45343687686735157,-10.20550616038826
0.728,-13.181026781371195,-6.752399623509096,0.21097053396745746,-4.572216534983724,6.678007743649561,-5.790321876289573,2.025775166599461,-9.897328284431634
0.732,-11.43834788482448,-7.98631014140579,-0.9083707172990971,-4.201121625201376,5.678957816936773,-7.270335880779985,2.8923947334656868,-9.762187502103334
0.736,-9.363340350070594,-9.450716830870332,-2.999640044350002,-4.672566890669397,4.3940536947578615,-8.092516546396745,2.828189409567023,-9.642967661621054
0.74,-7.65512850474114,-10.83908354420978,-5.173187868154562,-5.973794833475813,3.6212109015533667,-7.858998968694333,1.9707902851677832,-9.274195571617913
0.744,-6.524223311284455,-11.583876234235635,-6.379270411959942,-7.67768519300941,4.0236069402519385,-6.54691176757127,0.701169078294487,-8.474964177498428
0.748,-5.694176010357685,-11.192678853933439,-5.963541915086905,-9.089804923098773,5.734527396693803,-4.562800021346607,-0.608138644258998,-7.324115876770391
0.752,-4.662571902881497,-9.574393613160808,-4.005861395947858,-9.511809429944229,8.235542649377688,-2.5646808138919583,-1.7877617148265819,-6.192104933488286
0.756,-3.0359105452837065,-7.130140117383052,-1.2438152744975106,-8.49378856575639,10.594802363687357,-1.1243427417734528,-2.87565585361417,-5.589919889332533
0.76,-0.778969981314273,-4.5592513630364255,1.329243291592932,-5.997022416748516,11.937701357456755,-0.44363186684959643,-3.962746989759073,-5.909824981081975
0.764,1.744621211638124,-2.501904301730219,2.9433714483409004,-2.427825914283674,11.878317388644613,-0.29358399252635126,-5.0194163756262835,-7.208326194557877
0.768,3.919253495960537,-1.2622515053105325,3.3231392595696185,1.4412964086598206,10.64478550416632,-0.2239556179078117,-5.86001217910867,-9.169963083489188
0.772,5.108516509453633,-0.780736150323079,2.6381023634546743,4.6393902748110385,8.84105446732101,0.08045028068491078,-6.272297783291596,-11.272960497891354
0.776,4.8844421361558235,-0.8395765961777331,1.2345000607608951,6.249120790722913,7.022972971083383,0.5327394356066604,-6.205396000263846,-13.041702642851224
0.78,3.1625719593089467,-1.3469580960406162,-0.6493996551955978,5.698280226794608,5.377941286401294,0.6422422758482966,-5.8782206576459775,-14.222436085770957
0.784,0.2368421101776077,-2.449338024814196,-2.9481531432834327,3.0279531625342253,3.7347368171363247,-0.18139831748753643,-5.674886165761841,-14.766651899203021
0.788,-3.2523205420724244,-4.356131391066922,-5.576995027041479,-0.9712916797093101,1.8961943957297782,-2.178732556294139,-5.8458731316891654,-14.651695988304667
0.792,-6.42239302687106,-6.9925523099495255,-8.151047001117055,-4.889871892513271,0.038513365718822135,-4.924917452889596,-6.21947611298917,-13.71351963282817
0.796,-8.355757091293263,-9.76082454244703,-9.893899342922378,-7.150824164427951,-1.1641711562646755,-7.388946286407689,-6.179775424293762,-11.682723599107153
0.8,-8.44277712345663,-11.680650337688013,-9.944281956088052,-6.70115355999819,-0.871431820400991,-8.435294536931606,-5.04258542347309,-8.483450116568442
0.804,-6.752005614672692,-11.92219669029547,-7.953324123809563,-3.651449044488775,1.2796385238348202,-7.528550650584549,-2.671316378136143,-4.640620372116113
0.808,-4.227171755877382,-10.44110891709887,-4.606357043457255,0.5055201836877259,4.631630939156082,-5.234127937782744,0.053155458230135455,-1.4876502706523524
0.812,-2.4960872457707786,-8.274127177933806,-1.6412877773126673,3.34310533377549,7.493383405651706,-3.151990201557414,1.316802404175537,-0.9110623892152683
0.8160000000000001,-3.2503597756295117,-7.197628079127712,-1.1838474689522958,2.5315492217216518,7.805277853640069,-3.2209988597183075,-0.866793480135317,-4.6194657957025225
0.8200000000000001,-7.420746836447026,-8.841524157203642,-4.670840029115209,-2.9919678192293935,4.209830421416194,-6.720409046709312,-7.547121150008133,-13.230328318200556
0.8240000000000001,-14.540141653845488,-13.697263005763052,-11.916913506300146,-12.306607959552842,-3.0422492953654228,-13.483436481214529,-17.961245651297236,-25.649026050564167
0.8280000000000001,-22.67199954592104,-20.594340066057114,-20.89666068733741,-22.678040139736815,-11.90101639159304,-21.774452128640938,-29.441276864747397,-39.13820251735711
0.8320000000000001,-29.0263754108075,-27.00121797633976,-28.452063667460205,-30.60646848531066,-19.234206679270052,-28.92976217614076,-38.275853527461436,-50.14953530152182
0.836,-31.05516583057235,-30.066198864935632,-31.640393000598294,-33.288086175533145,-22.155505121700237,-32.46436792466077,-41.19463472233387,-55.601080194320446
0.84,-27.556905087962537,-27.914259406160745,-29.083696536770663,-29.79918869894199,-19.304090587604783,-31.12070567016265,-36.79036195526561,-54.02736448160349
0.844,-19.246208944213976,-20.53455325929629,-21.61650043776769,-21.420288260518966,-11.433038300898401,-25.355125917938313,-26.17037840150161,-46.08037333891786
0.848,-8.50232604487097,-9.80759466794223,-11.892590711424768,-10.9539260611215,-1.0214143691133613,-17.05461850267949,-12.505940928526066,-34.16656791531872
0.852,1.6264241392101075,1.3386118151088144,-3.1239681455326167,-1.3895874703103228,8.882848944147312,-8.64162953441658,0.32294298853539694,-21.417864623516955
0.856,8.689912829147147,10.186254957671899,2.4034057905720942,5.379797577025898,15.980700087685653,-2.0412042259208487,9.32480975665432,-10.512661939934842
0.86,11.748508829420103,15.23654907992784,4.241145349868925,9.133293531445513,19.540067737586696,1.9705778927283921,13.443960993564247,-2.875657604278732
0.864,11.530133952483103,16.517366558494817,3.6965871065342064,10.970573361551377,20.371011411943876,3.7836441076782386,13.618579195380132,1.4560984241171497
0.868,9.809124498457606,15.140387759995125,2.8636948977184304,12.321134715804284,20.076694964100835,4.4234031935573475,11.934343736362228,3.375241255614732
0.872,8.387582848511315,12.477482719984682,3.3627649819095997,13.947974147006757,20.06285425682885,4.848090281659106,10.410981599429535,4.0016495898333675
0.876,8.229704773688876,9.474888992030806,5.498645575302881,15.520294878257534,20.845702849354083,5.469471358203959,10.076919182173022,4.1196728903299125
0.88,9.13282804283341,6.4283395716884,8.22516699597021,15.931126372680962,21.958037991116093,6.085053300725962,10.729486727302119,3.9830011543298034
0.884,10.04001780597999,3.238961706393424,9.86450730062529,14.11547359223647,22.40470978916563,6.176406751771003,11.380746205216342,3.4731758671386763
0.888,9.74305302320605,-0.1304641027774016,9.10988135800312,9.829871899592655,21.335689472099993,5.324964462806492,11.022028924223047,2.4181346023241366
0.892,7.587712355303751,-3.352101224540877,5.746497186386305,3.922331808747894,18.544615355629663,3.49627468783749,9.241249886628985,0.8397568031479503
0.896,3.8450704800055098,-5.776444600046802,0.7500539153070487,-2.028809080649541,14.569656403474065,1.0756298755348173,6.39078527026803,-1.0008666845365517
0.9,-0.41363387668336227,-6.778554025739769,-4.24832992885821,-6.485629796718929,10.407954337807892,-1.3298421762563302,3.2867976928535683,-2.743870252793678
0.904,-3.819101212203618,-6.153341227264499,-7.77323637655574,-8.668748190055565,7.049375101534854,-3.175011720321259,0.691292327483688,-4.135182280953399
0.908,-5.307748161441767,-4.303874434698075,-9.143412316898232,-8.827554778851479,5.0810556608581505,-4.188882138830069,-1.094025113293478,-5.158322268451429
0.912,-4.550016516576324,-2.1055451435781904,-8.633976342002073,-7.955712655928579,4.528994422338341,-4.427982778741046,-2.2938262264140077,-6.020309172073985
0.916,-2.0268343672410656,-0.5202026176269878,-7.151434367565852,-7.1573802394893935,4.953620728600816,-4.177265610418521,-3.395608301955961,-7.014645771653846
0.92,1.219533396830081,-0.2009212677575163,-5.693929690212432,-7.063273048013036,5.697754502271161,-3.7986376201546337,-4.773352973074432,-8.3340019565175
0.924,4.011682371533224,-1.2937139851096102,-4.908863442077551,-7.608606335724248,6.155233073368555,-3.610675306908316,-6.42745195409187,-9.928066049670626
0.928,5.457817309726382,-3.490876583159066,-4.949183755177685,-8.246428162571851,5.971632503165051,-3.826315403796338,-7.992797109009217,-11.47463931969477
0.932,5.228338279620644,-6.2388597370682675,-5.6035488772637745,-8.399515496174386,5.137676774227533,-4.5246942417073726,-8.973075348120439,-12.472963418734736
0.936,3.623377416788241,-8.939692074213847,-6.5198685245718,-7.839424985290986,3.9697731359522237,-5.626468651995452,-9.02867025453226,-12.43799162326022
0.9400000000000001,1.416051603106279,-11.070226650049289,-7.381208991873958,-6.78468946925072,2.9852433292920573,-6.896551437429316,-8.162079773083514,-11.133292120681965
0.9440000000000001,-0.4779379116540152,-12.232300434926898,-7.961729622062992,-5.716788223350081,2.691563494709362,-8.008977659938202,-6.707949362320507,-8.75085641852845
0.9480000000000001,-1.381816688692202,-12.19197742132434,-8.108088005962575,-5.071491900216792,3.3537784150056273,-8.679253001558845,-5.16391767570774,-5.937999281546402
0.9520000000000001,-1.1295449693038444,-10.944095670950334,-7.721345502031523,-5.003531520914724,4.838913826016286,-8.808445300095517,-3.9592680144639587,-3.6150636333637642
0.9560000000000001,-0.10119610416702685,-8.763325918604046,-6.784430491011014,-5.349733477749466,6.62669925268378,-8.552818742103318,-3.275418808615484,-2.6223563214365626
0.96,0.982687565804528,-6.173610778321372,-5.426540057356947,-5.784189851739594,8.013119703418898,-8.266891240268315,-3.00860285435456,-3.3333694804421263
0.964,1.4184540581799077,-3.800869596907364,-3.9556948113224575,-6.051315466649372,8.418328515914128,-8.334410307377622,-2.8808811590677674,-5.437840423306451
0.968,0.8520404436873754,-2.149809480719404,-2.80762259667501,-6.128558655969924,7.65518301512424,-8.974632724575494,-2.635335260773907,-8.031715995078645
0.972,-0.572470926405396,-1.4076412156406617,-2.3982450363713994,-6.233293994539753,6.016264776109129,-10.118950044228455,-2.2031093151783487,-10.00331643306824
0.976,-2.3073466420986524,-1.3883009720203257,-2.9339366722296845,-6.685187678603569,4.118079150489587,-11.424202166479333,-1.752652172770314,-10.554707945434672
0.98,-3.702219477624805,-1.6811790286973665,-4.305411852862747,-7.724974431782281,2.575815971637251,-12.43547724007242,-1.601305040326956,-9.58907947855431
0.984,-4.335648351435768,-1.9262987086869998,-6.12157030303309,-9.381325566831334,1.684707734183391,-12.803194224807331,-2.0345265375092936,-7.7528393395867035
0.988,-4.20217480938096,-2.0476366208662764,-7.878134351928125,-11.443165091443927,1.2868625499193591,-12.437856581123091,-3.144738592226626,-6.09854290078441
0.992,-3.666306681413495,-2.2949781006501713,-9.169179550251677,-13.538759893288965,0.8944177852200585,-11.519142245364337,-4.766905586840091,-5.537143694111365
0.996,-3.2079776282778276,-3.053054928176575,-9.820395425871776,-15.264978050627874,-0.005832250035680886,-10.358719359291404,-6.539887380325537,-6.378877100821786
1.0,-3.1306226937325166,-4.54202954491058,-9.90751832785456,-16.318417422445457,-1.651944572341506,-9.220972009611117,-8.075408981328602,-8.21214376847752
1.004,-3.409221969332549,-6.605391301640793,-9.675566202146545,-16.600941987953775,-3.891367214280441,-8.217068728618335,-9.146950020147683,-10.185954054756303
1.008,-3.7698487477541587,-8.733956395066702,-9.428474750140065,-16.264171912020984,-6.308154686804986,-7.32982236709355,-9.807324762675993,-11.520644658135438
1.012,-3.9274716719237617,-10.321003085023623,-9.43587927383575,-15.66480380393672,-8.496963179500346,-6.523456457199321,-10.355512734136997,-11.943214714086377
1.016,-3.814818181194944,-10.988391976083655,-9.862056043988668,-15.227591727018515,-10.301837802947082,-5.839321832528691,-11.15689431927574,-11.79927151886109
1.02,-3.644864403117685,-10.77822708291269,-10.729997977428567,-15.251506575451387,-11.861692279352106,-5.400186173762744,-12.419334945162284,-11.781062220066923
1.024,-3.7591147937632656,-10.091653771186595,-11.907327738104494,-15.738198253445319,-13.44757978090314,-5.3126915097303,-14.04857727820455,-12.455758399885244
1.028,-4.371905151894912,-9.425422165332433,-13.139796959233891,-16.34502224220491,-15.205934695412054,-5.553847880450789,-15.68171881875288,-13.899318080413169
1.032,-5.383266889160694,-9.080969284216186,-14.137986488650991,-16.512268032008553,-16.98735665460631,-5.929605397727089,-16.881208059281047,-15.65712606300448
1.036,-6.379798615443513,-9.028586434966742,-14.687258375380502,-15.721998732182836,-18.38650011977014,-6.141757682430066,-17.366383312906613,-17.042841489082157
1.04,-6.8450530477925575,-9.010251234470932,-14.758235710238118,-13.782378625224693,-18.978767196119406,-5.936810668645659,-17.163730689738678,-17.581203469235852
1.044,-6.472440974246276,-8.808360660263602,-14.561606871511348,-10.9957633087433,-18.62179733259329,-5.253378560834877,-16.59176778756131,-17.313471928772955
1.048,-5.401535025480923,-8.490300341140356,-14.501897703800868,-8.11471051404708,-17.63573596227795,-4.278182058770062,-16.096925482323936,-16.774987501470534
1.052,-4.222444541608866,-8.440933876166282,-15.013885856209189,-6.078755010459816,-16.726551613583315,-3.356420652206783,-16.038540240923737,-16.653191029079718
1.056,-3.7204461116625733,-9.135459125720697,-16.338189487711784,-5.643966460927713,-16.684347547435067,-2.8038545880380568,-16.534658744713667,-17.345682745043163
1.06,-4.481982718093292,-10.787529468027369,-18.35921604599259,-7.077935577504157,-18.007066484077104,-2.7359029170830063,-17.454584090608584,-18.69513227403507
1.064,-6.568987608444903,-13.101561067624331,-20.59678853706394,-10.06004382640025,-20.647306877938405,-3.019681598372285,-18.535831948599053,-20.066773500360917
1.068,-9.446588697527933,-15.312182367870989,-22.388099783153603,-13.829774140306206,-24.012662086779834,-3.380517150209407,-19.551767080085366,-20.721948540093226
1.072,-12.189084657107488,-16.51712359812359,-23.166312985805938,-17.486135420843393,-27.20501255111589,-3.5797316058108795,-20.416393113975484,-20.253555754321468
1.076,-13.851808034347995,-16.122257638957727,-22.673435378397084,-20.2758526110522,-29.36068784564097,-3.534975849187955,-21.143134532247565,-18.809039473640194
1.08,-13.844137070206006,-14.151315029421818,-21.0111152664424,-21.756649367995827,-29.924525631031727,-3.313710620964045,-21.715711944922404,-16.962536493501304
1.084,-12.124235774263491,-11.2335132840616,-18.50399761318417,-21.799755882345636,-28.75233824676036,-3.0120708884934224,-21.966378535229154,-15.31886220232614
1.088,-9.159856384635642,-8.287288953031842,-15.491979727118967,-20.499825738599895,-26.05046434568153,-2.625808495608627,-21.575942571195917,-14.103390411729121
1.092,-5.702153568936017,-6.076671299111698,-12.188245553748214,-18.084155371634083,-22.24113917494007,-2.014792070927581,-20.223893612204186,-12.99940181750694
1.096,-2.4763029448136544,-4.868936425084155,-8.673465203565724,-14.865112336040339,-17.843024961225918,-0.9841532727230344,-17.801192730683127,-11.339862139132997
1.1,0.05694590611040162,-4.386222764144061,-5.031714983475811,-11.242977619256347,-13.408641005933607,0.5627369970278266,-14.564040644175206,-8.552148523630738
1.104,1.7870443077379914,-4.047531942595972,-1.5055457231690301,-7.698332639993584,-9.495623567763616,2.5102680883017587,-11.114195494171751,-4.591811972079187
1.108,2.872536105838493,-3.3501860431754125,1.4519985008322376,-4.726374721464708,-6.603823825185214,4.544038646780155,-8.196724329018927,-0.08940583535534152
1.112,3.5660350297268977,-2.1683275207645387,3.300112689334423,-2.721243300191226,-5.052275508489532,6.304229108005286,-6.406145023336755,3.8883053512754273
1.116,4.079292967185539,-0.7891294948254721,3.683514773745866,-1.8469868391027688,-4.8359600702754895,7.603455798587194,-5.921783059222884,6.349159573357097
1.12,4.530843885956822,0.2991311431775898,2.683051970233114,-1.9817313861763672,-5.558892411580761,8.55772063779941,-6.417093576956498,6.881977880202847
1.124,4.973887995862656,0.7128151146737007,0.8803707459308221,-2.7793569288714224,-6.536607949483082,9.533644805598138,-7.191342188643662,5.877235715427986
1.1280000000000001,5.461980250332749,0.38935673715354824,-0.8454566836827127,-3.8205747015282814,-7.060497255555763,10.920735892991058,-7.470694555724471,4.339976564780798
1.1320000000000001,6.073734983792939,-0.41143030661572766,-1.7104946504047565,-4.779135847680613,-6.720065519160054,12.844272006854183,-6.742468457993024,3.385904520890305
1.1360000000000001,6.86667962806257,-1.2941489568030775,-1.384084748672505,-5.51776976117109,-5.614601666884372,15.003848690373369,-4.952837433801498,3.690935599976836
1.1400000000000001,7.781387568177188,-1.9627005037274685,-0.12092086436486937,-6.079194388015647,-4.313985217074444,16.74905298410549,-2.482676254644124,5.188784394491027
1.1440000000000001,8.57029246763679,-2.3610557994383043,1.408902553149117,-6.603229578711504,-3.57087939345356,17.365015700539047,0.07258775581582633,7.157196184420678
1.1480000000000001,8.802646393943705,-2.6660899777408282,2.4814742200906847,-7.252044696203335,-3.9308516213702727,16.406607467868955,2.179307679269761,8.620988636313525
1.1520000000000001,8.004973285528997,-3.1380478964331173,2.682519946427618,-8.172273927085813,-5.43578957626265,13.921445092847549,3.576406595440588,8.854489551250238
1.156,5.9110014670458675,-3.9217284360242246,2.0921286742972445,-9.474767052961159,-7.58292749714858,10.464489614632093,4.3395660953592925,7.72558581686034
1.16,2.7014785277311173,-4.929671860350053,1.194726173126087,-11.20082272499943,-9.559556030486934,6.895967445043924,4.77604329214997,5.727014866039774
1.164,-0.902470530855656,-5.855452599396442,0.5909623237650932,-13.252400767249881,-10.62967811851535,4.075835933490321,5.2231021530013315,3.7110253667949618
1.168,-3.8043276075033896,-6.301491997772606,0.6754885064834912,-15.320736751945752,-10.460806114102422,2.584981511064286,5.855615572333298,2.494684482925999
1.172,-4.927205765441025,-5.946230971804316,1.4673738302694095,-16.882749901123375,-9.20797648383131,2.5816516424694003,6.611617271027816,2.54373622156686
1.176,-3.6729010150643258,-4.657262994129628,2.684763809607718,-17.31412258371406,-7.32964206191346,3.834855996863455,7.280318263847795,3.8677936319718214
1.18,-0.2312503883703645,-2.518022663774241,3.9872800933710715,-16.117455164609904,-5.261225189051212,5.876036969215432,7.686394268860425,6.130774243094297
1.184,4.431486301928279,0.21281542740757153,5.219094680431683,-13.17805494741964,-3.1625330758258103,8.179178053871695,7.864621146228,8.864378527729283
1.188,8.916432699664039,3.158683436966321,6.476909572283526,-8.911755250455023,-0.9015201396101098,10.286273235685915,8.100969323465225,11.643181874603536
1.192,11.937111123184824,5.88188519581508,7.967600343606586,-4.187453493109542,1.7270536153089715,11.863131496002616,8.799129972694363,14.14542201547329
1.196,12.825120367338616,7.951186704930713,9.767653974940103,-0.025766331417957034,4.69177897435598,12.719273028215795,10.239526915754922,16.114598749820086
1.2,11.75965726921605,9.036220832603707,11.644491263737342,2.8005295669382173,7.543794999500827,12.819282288820055,12.359423683812722,17.311535609720913
1.204,9.609749657927514,9.017346903166132,13.074736144625389,4.062609742541365,9.496722664088686,12.283948013470571,14.690491784461557,17.52273686576117
1.208,7.466973028788509,8.054358132655167,13.4584230684845,4.1011340754658505,9.754792028302903,11.35376631051301,16.49532432624655,16.647279089624725
1.212,6.119123348119298,6.559998715439926,12.415386227106627,3.572006634851647,7.916065745820187,10.3053762344293,17.062249867307038,14.795334491287296
1.216,5.742493991153618,5.0818429904368765,10.022217280389357,3.07774705530289,4.2307728278799885,9.359643230181963,16.040099048473433,12.318290315576268
1.22,5.945834934864221,4.121865580988789,6.8433652647292345,2.891624804788001,-0.43016000193804693,8.621539588447662,13.636711422883621,9.726191829574706
1.224,6.109366471358525,3.9696656373484833,3.728927023953622,2.9105824131073703,-4.902211095349444,8.077489661922021,10.566202490493923,7.500521228372391
1.228,5.787377411551334,4.623070317929993,1.4683414797342342,2.8280669905178666,-8.18417151851315,7.6405432946401,7.7406899916826655,5.896571830555306
1.232,4.9377389312807995,5.837709700471701,0.4725560963775992,2.3951394662676044,-9.795726390117451,7.220231709015993,5.85526837937614,4.847088237077584
1.236,3.87937604248513,7.28195465150079,0.6581557309361101,1.6025516556953487,-9.872007864666585,6.788793134669049,5.085313812788404,4.026499401833663
1.24,3.020747668428953,8.706060250767669,1.5732595667325042,0.6751559171729533,-8.969558164363622,6.406256711789565,5.051701763707124,3.052175468024503
1.244,2.557685520650499,10.034166518434533,2.676994279817862,-0.09284569047901514,-7.723672769906667,6.189885220883663,5.076129147284751,1.7069954982993782
1.248,2.3368989687246584,11.323550313856586,3.593545379590135,-0.5387709100756426,-6.557406164106325,6.243479274515184,4.581115611312239,0.06665025331167551
1.252,1.9683784473805404,12.6245713832799,4.209958664316827,-0.7240964175219533,-5.5811967210576094,6.591794528792087,3.417701224064906,-1.5346097685075162
1.256,1.1323370560953507,13.860437302547318,4.608858005112902,-0.8424229725091164,-4.68878508499936,7.166972650017367,1.959514347236316,-2.674542462798026
1.26,-0.1324308238606564,14.808242488764986,4.8981678967910565,-1.0262229171514554,-3.7530226577759485,7.84460182569826,0.9038812263246654,-3.0505799886884186
1.264,-1.3562795735448638,15.198192079369273,5.066696760182054,-1.2089492635762729,-2.7914539524067536,8.498002442852117,0.878133844655685,-2.6243750290933026
1.268,-1.861825838592531,14.861167844670108,4.949567421331456,-1.1562161925446532,-1.9967925216702462,9.026802833088752,2.054111524780074,-1.6329982960606328
1.272,-1.1591832363939583,13.83893605758455,4.3262223021479045,-0.650962177103146,-1.6309057838165444,9.348600491730096,3.9884707037692255,-0.4711630544262335
1.276,0.7294285006397456,12.384035453826746,3.0953667311160276,0.2925846455383241,-1.8752427997150671,9.375688313830084,5.790702288325926,0.4819467972356719
1.28,3.217476779959069,10.853402889589184,1.4107301327879296,1.3595794035319966,-2.723676296137391,9.019854024177022,6.5431985340960015,1.015981000846521
1.284,5.433130665325662,9.566851793975594,-0.30363751996016,2.0919315901162814,-3.973745082002819,8.241474456915014,5.769741335704478,1.1563880077515387
1.288,6.671999040713867,8.701539574941124,-1.500921204446382,2.1738323765277365,-5.306315541593877,7.102790533495012,3.696972849354753,1.1285153234588228
1.292,6.7639723940536705,8.27822291534284,-1.7489923982858113,1.6664866565770704,-6.400015818766348,5.78800024112664,1.1690658196937793,1.2448328211817774
1.296,6.168625287794346,8.238957933932857,-0.9101687632889273,1.0402891605971902,-7.011584150214453,4.57420526494646,-0.7232192212978537,1.7718811466463809
1.3,5.728235686407293,8.537981266002078,0.82091363498576,0.9536080007240262,-7.000813967942099,3.749156308108886,-1.1166598192013646,2.8157506124679617
1.304,6.203382921059924,9.173578561067222,3.033420747145426,1.8809704468499833,-6.330041184985559,3.4999106806330076,0.26808169836574924,4.253532246216731
1.308,7.832602173912084,10.118500486361672,5.278155597273614,3.7995762018239536,-5.0755316670167145,3.814459161407452,3.0367359848744524,5.738502234995598
1.312,10.147079027582368,11.206338396437097,7.212030289533123,6.129313954662679,-3.4498154706965596,4.457176082643645,6.330855816095719,6.789165556126021
1.316,12.153456918819835,12.090093619079063,8.667564132781807,7.992986029061278,-1.788347323229225,5.053624861483741,9.235509290292839,6.956440163142507
1.32,12.791465190578442,12.33035380297067,9.626123671449012,8.66141631050472,-0.4662854084084562,5.252032878638754,11.168985090229047,6.021825875454875
1.324,11.440513129668865,11.596647450997907,10.141909816882038,7.936479358012122,0.2385199833074928,4.88256813429318,12.074944994428686,4.140941057877582
1.328,8.211486856931234,9.861417766455599,10.257099091859828,6.254340198326992,0.27885186660104433,4.025782391735609,12.339285288849904,1.849312829531219
1.332,3.90168979013146,7.467901580347511,9.961829407799936,4.458278318251353,-0.11362545948509489,2.9589135070875403,12.50143585420613,-0.10226261894629762
1.336,-0.3384180398058527,5.018749790325498,9.229270615254535,3.373185344248493,-0.5238884005217003,2.01553723876754,12.935512870594149,-1.0370077448651025
1.34,-3.4596789402433474,3.1259324295977686,8.085993186076056,3.4171339439296995,-0.5609389545670278,1.4376280060036666,13.660968564483436,-0.6475454305628537
1.344,-4.881362399866509,2.157579359065785,6.678627488434678,4.448575851245482,-0.0770596865870441,1.2956930477162245,14.37439567580643,0.8444289509347938
1.348,-4.62894309226037,2.1120228555366394,5.27661977107644,5.902177991334748,0.7263098879514001,1.495501096958118,14.647828911474786,2.7561889206474985
1.352,-3.228055158986037,2.682457765318027,4.201945960589347,7.113802960347668,1.3765403137764451,1.8564049702552299,14.157051100971625,4.221053443259542
1.356,-1.4214256248323673,3.471144712277508,3.727040333533923,7.651327982055391,1.3685707949970825,2.215553474670707,12.83580376246057,4.551687733547682
1.36,0.1509353702823928,4.2156832302236715,3.9802912354065607,7.490044625366127,0.453938555717057,2.5042276215382326,10.892209564071736,3.526972072267813
1.364,1.1696967009195136,4.888319288678739,4.897908191988321,6.9614348136204125,-1.190070798665951,2.7566639471839154,8.69697335198183,1.4588572699311584
1.368,1.66399280516955,5.601846436985762,6.221031231510855,6.521877510777739,-3.0110498937394854,3.03794950151793,6.61706501201211,-0.9857605334601576
1.372,1.877397031405323,6.408339081451626,7.55180212445206,6.48637700169197,-4.321934012034305,3.350075570309107,4.895397784991273,-3.1062273398728024
1.3760000000000001,2.0723788645256294,7.149037268142759,8.472742004459645,6.865392221441817,-4.616442450784243,3.5907186362404673,3.6289200627627602,-4.464996201897119
1.3800000000000001,2.3756471548832527,7.476091501222388,8.686445533462466,7.368231076245366,-3.8018823655864233,3.5993497708199014,2.820558310234314,-5.020345158124976
1.3840000000000001,2.7455247114182653,7.0585767658012015,8.136332695475812,7.561455019877805,-2.23550100891404,3.2701154780911854,2.4494456414814367,-5.049617255917603
1.3880000000000001,3.0419899032876545,5.8325180701208055,7.024912297686484,7.076370618922537,-0.5693633595117382,2.6444895510576867,2.484921245154074,-4.936268806564538
1.3920000000000001,3.1383215415624304,4.116788958383497,5.713276785326473,5.763145252003598,0.5118295691870556,1.9234320993377667,2.8356895200161687,-4.949370756565273
1.3960000000000001,3.0266555365057246,2.5096502036579276,4.566310169112095,3.7503784913759004,0.5401652995595974,1.3948454774654742,3.306444171299708,-5.122720534736216
1.4000000000000001,2.8438073603162057,1.5888652941747283,3.8026374462848533,1.3929631028688245,-0.5920480994625479,1.294044603088031,3.6162634648348884,-5.279553221847451
1.4040000000000001,2.8008008180551034,1.582838072421473,3.4290826345910155,-0.8541166841374452,-2.6263883785219835,1.6711965054975968,3.5088623924469884,-5.16502417093573
1.408,3.0404669217921674,2.1985733027975725,3.2750464156513934,-2.5926798778968307,-5.045071135597767,2.3272703213385664,2.8896415729237304,-4.604505328214794
1.412,3.503399671374223,2.7237785892823245,3.0956542830730998,-3.616941301419548,-7.240662336023268,2.8546959999981985,1.8950999382579146,-3.607627752818052
1.416,3.902179670016826,2.3855716329579044,2.704233434583614,-3.9655608179869755,-8.686567078418719,2.792401431463811,0.8516379980186006,-2.3769054706224635
1.42,3.8261101771438177,0.7739911115434914,2.058444671694371,-3.876206072992888,-9.070698547356454,1.831677422802282,0.12243589395132015,-1.2261523590620458
1.424,2.9499149517750665,-1.8951335986964848,1.267874841596587,-3.6553873983082896,-8.365422625132314,-0.017836454868662255,-0.06925451001204372,-0.4537251707818397
1.428,1.2306366421684451,-4.841176556314332,0.5147641060019392,-3.5298639018104305,-6.817730057605192,-2.3894772907291686,0.24845195108947937,-0.23026624041577382
1.432,-1.0093192778205493,-7.077932384638592,-0.046966651069542564,-3.549069219932713,-4.850166560155246,-4.672468473894292,0.8183230019633012,-0.5343669796381718
1.436,-3.156674859142802,-7.877331448889215,-0.33768858180984385,-3.58425234117709,-2.89996374323822,-6.227121820168971,1.311357480096762,-1.1602371596345407
1.44,-4.523616521570225,-7.104323406036772,-0.3306211430550299,-3.426995799073998,-1.2518622591039845,-6.617086532878066,1.5135339994730086,-1.793033459551613
1.444,-4.596080165955996,-5.245021216722377,0.011296622100700482,-2.9249090086440908,0.055277730063572283,-5.767634681874636,1.4354226203981397,-2.1218162452023748
1.448,-3.2216473616336936,-3.12949571124415,0.7607545248596903,-2.0876331386952725,1.1955088863299033,-3.994229242299644,1.2738531966482796,-1.9506374752695486
1.452,-0.6749842270630007,-1.5138402736624572,1.9711108348824053,-1.1063128513698817,2.40630854322015,-1.890488783131552,1.2611586777550947,-1.257700820946157
1.456,2.4386831553081056,-0.7296934167787956,3.578041233823239,-0.2570155880409106,3.796962353987664,-0.10086067385357866,1.5209357857996686,-0.17362691806977537
1.46,5.387871633948758,-0.5772901599414677,5.3300550750308355,0.2529005503771411,5.231849332762641,0.9308510590916417,2.013510920053049,1.1035278698591746
1.464,7.531902644802802,-0.5048881888028811,6.813586962273633,0.3927311678081443,6.361168835981074,1.1212110255575807,2.5966763865056715,2.398475357025328
1.468,8.461138109175813,0.02657907123015235,7.565165818181865,0.29628198732973754,6.787241017130735,0.7321404021162997,3.125703660445808,3.5992696489761977
1.472,8.025423560544764,1.1901245847029989,7.2265583240941496,0.1292366890495691,6.272563897898742,0.18999098088766164,3.4966369181436607,4.6232423870590935
1.476,6.297756848679729,2.6530489569310824,5.6934250321301105,-0.0663255816952617,4.874645121429274,-0.15288009418055637,3.6253310848679656,5.351265670421953
1.48,3.5356286639229184,3.7355944294908303,3.1912133539389878,-0.4178271797735862,2.9464105029109358,-0.18343136305344188,3.405686687072544,5.619855532682507
1.484,0.17335399943649066,3.7931465785478453,0.2507453691912911,-1.1102552035290056,1.0014774661938497,-0.03232299996832788,2.7369348713600647,5.3218526166981945
1.488,-3.1906472625477034,2.610572141111921,-2.4280468313726904,-2.182393813381094,-0.48248364740426064,0.06962618601186232,1.6316263892119083,4.577957460766699
1.492,-5.860142130030445,0.5917068625614492,-4.173225768572624,-3.369304384185803,-1.2189991966780314,-0.016657053141067468,0.3496122360262053,3.8548043487658328
1.496,-7.1867857795170575,-1.3711746812072958,-4.5296509347386245,-4.123562074152738,-1.1692188737974227,-0.21989966439467512,-0.5704260801933545,3.8786271651267104
1.5,-6.7982523342217025,-2.322405489516097,-3.418986572021149,-3.8709165381817163,-0.5159799817389628,-0.31392237225416597,-0.5045461352052856,5.290770212240113
1.504,-4.812594453740235,-1.7649346026917474,-1.2272945227323957,-2.3941622474553954,0.38674612944545217,-0.13303193150322912,0.8659730838045512,8.157097453903766
1.508,-1.9494747274879058,-0.03096417677426988,1.202485652112959,-0.13776190324695703,1.0446030211333213,0.16840468582145451,3.1486632684609153,11.60731810238437
1.512,0.5771424766980443,1.726655868881869,2.7188237124705723,1.7922448767480206,0.8449060280498679,0.0030691965491915774,5.098605382865918,13.894037776547666
1.516,1.4328005726107826,1.985003568495748,2.1920374940383196,2.0233337403053837,-0.859495397574138,-1.4744949824700244,4.952842381815891,12.988473659393112
1.52,-0.30740594509448327,-0.43220643430715855,-1.0357503777114703,-0.43096678466157945,-4.536257435222348,-4.938656199532449,1.200682521802673,7.539875459424612
1.524,-4.6702875996995825,-5.684962053642309,-6.737674707208231,-5.563383340594911,-10.165160144663957,-10.409401671561724,-6.52596420191522,-2.243396343094556
1.528,-10.584970860940189,-12.63761102944736,-13.656094739052945,-12.145026420940688,-16.97348356650096,-16.99651936831157,-16.925889554173107,-14.289255332885308
1.532,-16.122873321134794,-19.158767041809618,-19.77824880897949,-18.048830930360648,-23.414042031299566,-23.0587174702301,-27.22329565954053,-25.196823664148575
1.536,-19.134407538783606,-22.89432379620657,-22.98337447569267,-21.01957965963441,-27.50974577011768,-26.746982805379208,-34.086315221241605,-31.460006107338558
1.54,-18.065231987325483,-22.191719370100287,-21.840988407845753,-19.565283485617236,-27.505523044942215,-26.715871304086782,-34.910474136011175,-30.849974037133386
1.544,-12.620040803643207,-16.766869223992774,-16.22385835683106,-13.580681147646585,-22.60218616086864,-22.67453525547988,-28.88327161507153,-23.315871914022143
1.548,-3.996708921996579,-7.829357966891946,-7.452899492325425,-4.431420801358827,-13.447590323400497,-15.52866056029191,-17.349801406183225,-10.972707569744934
1.552,5.462273359694169,2.3936586845749663,2.134111420710883,5.540465176860959,-2.0989628919860746,-7.041026445913175,-3.3083525728901977,2.8181223509948854
1.556,13.110216164117288,11.521021366840573,10.05026483616276,13.878329552496758,8.60773114502226,0.8402348994688938,9.7371979916001,14.815997509525818
1.56,16.991049586734718,17.8657210917388,14.579715027406031,18.86620229204088,16.060540875129135,6.670602564233805,19.030207900146088,23.05356701582395
1.564,16.57171479485586,20.91042780454923,15.347046102579098,20.03683526827361,18.82607533409711,9.918434907091441,23.391595069055157,27.26717872508872
1.568,12.870407699157779,21.231072458705626,13.288948547064864,18.15905566139666,17.136015629141266,10.947957348740937,23.32878521187137,28.505775979498743
1.572,7.931617986494473,19.982405906948365,10.079160517191578,14.772533717613948,12.68872826102751,10.642994683798914,20.496447761981248,28.243721534464473
1.576,3.902880260640681,18.262347772134895,7.3334832313047515,11.52397153279112,7.86258840255771,9.914017831051204,16.854702388814765,27.536419147756373
1.58,2.1188260071707186,16.668636502213236,5.967873032284383,9.579409840699961,4.705463978940415,9.324894685141643,13.923038310506426,26.6519910515658
1.584,2.626890234226141,15.237504817454736,5.99619744905043,9.328561226612676,4.1510583361895215,8.985849765824808,12.408295249830655,25.28129465318331
1.588,4.335758908523427,13.698059357301947,6.775067984606698,10.427921112692323,5.790251399094798,8.684383806319651,12.224134511225255,23.075959844542833
1.592,5.6812236754784085,11.830285502379109,7.4896999298827875,12.095154275919628,8.252143554473907,8.11602912886599,12.761149938645692,20.112073360939938
1.596,5.471013510690138,9.717473647001267,7.620498990007542,13.511192915304274,9.974381771657045,7.095632888104591,13.250783820391431,16.99135751732161
1.6,3.474129626692627,7.749917878910827,7.154756341973147,14.154777467589428,9.980845723879984,5.65803595349355,13.073475354055976,14.55811743269393
1.604,0.4770426476793803,6.410144761690852,6.48416292165366,13.949729292199782,8.297410349078962,4.031753712706411,11.957386460261255,13.439180806699772
1.608,-2.187337845042001,5.995313769437065,6.084502025365233,13.198709315227294,5.8422791466425155,2.5274944937120747,10.043963323724125,13.715499563569423
1.612,-3.371247824896596,6.449601986629112,6.187151865496006,12.355728961127998,3.8871837758954992,1.4044071340769482,7.816751815672178,14.911051336111932
1.616,-2.692676487781706,7.404669352317031,6.650182144798397,11.763873674992194,3.3935623105197337,0.7812405636494,5.929516377457208,16.27736382287252
1.62,-0.6642717888397316,8.389211124035544,7.068331798723306,11.486632601677552,4.558479263806068,0.6121005337121677,4.958715169839156,17.174622127872816
1.624,1.6632611055263764,9.077293957547525,7.042019967486553,11.303037278449427,6.764167924084565,0.7166745571426638,5.1541339227545215,17.31614370552205
1.6280000000000001,3.298003596378557,9.415340147890397,6.431546019351355,10.85295893461801,8.925220095811873,0.8380163325115326,6.292800426817649,16.77124985739063
1.6320000000000001,3.7931557506199276,9.563831419805918,5.446516024632064,9.851524244583283,10.025028109838058,0.7142632476744168,7.727735766732467,15.785301751817311
1.6360000000000001,3.373078736197254,9.715609097019566,4.545540007050484,8.270077818803884,9.563204467031907,0.1599286382384335,8.648952058665998,14.56949730367476
1.6400000000000001,2.6632050615579796,9.906958029103544,4.1913695167737615,6.385247740116707,7.717179545180287,-0.8652647621715666,8.44228184117357,13.20774594255079
1.6440000000000001,2.2222528446677963,9.938816988986428,4.592288224584628,4.668772121107423,5.168811302593183,-2.23481850105855,6.9613012489073975,11.70727062135044
1.6480000000000001,2.177885767303188,9.456533645989584,5.550522425288058,3.5722596721274273,2.7260305594055994,-3.7079390726716044,4.56159506589121,10.11083335781804
1.6520000000000001,2.185557507287063,8.145291275103759,6.503079154417593,3.3301289655820523,0.9614883616978922,-5.030772718419694,1.8778765159269701,8.56365180152098
1.6560000000000001,1.742097533722033,5.9426866079389224,6.764524189822751,3.8884205220447967,0.04676037309896408,-6.026654051052232,-0.5165347783262533,7.271440524397487
1.6600000000000001,0.6201278874982279,3.1396720470145727,5.845390473633868,4.976135555540431,-0.1680267551181558,-6.6451600019488115,-2.3765490499019393,6.386899518916939
1.6640000000000001,-0.8627000270090761,0.31681204112895855,3.7155903465199778,6.2739744545251135,0.07736221307744273,-6.941089646082801,-3.8149053548142735,5.9163112644746345
1.668,-1.942084158218628,-1.8642472978601798,0.8850513236860031,7.557150628591424,0.6590280984730388,-7.007859183050342,-5.08981441358949,5.7159318582944465
1.672,-1.856025099307379,-2.934363059559052,-1.7776109814343695,8.711925205239645,1.6112390988427716,-6.928534672013123,-6.313985929836828,5.5770795145458045
1.676,-0.37254896516842617,-2.824530873558623,-3.418696312822532,9.641500059777362,2.986654737583578,-6.7757608361175015,-7.282202293011876,5.333015368590361
1.68,1.934017442038983,-1.9075558517866344,-3.594755803740618,10.159171753077096,4.651577481952257,-6.649896557350203,-7.548383658176856,4.917269026081198
1.684,3.8826826219478145,-0.8226720490591486,-2.470802528596595,10.00227356710274,6.200091130826628,-6.67961557254684,-6.689765033342313,4.360315162985177
1.688,4.283783914258786,-0.1637976855791523,-0.7238455231236056,8.992495686895033,7.078148701612403,-6.97100154725337,-4.605016612973735,3.7478734962652926
1.692,2.6148937229745743,-0.18829560355069663,0.7962938588744262,7.251600906037557,6.8721532361702735,-7.526017832408221,-1.672691883663353,3.1908743097452485
1.696,-0.6161589116940425,-0.6930857266008967,1.4873812292542046,5.315159510900278,5.593023257168213,-8.17694193676154,1.3491673893326575,2.8324617978403652
1.7,-4.051421219506268,-1.1239441093931264,1.2751797514929892,4.001923387060472,3.759355061291183,-8.6083464925286,3.6320947574332023,2.8625731983782314
1.704,-6.126813116189556,-0.8652522883765661,0.614157337146075,4.05435506648414,2.1866731210731887,-8.47216940540381,4.632014212183697,3.483583135395476
1.708,-5.8602591467771195,0.41839673755655027,0.19469366502823782,5.705068241938383,1.5549960762001733,-7.568063464056015,4.293812523184791,4.79464501353864
1.712,-3.3813210086795737,2.549206014013498,0.49266825903851563,8.410050823664848,1.9868638784627772,-6.004023849859787,2.982048585057376,6.635092429010134
1.716,0.09585117058637627,4.850585213353482,1.4234173313348277,10.965889046632507,2.897253095841208,-4.215205746935921,1.204007790405244,8.506591937282996
1.72,2.8531220897323863,6.420960381207186,2.3101986093329456,12.013687498043423,3.2328241896090164,-2.8014876418721197,-0.7042349329412068,9.665977790479797
1.724,3.515658853007804,6.559586370545222,2.2288470125543105,10.714833851941014,2.0190268790463275,-2.228001637585689,-2.732071059686314,9.404768128838258
1.728,1.7219875052598743,5.138567783180111,0.5456617747459971,7.238856495065558,-1.0727045054012851,-2.555929203776631,-5.1171797079940555,7.396177684214656
1.732,-1.7421806828275854,2.7094431088013176,-2.6700937231053725,2.754316845592875,-5.468426555117012,-3.375280804498444,-8.109164665271647,3.9168554557467066
1.736,-5.3917039269740314,0.2746692694837347,-6.591260992611295,-1.112165148855155,-9.912534208812758,-3.9914221823250555,-11.721108259490572,-0.20770889485998545
1.74,-7.806462185443657,-1.1702960335570147,-9.985310301354026,-3.0849944147525243,-13.072380117014351,-3.7791205307092985,-15.62215243180065,-3.936977352654715
1.744,-8.296402368316198,-1.0965975989710568,-11.784818558835703,-2.8756575393268604,-14.200210857501803,-2.497315958485804,-19.21803058381476,-6.467382374313502
1.748,-7.142787445301506,0.31049794922618057,-11.58080044287473,-1.3049839655718876,-13.494977963359238,-0.40140231691684214,-21.880651976540626,-7.574339577233274
1.752,-5.335783841732603,2.2318946326976703,-9.789172544542534,0.1533805372346373,-11.957381533966007,1.892993281212269,-23.212985602196138,-7.656634901044248
1.756,-3.9933969526813335,3.5874159999946267,-7.398699495749688,0.17077427109164223,-10.807975876585042,3.7180983590259604,-23.21178608455424,-7.46408841965574
1.76,-3.7942189744579347,3.5206763226360915,-5.444614691845912,-1.7299730375195523,-10.783172020541084,4.659746014075468,-22.253173435434647,-7.665973626384936
1.764,-4.7072137773894625,1.779965486446971,-4.484311103063965,-4.928853986072593,-11.699894071321461,4.712465873857263,-20.91462508578598,-8.499268417181735
1.768,-6.111917480456283,-1.1775524531235133,-4.360927954436834,-8.048728722882935,-12.544728374153834,4.20735636337601,-19.72788139859853,-9.688037201262368
1.772,-7.207657997843395,-4.407600905069852,-4.390179202761238,-9.690554252716025,-12.052922811893097,3.571991780229292,-18.99665006548827,-10.666943072174314
1.776,-7.440820645513322,-6.900874360700961,-3.837033836412281,-9.147100520510053,-9.458881955212144,3.08933207225607,-18.744575908426196,-10.960869194763328
1.78,-6.716146673901985,-8.000853324915965,-2.3945597410454598,-6.712759171140941,-5.004198316760834,2.7976216569965855,-18.786903776308776,-10.486427757705627
1.784,-5.3147004762665615,-7.628226625830909,-0.3720203945886591,-3.4403582504483188,0.0943457893578592,2.5852566447067016,-18.85362695769648,-9.598156151492244
1.788,-3.6245270482548744,-6.240125287146496,1.5059825932636977,-0.5270137395654184,4.20638697602723,2.387103465418371,-18.693191093680213,-8.86582409684953
1.792,-1.8863999161841283,-4.576421022015015,2.548665711173293,1.3041887730035295,6.078157000722162,2.313934253534466,-18.133067783512065,-8.72726540008312
1.796,-0.1216060474201568,-3.324781741402741,2.533875703285628,2.0838927392380393,5.429761068568774,2.6135230845114172,-17.09528178147369,-9.228346233162796
1.8,1.7420868069073934,-2.8579846485662244,1.863064931156961,2.4154182467754164,3.0492144943688366,3.47335790648235,-15.589812572727539,-9.996731073530961
1.804,3.6783736512633984,-3.128853334986702,1.3613757074731927,3.001832446738022,0.36477912095341836,4.819828760389738,-13.696288173365513,-10.449184204896675
1.808,5.455743325765606,-3.7472570776179808,1.8267682427104663,4.178439349556349,-1.2702187057856964,6.253919193230795,-11.551005787446266,-10.113968665218847
1.812,6.695256964457847,-4.1908107842217355,3.572265678522079,5.718863682769747,-1.1993712648288213,7.186957482293721,-9.344106043423585,-8.882738325505686
1.816,7.053934093784581,-4.047416140131726,6.219645210314231,6.999303240437199,0.3210751629649211,7.12114173880228,-7.294593203481634,-7.066102888756109
1.82,6.423610388068363,-3.1909611177435075,8.855042329432543,7.390915177410827,2.381385880722206,5.9172280491369165,-5.592487444939605,-5.240853317521551
1.824,5.015307824996355,-1.8280517540998265,10.47059709071134,6.6304831805370785,3.966442484959936,3.9064687182911237,-4.32149907805478,-3.9859156581330404
1.828,3.2760907898227414,-0.39963154572237825,10.453189211902478,4.9612409516528,4.48189930622442,1.7685678279741954,-3.40996714186937,-3.6427850532679793
1.832,1.669500192833417,0.6009515535706011,8.855961320042724,2.9764486872398344,3.9813681942533314,0.21636903610608826,-2.6562100109343056,-4.209153016717944
1.836,0.46122544140492217,0.8258712315643324,6.33366682441817,1.2877313752233093,3.0130260967392095,-0.3351119880494775,-1.8340045009846566,-5.394863657042087
1.84,-0.36659877787942285,0.2161667681788506,3.7981365308942614,0.22577384466295491,2.226264311544684,0.06507680257814345,-0.8253994303098624,-6.776996656085103
1.844,-1.0181148963727296,-0.951655524461887,2.0163917055521052,-0.25216492666925916,1.9981902339206492,0.9955764038841023,0.3065952787212174,-7.956777053368427
1.848,-1.673951978040484,-2.1500213076264694,1.34645057741563,-0.43507288669802513,2.287938785020007,1.9354239660656758,1.3571372269284359,-8.659421955323236
1.852,-2.3255879282075513,-2.802487090530935,1.7036909869683008,-0.6224011922180122,2.7699007491061916,2.5518046248593484,2.115029848341742,-8.752607102973782
1.856,-2.752078003909193,-2.5239292153609223,2.7353461193009654,-0.929864715448474,3.1236157206472335,2.843599220725676,2.528224187740693,-8.212218407593861
1.86,-2.65128591734049,-1.3039744204940489,4.06533133940374,-1.2413953869068521,3.280008745658983,3.071227058666424,2.7937247644358605,-7.085764109735321
1.864,-1.8435340994164746,0.4560104737305643,5.476235904175395,-1.2965636169343506,3.468325852357953,3.5483502357948087,3.308946866567718,-5.475302089461487
1.868,-0.4195868599021928,2.0786818057702527,6.938241576183587,-0.8400444039675872,4.036015473790142,4.423609237652053,4.481229848356926,-3.544108388373494
1.872,1.254355467932386,2.8720935755313204,8.499795544702968,0.25987806181957396,5.177003587630065,5.57542207886226,6.479610617353704,-1.521862300425647
1.8760000000000001,2.663671121175308,2.4075123947837445,10.13545822825325,1.9591944562054877,6.73921662241192,6.6613239601089465,9.070063384150426,0.3134126453778432
1.8800000000000001,3.354364159328458,0.7027709471461938,11.660431948971038,4.052792271978925,8.244621019117588,7.2851060152862885,11.647676025914102,1.6907271845478915
1.8840000000000001,3.13480786124966,-1.7548589579804879,12.785522669441399,6.237475875302146,9.126101093276263,7.204303869206027,13.483468430031731,2.4328001646652133
1.8880000000000001,2.1673659526919473,-4.173082736627528,13.263597291903814,8.181382339154013,9.036021914750318,6.46381481580376,14.074096013497167,2.5358168740862626
1.8920000000000001,0.9045059839831286,-5.753271102264927,13.019751435152662,9.583437131837316,8.042926074395794,5.387137166197052,13.399667883993633,2.1984187370449257
1.8960000000000001,-0.10141849191043395,-6.009168286231041,12.186759946530954,10.233481702889081,6.595885477887694,4.439087046895747,11.949942682835083,1.7743260783702803
1.9000000000000001,-0.43014113422808276,-4.97459278049261,11.018717341693826,10.066446185384784,5.265515184412035,4.027214585132009,10.483264289811371,1.6521602566863325
1.9040000000000001,0.04048629386422098,-3.2057486567878115,9.754967396246768,9.192796859506391,4.415552589357938,4.340939945331601,9.6523340960678,2.1033518151901407
1.9080000000000001,1.0932025111231845,-1.5770575428171116,8.511521724270521,7.862743762662165,3.994784551539803,5.271470881980779,9.684738938142095,3.156854078567996
1.9120000000000001,2.2515123718617285,-0.9560948019775323,7.23678383698697,6.3515398625196084,3.5680005748186363,6.427985155319143,10.267420576289584,4.564953031044881
1.9160000000000001,2.9551834351825716,-1.8778999562252339,5.765989870087903,4.822314876086242,2.580267983825416,7.260389400591293,10.707412048414076,5.888865008243592
1.92,2.7720706150824324,-4.345638210200638,3.9396510672317437,3.2506331073003754,0.713555788623002,7.259801645537074,10.284228419482815,6.676857982767832
1.924,1.5832143990801146,-7.817777671830408,1.7436952492733027,1.49898904473311,-1.8598390431966967,6.191359715218416,8.624674154561754,6.664245500916316
1.928,-0.3436846977890884,-11.38722323659907,-0.606354982990623,-0.48367057938371383,-4.486127381260662,4.251665072570617,5.909585559928361,5.901876752307028
1.932,-2.4438123092540724,-14.096271405457827,-2.698652451578153,-2.470884766791468,-6.314620095687971,2.057122295197212,2.802276800512862,4.739910441176334
1.936,-4.066661879178595,-15.253624173515323,-4.055157547292042,-3.9109857652458153,-6.715701546553776,0.43809402358545046,0.15338386439324347,3.673107155953849
1.94,-4.730267434672468,-14.635121786182307,-4.3144727714194815,-4.111769511515321,-5.613266252141525,0.09410014790539944,-1.364987955684446,3.119150673118002
1.944,-4.304575411923768,-12.497399012142271,-3.3869005074452296,-2.5977787277458724,-3.542797204284917,1.2740568648017092,-1.5101759173228138,3.2450189867237382
1.948,-3.0343483079148736,-9.418500734045798,-1.520298824534022,0.5442016070466611,-1.402895250277043,3.6368294530952125,-0.5064365224983631,3.927913255919277
1.952,-1.4048443745129398,-6.0582906877388005,0.7453721662261794,4.54267129403687,-0.022148933555415473,6.377029444470967,1.111937500653151,4.867575781080533
1.956,0.08972189377552242,-2.940143438956743,2.730263139956671,8.177290728827838,0.22875601128408118,8.582613947082713,2.757318695265523,5.779652466211749
1.96,1.1581864136125315,-0.3407591431292929,3.8266991007039497,10.299661774616784,-0.43310875485465683,9.650701752039609,4.004400286064497,6.555185171663782
1.964,1.8051038600014442,1.694539081568053,3.7140274086762535,10.387503176631846,-1.3871665195031424,9.558707790770054,4.695155981815931,7.3042721708400284
1.968,2.25928209478729,3.2441351634958018,2.4762044996119963,8.815843332812559,-2.010784710307628,8.832491281941923,4.911708263005993,8.255448675470909
1.972,2.7897586006024415,4.383242078311816,0.5587406151512067,6.674256228928769,-2.0647677806945044,8.223313143749255,4.865906542319072,9.576383405610562
1.976,3.5232975304946104,5.106244734653297,-1.4172420280100206,5.206684918157958,-1.837447646589937,8.282902944995447,4.78094894327468,11.226955919252791
1.98,4.35962152338218,5.329530326456213,-2.9117487064314043,5.153229045923903,-1.9748692183049406,9.067953217400552,4.810890275636754,12.926609229918604
1.984,5.042305313863476,4.966921671014429,-3.661184611797447,6.366324779496276,-3.0802391347553044,10.147558126618089,5.0297499395556855,14.262720456406038
1.988,5.330218401171987,4.024983633508751,-3.7340552432209355,7.914753263562488,-5.320156539940562,10.888784783853708,5.455870768197967,14.873320887282915
1.992,5.147494884356785,2.6498964615432254,-3.4355928468959096,8.61670387387072,-8.264812157835495,10.831331085638524,6.069136275115999,14.595120165458983
1.996,4.622467650711236,1.1000335198200282,-3.11418871794176,7.707396769309836,-11.062259900965667,9.928325376836932,6.804387559143527,13.505565265658888
2.0,4.0064042386420775,-0.3385169407192481,-2.978680361005705,5.274297644001977,-12.845721830578443,8.525746598665043,7.537135716389861,11.858511915421477
2.004,3.5323611517531797,-1.4454505652251246,-3.0030579342335457,2.2295614759746267,-13.135896943436334,7.133859443477305,8.101635321922496,9.968596628361517
2.008,3.296794873102483,-2.1257209267387136,-2.9781138400578087,-0.16327367184175356,-12.028963937645583,6.141245134094483,8.33203412635173,8.108961034011223
2.012,3.2342893350678774,-2.4132457888771186,-2.672743175446727,-0.9338307029934194,-10.07475177117597,5.658959736568715,8.113653969553873,6.473739801385836
2.016,3.182282183489525,-2.424409197325942,-2.0013628532487537,0.12855870115050205,-7.9444068176810525,5.569959153292557,7.420630724915846,5.1901638716126905
2.02,2.9914485731819704,-2.281699444918394,-1.0986889710782393,2.421536495613192,-6.094914196215944,5.703266658415256,6.312743514562318,4.336706539396498
2.024,2.6224313135233634,-2.029337919038049,-0.24607739910315107,4.898981333252038,-4.617059255850918,5.995235183760266,4.913455030894498,3.9340132473640366
2.028,2.159915135398938,-1.5946200915892832,0.28592383402424115,6.6135064968869886,-3.3465578768633426,6.493530687052853,3.3772761475401225,3.897293545909434
2.032,1.737967744590068,-0.826294101000723,0.3787896304076819,7.12512657820646,-2.1282128246342547,7.2087599158645785,1.8610533309056954,4.000936872828423
2.036,1.460096365618301,0.4140839906783351,0.1188186228931758,6.59249060525591,-1.0259164222094848,7.95302764597678,0.5280120490002971,3.921466200617676
2.04,1.3566127033774187,2.141385820048243,-0.2746120966115049,5.546450646863853,-0.3355170929565533,8.317991921887039,-0.42934883836242177,3.3743049640724223
2.044,1.3972233305447883,4.172301633670665,-0.5822891752030852,4.525564238154678,-0.385202343256511,7.877865897602118,-0.7854715765434634,2.2966941183761067
2.048,1.5402768974706573,6.130642676112545,-0.6990240310273941,3.7993224249190565,-1.27379796281737,6.507965492438006,-0.3291264807728007,0.969359332575146
2.052,1.7752599767493384,7.557742783499965,-0.6749245447007022,3.326177428172571,-2.7335936683191076,4.597071316620974,1.040920144884545,-0.01536842759020507
2.056,2.120844347997181,8.09894773090578,-0.6642476682428295,2.9223868452309936,-4.231895729198814,2.9708490716624683,3.2196571446232163,0.04195561110899204
2.06,2.5747348433170285,7.677199253351082,-0.8325049684667226,2.4858201732672174,-5.265277761878957,2.505627605369248,5.85229281170759,1.6428671352814948
2.064,3.066593307157816,6.5624860514452195,-1.275547252540096,2.124453522573435,-5.661130810313168,3.634989893061962,8.39779078955131,4.827242088889002
2.068,3.454130871378989,5.283528464171278,-1.9865666083784617,2.1098685300835207,-5.6834218681875015,6.032662262345047,10.292535329804634,9.084940411326414
2.072,3.564393414216428,4.389394595643864,-2.87809039011262,2.69246140109634,-5.8541388868661475,8.678888704131552,11.147088857804796,13.502879555228933
2.076,3.2656639812757158,4.168890016802722,-3.8164031185714364,3.909225916285065,-6.596154104663707,10.314515776338741,10.887066672420712,17.087915313795364
2.08,2.5242170894412705,4.47409562037729,-4.637938607713507,5.49889455106245,-7.918156845494189,10.050334204325438,9.766134067745606,19.117757743755163
2.084,1.4245360888837937,4.757794305539861,-5.133333814159503,6.984774214413059,-9.331920797256705,7.815026583952137,8.250129111556332,19.371838524175153
2.088,0.16103605791171227,4.331015196114507,-5.042309334786094,7.876799104234983,-10.073176308258594,4.391158424497071,6.8246033715280205,18.147151972309562
2.092,-0.9911710779551504,2.7242347215487595,-4.10940667963124,7.881112644572804,-9.502181107573083,1.0179028316549044,5.811606500600078,16.076450738985642
2.096,-1.7164906960446167,-0.0315235208366218,-2.201871113837828,7.01838118146996,-7.45474664887944,-1.2122630144140336,5.276861201205229,13.851255206420902
2.1,-1.7107547601818216,-3.357255535920621,0.5510363094297555,5.604061311044258,-4.351779435686623,-1.8389811655575903,5.046191746157073,11.976969305786284
2.104,-0.7466582246730833,-6.33939020009762,3.706804619221158,4.117594255737432,-1.00496677478999,-1.1498031233533217,4.8154773991302005,10.660718695714142
2.108,1.248468776429625,-8.10211022020083,6.601293141201207,3.0236941892063234,1.7564406539189967,0.08614834924637016,4.298467416524865,9.842059733412626
2.112,4.110753120843159,-8.162543421219988,8.561036875027696,2.607196373071318,3.4244294608476125,1.0781498217788643,3.332316105192176,9.31564164160066
2.116,7.3993003873359,-6.601308372688655,9.153849961573037,2.873494686529966,3.952413575563619,1.4025319391327287,1.9152177022539387,8.871600279232771
2.12,10.449849720144721,-3.9884661754326145,8.343483161556977,3.5410375979339594,3.6516007148189367,1.115932751445028,0.18747145913651098,8.385835595593834
2.124,12.549711620568686,-1.121739521113735,6.471892139195516,4.140933503348503,2.9493306642381714,0.5980277469532176,-1.6154728144641024,7.846332816631968
2.128,13.17426518684443,1.2767503298842604,4.079861855365802,4.185887350813116,2.168308091865688,0.25992026869562324,-3.211218542224011,7.322270079732544
2.132,12.181577987155505,2.762913398389123,1.6519332762040233,3.3556337152480937,1.4421250397088041,0.3031948664483206,-4.329027841729484,6.908746457069768
2.136,9.871233765313974,3.2089440484964227,-0.5601884961507635,1.6359772167532602,0.779337590607602,0.6579746240918336,-4.779243939897094,6.673725574416006
2.14,6.8652862518488185,2.7165895033760057,-2.549305551544249,-0.6498161793003581,0.1793311289549009,1.0852492661394573,-4.523233341723007,6.624556207483425
2.144,3.879886537975697,1.517326978665027,-4.389085146246749,-2.9312824465610587,-0.2847116067639486,1.3558672903730997,-3.692952147846737,6.712023860641613
2.148,1.4952808471781536,-0.0714663027224014,-6.017856374203185,-4.5782388230314695,-0.47350341351089487,1.376399255781009,-2.5350928745030696,6.865684789077302
2.152,0.02174716484640271,-1.6482096146538048,-7.133256734864672,-5.1243914488649835,-0.2657362658238953,1.1930111643544663,-1.297676465825515,7.037653225791257
2.156,-0.5018179421153564,-2.761809122379125,-7.28200034527454,-4.44816612374622,0.35098499897885116,0.9055654761232788,-0.10988697708561368,7.232861013422009
2.16,-0.22391024162125372,-3.034422165571736,-6.135593871426087,-2.847193608903246,1.2289147712242214,0.5648211245443004,1.0545308687599828,7.496106958833522
2.164,0.6234188421616942,-2.3452553504219917,-3.7774712645608974,-0.9628953505874507,2.0753198919663505,0.13665530113378832,2.297053357531137,7.851330968428989
2.168,1.7875924730058745,-0.9717321811405046,-0.8155748832056497,0.41572046687607056,2.5213525984191545,-0.45952713260229405,3.6250701057900967,8.22420151631799
2.172,3.0147507497518307,0.4467094439188055,1.7875441523357556,0.6160489931529256,2.234879633946715,-1.2751081632947834,4.806538048203879,8.41626382157477
2.176,4.070644518512722,1.1754570389094356,3.1262586396630896,-0.6592170875344272,1.047844118729882,-2.268499989150037,5.386853954651619,8.179505503285169
2.18,4.801251131990906,0.7886617720272397,2.81301257580958,-3.170384284513657,-0.920320690540593,-3.289163696599604,4.920011312437374,7.386777797719584
2.184,5.234227783900575,-0.49382719139401376,1.2534849497121234,-6.1361422231402205,-3.1804422844988345,-4.094175255391359,3.317667638651834,6.21693363527576
2.188,5.640768242496893,-1.7704222685565822,-0.45242586161963994,-8.431249068730043,-4.916966124920106,-4.395735180869579,1.103519085195181,5.215722039288486
2.192,6.455282399498919,-1.8310794371879295,-0.9953610145852823,-8.96835785869581,-5.213678169116211,-3.9461475197295304,-0.6595749132338042,5.126871461203423
2.196,8.046094649318373,0.19268448064664923,0.4787359814966914,-7.154483299977784,-3.445099066294217,-2.6508567692677296,-0.8371599469965689,6.5026476141152845
2.2,10.41601210174867,4.21318992532254,3.8290988996105497,-3.2490141910595063,0.29685984994883086,-0.6985318589872875,1.086283527894718,9.255849787118
2.204,13.010237207093517,8.968071954226891,7.806655313101149,1.5707572086587835,4.979528131025766,1.357108431299391,4.469291742475223,12.410166006023331
2.208,14.793849114158544,12.381472815745777,10.461156270630333,5.532634892787703,8.800690346845714,2.6398461411113425,7.492781413835372,14.257200278609417
2.212,14.613614999720163,12.399786167522716,9.919586741583428,6.903789304847563,9.795001501997133,2.1641654766672165,7.794523870617266,12.949305382478062
2.216,11.716047146976223,7.944036642379531,5.217887399711955,4.705387678395827,6.673979605938834,-0.7993534029929159,3.5581105759928544,7.328094941060633
2.22,6.17372145117845,-0.4781187352142636,-3.188029010208366,-0.8031135700030438,-0.47333436550675057,-6.335659902112769,-5.449461753962274,-2.384070303834892
2.224,-0.9960379708529732,-10.809572049218755,-13.451538665826284,-8.097315864038023,-9.981680265625055,-13.64685608400045,-17.43535429111604,-14.388227592716646
2.228,-8.115963497266534,-20.14493252791102,-22.91830274161171,-14.88303811055688,-19.08141389049883,-21.13565320486672,-29.043191384407017,-25.772633520653173
2.232,-13.422821630375918,-25.801126934406934,-29.036659328873654,-18.927009541781185,-24.880926038488585,-26.84410992640762,-36.58413935567514,-33.48608414516889
2.236,-15.671176457611901,-26.280657778345436,-30.220751825535345,-18.87372579642811,-25.441968467858363,-29.109007891045856,-37.49715813856258,-35.42653235146656
2.24,-14.512302847004879,-21.721090361079387,-26.34100218816116,-14.704195736293991,-20.471687034173605,-27.180470379307067,-31.368514353617126,-31.178257603802756
2.244,-10.514556521461078,-13.680632509750076,-18.667209616088826,-7.65958773179292,-11.329727770339012,-21.521609715858467,-20.022233660498944,-22.093444391246454
2.248,-4.874942838250318,-4.42537440389754,-9.334886615509953,0.28895017582750215,-0.39643338963175934,-13.657502243150311,-6.677169515265509,-10.719068114020185
2.2520000000000002,1.0082640251277089,3.923122591875691,-0.5831499828348718,7.1690325878983625,9.862957854134562,-5.629042411870731,5.38650762933922,0.15740116992033126
2.2560000000000002,5.9156631151511165,10.008845682646276,5.936149812171679,11.6235842147213,17.694756417265307,0.7208073962373662,14.006510208892442,8.42025199891255
2.2600000000000002,9.040258201888221,13.432577409360446,9.545996389537025,13.206889629535754,22.411653473535395,4.328472830049575,18.651800664009684,13.150356604333982
2.2640000000000002,10.081809576546846,14.551100828770183,10.54445257771986,12.325965567154912,24.2572549591846,5.149580615162649,20.143811486552856,14.626118412887937
2.2680000000000002,9.245254896270236,14.0760735905133,9.876635351002552,9.931464358119058,23.96283951224923,3.992086221541998,19.85396962856045,13.898440421117497
2.2720000000000002,7.167656551816586,12.707641330519266,8.644797704103281,7.12388575789377,22.299842160544735,2.0639789201229863,18.878709804220243,12.200340183829843
2.2760000000000002,4.762472511188274,10.948989846284714,7.671707927550386,4.816748225351468,19.842198645539405,0.4531866244830489,17.627098936050018,10.458018747063226
2.2800000000000002,2.959808275296486,9.101274271580982,7.258887063331025,3.5203806557138178,16.96184417800716,-0.25624608865626186,15.940918192249839,9.057843891362785
2.2840000000000003,2.3833888450797325,7.346512407723793,7.209099753585486,3.2676370471564566,13.947794176028168,-0.09076095805330331,13.555243259589037,7.890984372148013
2.2880000000000003,3.088409596691922,5.8118467661260045,7.064113171398537,3.676205508523462,11.091298680524547,0.46563135818964696,10.541229105671066,6.586764513331181
2.2920000000000003,4.514509264482013,4.570002253323193,6.425923296890048,4.135945852669494,8.669375329202047,0.7776284436816951,7.425631838129302,4.796420244074198
2.2960000000000003,5.739048055651168,3.607911444397375,5.214233076364854,4.08381799015762,6.863433689146835,0.37735242610582054,4.940946469006379,2.4070438301448385
2.3000000000000003,5.942801428554747,2.8153029051137772,3.7259239212141844,3.2709276462205317,5.700405506565198,-0.8489045114765963,3.5945160233585858,-0.3884398867001524
2.3040000000000003,4.868237275040471,2.03525218474257,2.484014525612947,1.9096649824754133,5.086091817545398,-2.6479997111128446,3.3549543119700997,-3.1744500512762768
2.308,3.0014077882765364,1.1614626540138322,1.9505563057027562,0.599547277059429,4.90593165422367,-4.546293489288417,3.6641313488262153,-5.5033474818313
2.312,1.3404440245549454,0.21304346940817886,2.2422365751300424,0.02580344200773599,5.1070300259641614,-6.076843429609882,3.763450851942242,-7.10580179041256
2.316,0.8587513880050888,-0.665284498979505,3.0274475861445795,0.5737448823148998,5.691264552761789,-6.973431359279438,3.14306081893416,-8.022090614787608
2.32,1.9363373696600084,-1.2895220081358278,3.6638239587590373,2.053525330193418,6.61935187111169,-7.273403186833131,1.8336789324778542,-8.587378030085159
2.324,4.1100488561527575,-1.5453932179030554,3.536979419836551,3.731082662298591,7.720439141099112,-7.272530109211777,0.3830372594729503,-9.253361853527373
2.328,6.317862194817076,-1.4455090987752932,2.431645971034784,4.692010350526009,8.705211621893104,-7.358971837052397,-0.4537525487537226,-10.328922161837825
2.332,7.492497036097026,-1.1090344771857565,0.7102235485151542,4.348120334100159,9.30513118587596,-7.820303164603311,-0.12977778579056454,-11.7852325471743
2.336,7.165783229057589,-0.6829412195254667,-0.8193423271151037,2.800758806753758,9.453139903208822,-8.710940672767132,1.40169317720611,-13.24558818085615
2.34,5.725811979900321,-0.26889317041528216,-1.3087685610457935,0.8360713343260127,9.363345038186884,-9.8486349227151,3.663607992496206,-14.186092613170533
2.344,4.169506934297191,0.1034631889483073,-0.33420605846407625,-0.4708945402490379,9.430468943539907,-10.917256119052045,5.893939093535479,-14.245455618301667
2.348,3.5019512925084033,0.44176128298920503,1.8337626645135394,-0.34405455803398155,9.972797111312346,-11.620699209261344,7.398999819003066,-13.468621199119442
2.352,4.133483849718392,0.7136843806743478,4.311044399327969,1.2431905955403124,10.965756042944475,-11.810296755590798,7.835598335862713,-12.324179498154681
2.356,5.642920855748256,0.8052279487728509,6.0203044293926276,3.5320806918783045,11.955182963213609,-11.51403975676608,7.292330152078382,-11.463032068871211
2.36,7.036840794727659,0.5466013939610628,6.2163997328992515,5.383666344652404,12.231518721803376,-10.876159182160684,6.145942970243387,-11.34552979113677
2.364,7.332389078314085,-0.20233622386419614,4.843249666696407,5.89797400446488,11.203734999590734,-10.048991973411155,4.817970144344875,-11.958627416396858
2.368,6.117587718825677,-1.4566954338164955,2.529488912134784,4.901222300775851,8.760781194683434,-9.109198776346304,3.5694979187655416,-12.805688400104206
2.372,3.757598735184838,-3.0715935539513852,0.22361463038316565,3.0213413376245253,5.399278675261656,-8.056101760895448,2.422700894663439,-13.196986324401344
2.376,1.141881413858612,-4.792741353854335,-1.3195551308652185,1.3018554233402337,2.0255883693201895,-6.884606241463215,1.2360414977707563,-12.6902999304179
2.38,-0.8404592459304308,-6.361368698271202,-1.910197766609878,0.5855145940224116,-0.47663222568689,-5.6788188674456395,-0.1418460929595735,-11.419098305823294
2.384,-1.753207184745671,-7.608135951552289,-1.944311512924708,1.0309690949967472,-1.677668381760446,-4.647032789955041,-1.733424460776412,-10.094083609644988
2.388,-1.7441599723348515,-8.492172143563632,-2.0897420574085697,2.0267129880559818,-1.7911559470894858,-4.0691381914108975,-3.3889299002774163,-9.657736541261086
2.392,-1.330872417382059,-9.078951336177926,-2.848056145124371,2.5418523664772774,-1.5206199423171913,-4.180357154009348,-4.861791048060886,-10.764499861293238
2.396,-1.0124657320386934,-9.48764589501716,-4.253521910846953,1.7050101913267035,-1.6637116829004377,-5.047491723275087,-5.952215365487283,-13.384315848484837
2.4,-0.9759729226864531,-9.845335570205712,-5.884320742200242,-0.7061072639766905,-2.6937794844916576,-6.508848893207323,-6.627903478571563,-16.75267959122538
2.404,-1.0770869871191966,-10.264852204289546,-7.1476300594262145,-4.11925274924487,-4.540588486946426,-8.203254942502106,-7.04476325458821,-19.706424360364416
2.408,-1.0608703181933974,-10.841282406610267,-7.647740171357904,-7.43754447564427,-6.681402235937852,-9.682269197646406,-7.4514461049417635,-21.23858325748407
2.412,-0.8332195964657094,-11.637282171472876,-7.40887947671135,-9.570272475155846,-8.466009814280872,-10.559024914574364,-8.03023749881091,-20.975984099905844
2.416,-0.5738749415178097,-12.643909328620989,-6.82261017244075,-9.942170193115428,-9.48184841373425,-10.629457511060487,-8.76479020069061,-19.343412370307774
2.42,-0.6169220181206194,-13.7420379638496,-6.3766364116176755,-8.734135889943076,-9.755687549353363,-9.922867504883977,-9.42343690286748,-17.336862053042182
2.424,-1.1926818719406453,-14.703672495806593,-6.348424608059018,-6.762860580284642,-9.700078332589072,-8.667947320205236,-9.673348151682907,-16.036088628945752
2.428,-2.2311792525637433,-15.268193345087187,-6.666571765490382,-5.096687843278949,-9.866259367354532,-7.208446838672116,-9.269696486720516,-16.1113636682891
2.432,-3.3810551547923673,-15.272054476813976,-7.018839157250019,-4.603580439746226,-10.647087288095442,-5.894478879913857,-8.2196856570059,-17.54806143492155
2.436,-4.2410052183746885,-14.760396211906945,-7.112516710984449,-5.631148310045852,-12.080228081995351,-4.981380891546936,-6.815806920629308,-19.701271129808845
2.44,-4.641037127229554,-14.005588022241277,-6.912292325233404,-7.936758953663924,-13.840978491438502,-4.569301513007158,-5.518731418320707,-21.62474420713956
2.444,-4.772883829943231,-13.402850655477737,-6.683192663475638,-10.854692657155756,-15.404230329069495,-4.58262395385067,-4.73713474048364,-22.49388967627157
2.448,-5.0637256988610915,-13.280450427956099,-6.810257639914431,-13.602548616241021,-16.273873153773145,-4.803298271736844,-4.621717913322154,-21.92870985209353
2.452,-5.878926083642442,-13.73038800472893,-7.525033615849688,-15.593213402071392,-16.18170651851844,-4.957796331931784,-5.002811356925228,-20.103906634410023
2.456,-7.233212973952684,-14.556352160440884,-8.708459519243661,-16.62026830657176,-15.176378356965778,-4.818254381902003,-5.495218554608334,-17.62889453777849
2.46,-8.708902504451736,-15.374140036543837,-9.908927431422528,-16.865820056759123,-13.584132229966954,-4.2900678551003795,-5.72139622260748,-15.276716998198719
2.464,-9.645279732253858,-15.805628473498533,-10.554907105264277,-16.742903983952203,-11.868446214518409,-3.44445809158427,-5.522420899103853,-13.675289625173885
2.468,-9.480322260565991,-15.645105835393762,-10.235323500310212,-16.652109998806306,-10.458677522724354,-2.479022416438373,-5.025893285435432,-13.077213943987811
2.472,-8.057038220042413,-14.917753772407593,-8.90116113350349,-16.76688747101902,-9.607529809127332,-1.6254011633651226,-4.553720107237256,-13.283458705218486
2.476,-5.721324930103126,-13.806209993560833,-6.879953136660905,-16.94868018672276,-9.329790312535357,-1.0493368103217982,-4.421563300042438,-13.74472038356642
2.48,-3.1490884293463486,-12.489960528389707,-4.7054489929512595,-16.817579608919367,-9.427202756941409,-0.7898219805730522,-4.742653501594203,-13.792241034562487
2.484,-1.0302129517241236,-11.020348750478156,-2.8708718625792153,-15.949261763331359,-9.581947032456256,-0.7581381327324221,-5.35205324904482,-12.913516497964576
2.488,0.2064673092051299,-9.316696092181589,-1.6468706959774257,-14.111786323974314,-9.488965951524392,-0.7965464270071028,-5.893642845069041,-10.97106900566013
2.492,0.49022954541521324,-7.282437489725657,-1.0406468277632022,-11.429381573284171,-8.971042315683484,-0.7615050532031309,-6.019368925549505,-8.274476840005391
2.496,0.016807358648419424,-4.94856809714611,-0.8677502733514642,-8.381512197507796,-8.022510217681564,-0.5800761003009782,-5.570766185397059,-5.459987580849618
2.5,-0.9281291480881402,-2.527318209792984,-0.8621252134943571,-5.630205596842691,-6.764486612841335,-0.2567589894503177,-4.632297010932788,-3.2132783998578383
2.504,-2.1017947498481906,-0.32746534378307945,-0.7551054928359502,-3.755411351111073,-5.347542277776737,0.1696546696654906,-3.43607996066027,-1.9525747448391129
2.508,-3.3313571840334424,1.4158949896187565,-0.3056759977913721,-3.0317621128165126,-3.8637169001739156,0.6832885326719067,-2.1963829839671503,-1.6267164180875633
2.512,-4.46100736458721,2.683018759433617,0.6831142183803873,-3.3497760925765947,-2.316757566139928,1.3269492067784139,-0.9850934965591578,-1.7335722255240429
2.516,-5.30572169455005,3.673406781510609,2.3271636265596882,-4.303645189663548,-0.6634190330131765,2.1967594284546585,0.27706195934453337,-1.5625543116429368
2.52,-5.686989567894146,4.651507012134628,4.584642814757609,-5.394650942051762,1.100262334268204,3.3844479781324077,1.7106955401695194,-0.5568858495595063
2.524,-5.539653558534691,5.73433639024972,7.195560370046192,-6.233282728955201,2.876150306329056,4.908229194585086,3.33391007269347,1.383834532343891
2.528,-5.010166354527079,6.75589568519929,9.69343484917822,-6.641013126888215,4.471899345786695,6.662485302791158,4.987067865815245,3.8182005397978704
2.532,-4.452574115687313,7.315327783123827,11.519716507896336,-6.629076430659113,5.678410562902366,8.405473097800833,6.384908832467249,5.946337933552522
2.536,-4.27370084165163,7.007011433070882,12.223091626372874,-6.2913932654474225,6.3749487593311915,9.805705106873079,7.277869323011113,6.981209515647358
2.54,-4.709247063551294,5.689436496662532,11.63744180240755,-5.704679653810172,6.590941848048603,10.528716901861426,7.607694295830585,6.526900726504675
2.544,-5.668036174698564,3.6261716476578494,9.951513069378997,-4.901039157528069,6.476185672589292,10.354771560888425,7.556106731480284,4.778323258646354
2.548,-6.737407810136558,1.4096169219117574,7.639382223649113,-3.9095656704632566,6.199801007370077,9.286455558537345,7.452518379586864,2.4487693724188593
2.552,-7.370204687718709,-0.3012192169309005,5.2753363247898974,-2.8197676314911155,5.843150592366852,7.590826257435558,7.584127314904785,0.45780135160604285
2.556,-7.1530190793507336,-1.0675317473525423,3.329989542944008,-1.7937508405569091,5.3538186225966715,5.759074008014069,8.031883156567112,-0.4650786857124336
2.56,-6.01166021302855,-0.8202264510770778,2.032853354255904,-1.0051778090385124,4.597528688619416,4.3684729095975054,8.630986690691733,-0.07048005767727705
2.564,-4.248097215121631,0.195233497186182,1.3548971676833883,-0.5392186077032335,3.4764125849992045,3.8807047376034944,9.080940823398377,1.3531787176690138
2.568,-2.3958314507429455,1.6234292028744628,1.0896169314487247,-0.33017530193618416,2.02994187174689,4.445341758759908,9.131872805600066,3.159955194430225
2.572,-0.9838254220955251,3.2056600111166027,0.9749393851115489,-0.20173880958829704,0.4548992977702273,5.7975554306710055,8.731967648683778,4.658800042411915
2.576,-0.34158711200810377,4.844173256451362,0.807428460566288,0.005992319727838424,-0.965423372509294,7.323654201714806,8.053568114044099,5.406422381453751
2.58,-0.5349217162295847,6.488003720045678,0.5070985590547217,0.2996833437010782,-1.9803856934431732,8.278941708569981,7.382558423604154,5.355787402235139
2.584,-1.4270597706453882,7.956836513845859,0.14527263896197162,0.4945385255581094,-2.465882534487867,8.096948582712354,6.948747468451293,4.817952276011679
2.588,-2.7828709511848233,8.875775340448673,-0.05667650043242034,0.32805559468416057,-2.4352575057152865,6.65718493617457,6.8160927735339785,4.2892608117597355
2.592,-4.338341600227096,8.818946486032006,0.23345399410258771,-0.32453280577029986,-1.9661888539168046,4.379033642884786,6.899738374289434,4.245093251985466
2.596,-5.810547944831841,7.61108236380915,1.3720957443911352,-1.2667722118547626,-1.1114537810454443,2.084437360143902,7.0866350203283535,4.9792787013268995
2.6,-6.888120220606282,5.579019011451354,3.592287562531645,-1.9851792884832022,0.1304593209066809,0.6617572076627241,7.356259492028549,6.525537686683214
2.604,-7.273788586541764,3.5521628385336292,6.835485058437704,-1.8828617068669473,1.7581517430698117,0.6785514902420342,7.8040200525294265,8.656609927886219
2.608,-6.802041932909045,2.540231409190497,10.649400275884226,-0.6434173706494519,3.6565625192291353,2.114211710690197,8.54203225781771,10.935351504450606
2.612,-5.574612443182664,3.2124022019478384,14.240030861884538,1.4851051618321716,5.530024919521057,4.347982507143097,9.542045880145082,12.808689069694001
2.616,-4.006477532714176,5.4741448420242955,16.710139630821303,3.691223194390901,6.954617230433514,6.424533489933672,10.545287465012425,13.736410656803887
2.62,-2.7015073026929617,8.410965932515396,17.40458630135626,4.942188302950176,7.551982192566823,7.472857782542628,11.127349106165992,13.345463866273198
2.624,-2.1862576836505734,10.677772254048113,16.21449513235104,4.518428584090717,7.199855836503028,7.097167543097899,10.908864417684855,11.575130067651349
2.628,-2.6254083844015574,11.162734262501306,13.672395370148266,2.450485462401991,6.1508863939393486,5.553264854091479,9.793005140000918,8.743331244696943
2.632,-3.6936400838097043,9.57376899289294,10.759246496727966,-0.4064743846266272,4.972638069742815,3.619781567774313,8.084424758734322,5.477949437351382
2.636,-4.721360908467963,6.609830765685481,8.490081093108579,-2.754954622100941,4.299440388786609,2.220411922564397,6.387387582565551,2.5013672038785204
2.64,-5.054820236416024,3.6017763108679612,7.458150154318563,-3.521504816003824,4.509038749189811,1.9716104655662336,5.308720964909204,0.34368555209468976
2.644,-4.4269668616565605,1.8240332342995487,7.578556425670776,-2.4400331964289297,5.4983263525521995,2.889765668569789,5.137865991474939,-0.8728980484563928
2.648,-3.1239843491931376,1.8583189314528075,8.176410076460659,-0.21613803701025236,6.691557611201157,4.398773510367086,5.687470761758858,-1.455487606269107
2.652,-1.8211044213337297,3.3605557231302097,8.378448496209504,1.8512957837481618,7.301526637820982,5.640605147768983,6.397472264463664,-1.9371199413644362
2.656,-1.16374340754395,5.347661612421705,7.6136464255640135,2.6033117624917943,6.727171308706602,5.93817993371975,6.657998320553007,-2.742395215686594
2.66,-1.3581367386556904,6.816616239751218,5.9403118876946435,1.6902213844855745,4.879645147013521,5.156105018848685,6.157200034651723,-3.9089800167668614
2.664,-2.034190886938407,7.317298268590484,4.024723039628238,-0.21351457535177176,2.261728386850288,3.774176783655303,5.058193753111799,-5.03787841443169
2.668,-2.4762008465590766,7.151121042771507,2.7813834896348735,-1.7837269794423922,-0.25789646840081737,2.622519541566848,3.895612335004275,-5.528848147163026
2.672,-2.1054440972300377,7.09466534595872,2.854045477672057,-1.8131806865666271,-1.8692569509774115,2.409302442012139,3.2390299657949826,-4.98305311302596
2.676,-0.9091522908085607,7.854917919114162,4.239171417012466,0.07413457427490044,-2.2195723284273323,3.3110368163499233,3.3364676760236405,-3.5290884933749176
2.68,0.470558398867988,9.603297468955354,6.258469090858078,3.1749211092021064,-1.5746162580244571,4.849739866036643,3.942175005544949,-1.857322112245864
2.684,1.0869274925555654,11.880320445937082,7.911703049465774,6.085717691799738,-0.6419798058604211,6.137489647747554,4.439725564394301,-0.8980453060270568
2.688,0.2909692504790189,13.915508033366855,8.421912323472146,7.494216460126195,-0.14407490077626317,6.361431354055925,4.20540768495716,-1.2951925080156022
2.692,-1.7923294847510616,15.128274075911833,7.669066522378985,6.914122141862853,-0.3798137007969702,5.236937833229943,2.989441014277533,-2.9730523087620466
2.696,-4.221928003852695,15.477239334604496,6.276578581294627,4.941271992400626,-1.0257449301626993,3.1828785149629373,1.0939250472776587,-5.062686469929737
2.7,-5.722318158187167,15.422730386231372,5.279442571172064,2.8751891008088775,-1.3091617872876125,1.0998257378292924,-0.7643715176166375,-6.279290091783568
2.704,-5.424039379052402,15.534966707018969,5.556338739921654,1.9421892646737249,-0.4709059725432567,-0.12275464409717873,-1.828845682811876,-5.581822417266997
2.708,-3.4201256326210006,16.0228624647549,7.337603415832522,2.5882498880785287,1.7354634046244304,-0.0850591261560738,-1.7007332665599384,-2.7570544926832783
2.712,-0.7892755115411808,16.512030448407153,10.054862943650893,4.265295286632675,4.798792458054051,0.9342474613070619,-0.5368090015238207,1.401053840674491
2.716,0.9765650695199574,16.246534789954254,12.628458322037309,5.831955800580397,7.625914625827433,2.19050453268413,1.0743861120911096,5.443551560957274
2.72,0.8308847669403097,14.609380154551395,14.026280196633651,6.306374510317482,9.069947925896123,2.9483223348411585,2.4774402204700916,7.980145400624453
2.724,-1.193614648588695,11.627985934697712,13.788886865868283,5.49364491449076,8.534080746848883,2.9271535035513963,3.3348736297820505,8.374635862075092
2.728,-3.962577166257146,8.110126522879796,12.235593149125076,4.09593298376216,6.313128197090164,2.442059018107868,3.804658183144138,7.044390673534799
2.732,-5.866839377147512,5.287256134102988,10.250262563886253,3.2386613260832653,3.478921280862539,2.151207620153367,4.40787563157795,5.2001157620580045
2.736,-5.748512474861172,4.146486812743033,8.784390875609756,3.7125026600346436,1.354692858777637,2.574382261823684,5.667488524083229,4.171852382796585
2.74,-3.591495381183438,4.83472705854295,8.352702893717657,5.407661622107723,0.8565377589975278,3.681954631663691,7.727666787003833,4.690897008038659
2.744,-0.5578560950879012,6.517754075325317,8.805577155167734,7.315045768286421,2.0676942866951604,4.831567278469393,10.188904623315395,6.524572259504124
2.748,1.6711576038177993,7.811751058220885,9.491762710227187,8.121362794478411,4.273663299673459,5.108919312418553,12.268037812998985,8.659000148754377
2.7520000000000002,1.8645357240473324,7.56160864106668,9.690112670402854,7.0411977947219855,6.422430071272229,3.879244317837539,13.195218323961019,9.911926304626476
2.7560000000000002,-0.040835346074640455,5.527682094065803,9.04791966797954,4.370691558335727,7.729963930985784,1.2198754005311725,12.628648757077354,9.616418354924187
2.7600000000000002,-2.886905142108402,2.5704656682718134,7.761130557343387,1.4056226374811445,8.072981055032367,-2.0450333551279765,10.843569833007907,7.9841881641577075
2.7640000000000002,-4.953073572117728,0.20415082835421483,6.40696536754344,-0.26046001480327696,7.948701412915634,-4.744568779947257,8.59139186513723,5.951349825920833
2.7680000000000002,-4.942305067713058,-0.2380200056532189,5.554087279261351,0.33730331356081145,8.050336460098327,-5.975461109387168,6.709302722492474,4.61276834607029
2.7720000000000002,-2.7182358667914617,1.6431456016736377,5.4043158493516605,2.936391625117709,8.7434427674388,-5.570569862045462,5.693974630607997,4.586973155039365
2.7760000000000002,0.6305557891826439,5.074221701774094,5.691177695137737,6.139352265135223,9.781367897243536,-4.142216669147277,5.48724794990709,5.683343388750287
2.7800000000000002,3.4229222123473058,8.519192518185429,5.8812212623401985,8.162243560811799,10.442560986216773,-2.689850001836738,5.5726423769807045,7.0552063401709795
2.7840000000000003,4.342448478058976,10.506917525111373,5.545521286140618,7.830106740134864,10.004496597273096,-2.000007080791415,5.31208244402135,7.741134573370575
2.7880000000000003,3.1666162118626398,10.414609752082518,4.660862697236189,5.245598728249201,8.262675617552919,-2.2014524236578157,4.329943368341711,7.264569449325842
2.7920000000000003,0.8589603159368928,8.772219171983734,3.638799545446979,1.7489021448329503,5.767349747671909,-2.7326155892002957,2.725602832746276,5.936086181893252
2.7960000000000003,-1.0141452350922187,6.922542891471185,3.0690392077880606,-0.8091729706390769,3.6129960515157906,-2.72754512598165,1.0070250774881968,4.679091532737178
2.8000000000000003,-1.192437104224167,6.237415397247738,3.3361963842177653,-1.0747228745454338,2.885023202323212,-1.5873045856475025,-0.19499873781815236,4.475746610035303
2.8040000000000003,0.5675128821099302,7.338200837112074,4.360235044929382,1.086175760537996,4.081562254014033,0.6135966220568392,-0.4611234719961326,5.76259611206364
2.8080000000000003,3.3670143990475028,9.747107264716874,5.616286774123536,4.533772878329234,6.828237795612313,3.1205506510546006,0.21656438974699999,8.121042684939336
2.8120000000000003,5.667819448516911,12.152759097884685,6.427232331248042,7.480138410875238,10.0497207099078,4.886499329798884,1.4625796131521493,10.440766688655115
2.816,6.137199458879054,13.137406704035616,6.360001487843256,8.443406595410814,12.498050084724689,5.127235766741768,2.734087303829683,11.472805199586583
2.82,4.342222594187453,11.955361279772514,5.465867158880201,6.980384206620047,13.340688819364132,3.711114815214242,3.5772589497963296,10.45991541344961
2.824,0.9331288123787145,8.951787503800785,4.230369494391335,3.830477487280305,12.507936867473207,1.1879606426127012,3.787557897931398,7.510215266572798
2.828,-2.742045738620362,5.403325358827223,3.270678179261891,0.4350419933432832,10.633708056907423,-1.5366649735997946,3.4110467555506028,3.5263622770389977
2.832,-5.345894985840904,2.885717729429139,2.9670090080740974,-1.861542206889494,8.669282399236891,-3.6712063712420884,2.6330879103317537,-0.2492876907083712
2.836,-6.179114531612172,2.519242789092471,3.258630994291647,-2.4669767782258614,7.408564879643814,-4.866628930534482,1.658146456053454,-2.81236706123668
2.84,-5.419534407974741,4.45184998695927,3.7055731983547027,-1.7322122396655424,7.155018273744703,-5.260902486252602,0.6418412931591062,-3.802449001947849
2.844,-3.8881378464211256,7.8185083998464595,3.770003784041294,-0.6185939508210601,7.669172035584388,-5.2577669097166275,-0.3113161949392219,-3.5579806350629806
2.848,-2.540144413950721,11.157767218049838,3.1329007250415684,-0.09409242040639465,8.364096421023808,-5.224914875426316,-1.1305220860050373,-2.8413204960194225
2.852,-1.98797537194849,13.056023706169434,1.8569581872569803,-0.6269180642265351,8.608948808011366,-5.311330189421245,-1.7867342227852143,-2.4132960175864895
2.856,-2.2873257976986836,12.72439007183111,0.33309392811062555,-2.0295150961634585,7.994153017898568,-5.4640673976029035,-2.308618157743091,-2.683725332336979
2.86,-3.0575303316108235,10.260261412488328,-0.9399049077608508,-3.6887085940714375,6.464314866244555,-5.592216252000391,-2.7821390318766754,-3.5899661301193664
2.864,-3.802786119436372,6.53067730368571,-1.5859228896466424,-4.988811896765134,4.316374491029764,-5.7116834156777285,-3.285975045255828,-4.702002945684652
2.868,-4.213771504577933,2.774958123205833,-1.4628837692468302,-5.648251797005599,2.097852129136707,-5.949325019849697,-3.771817054778105,-5.46095747384294
2.872,-4.297746696116402,0.10991634867031763,-0.6429838514580009,-5.8008296611520365,0.4385448801868903,-6.417071923923659,-3.9848032679235215,-5.422242812376233
2.876,-4.288450939050206,-0.8495898318505244,0.6862536588446475,-5.812623935603639,-0.14202009711358476,-7.0545872079083765,-3.516114587045479,-4.40138931515961
2.88,-4.433475987391088,-0.1353197021939636,2.2999454613322876,-5.994971807027077,0.5863074496418501,-7.584904696074089,-2.0226247075883554,-2.50512274323665
2.884,-4.803519320131678,1.6828815298839985,3.9520402760502344,-6.398325735176343,2.4595717534430035,-7.637722109456707,0.49546727847184413,-0.07197594675016505
2.888,-5.215925636599905,3.7982262543326857,5.375080618574908,-6.785308374246618,4.956390251444518,-6.967990246667981,3.544331955942258,2.447593096773238
2.892,-5.300714115801549,5.528991632080927,6.337599624948563,-6.762653656590704,7.407251634721245,-5.618151614677211,6.261319650202504,4.645081482986313
2.896,-4.655164541683967,6.593839389122134,6.783109712755804,-5.964312532385481,9.310235974586448,-3.8994713171629085,7.825069347087325,6.303759633364224
2.9,-3.004149229625007,7.183900992440531,6.9625936253364635,-4.1862733351469235,10.583532533051967,-2.201905401382734,7.935926056426868,7.482922438273027
2.904,-0.3290493575764266,7.78911763237825,7.423352990990504,-1.4539893564961819,11.5888698579852,-0.7669624866732958,7.05795289845671,8.471080866193848
2.908,3.040922877544311,8.836999180816463,8.757257434960612,1.9328842867396547,12.847556305717383,0.3884284863639742,6.19377368006851,9.57139148575832
2.912,6.411487375494223,10.31670611215904,11.170526335016163,5.356265221475109,14.562179280028857,1.3246804080576675,6.234814597606924,10.789642606974065
2.916,8.818825483830336,11.589603633928501,14.109592526823572,7.876780870534139,16.218216245021466,1.9114794586083699,7.228897408782345,11.589163878417047
2.92,9.245596187891401,11.521358720994792,16.21627330926118,8.35142626098205,16.546668986407038,1.6359575298588855,8.027747118472554,10.899791099890363
2.924,6.968216613091753,8.953605414902533,15.782771603190302,5.762839299865215,13.991484351131671,-0.29084013988187474,6.652699632957732,7.488358568076713
2.928,1.9258048155363046,3.3280000055071755,11.581563868665771,-0.2918405526331642,7.529185321123942,-4.505049723958493,1.3044032720657261,0.6033929246874901
2.932,-5.05651769805892,-4.841051640650558,3.6756687545283753,-9.161299078581647,-2.5645146428574406,-10.946742099161842,-8.452124518192,-9.391759941685509
2.936,-12.337543695671695,-13.905448555591722,-6.246101013839079,-19.01926666107259,-14.437639630632628,-18.526109835804373,-20.986514452173353,-20.752244457695443
2.94,-17.890218075881947,-21.53964042304487,-15.301692328991193,-27.26028200857178,-25.1131370565371,-25.286370150633953,-32.882249861927136,-30.694746537055764
2.944,-19.972723894965213,-25.56248646333007,-20.50311344784346,-31.353070621115165,-31.540415602237918,-29.077779087676888,-40.175228312046286,-36.2956376656534
2.948,-17.78238048104073,-24.782102963188766,-20.028536357964924,-29.836488064538848,-31.802224419615055,-28.466731717491058,-40.02146383232793,-35.59653064104218
2.952,-11.796016395216318,-19.48363871413883,-14.055378656577194,-22.98840644979856,-25.896594439924,-23.425336844917908,-31.985420631770424,-28.408724034377006
2.956,-3.6037397660414943,-11.31083013386229,-4.701252365438821,-12.797030557480252,-15.696679634988717,-15.4169219379538,-18.279762722585282,-16.419624132144246
2.96,4.699331951262806,-2.6027375439649445,4.914753945149794,-2.2005325844369406,-4.117180572163135,-6.813532777513799,-2.826322677749163,-2.5344486958959096
2.964,11.299247500365853,4.513229469507506,12.039535583442913,6.082157284859956,6.098873588326194,0.08854763258390563,10.400249978775797,10.248429734345017
2.968,15.28920793640684,8.869739044804813,15.413671117913388,10.592940740090025,13.38912243685844,3.975425103152096,18.923120537572878,19.899808379967247
2.972,16.865587652811936,10.521764857251888,15.61274770127432,11.555509772790717,17.721043556953763,4.910134902992134,22.471049160326196,25.881374802378033
2.976,17.03227494197963,10.451271771961776,14.484603337297584,10.502165813072905,20.175825491218625,4.0601159261316715,22.590729726882483,28.940742637216033
2.98,16.99873737832707,9.91082479802435,14.02367974277777,9.33836503446378,22.06976495142259,2.941539693750288,21.478310172832465,30.374186504812585
2.984,17.583375446067617,9.764331751338613,15.307812607365493,9.362215352783481,24.137264883034337,2.625827823716274,20.738877052470386,31.20549496128333
2.988,18.894464257926153,10.13982273710664,18.042619793333497,10.729888039248625,26.188886670349266,3.306559920673278,20.720797927975966,31.713154003468215
2.992,20.399803278107715,10.520540550136797,20.888030446575577,12.588271024217772,27.372904982007167,4.3944831428207785,20.68576430018015,31.50213363285753
2.996,21.300760030534146,10.176688930432839,22.32056828164708,13.728938753666299,26.823745100586205,5.020326682932289,19.582965293330652,29.98675319021368
3.0,20.98079513434733,8.657947886446651,21.494915140167613,13.339119401891947,24.271536579471658,4.600797148953109,16.875493106165788,26.936240136732525
3.004,19.320385681852137,6.0847395463386595,18.64299390410949,11.434053021982754,20.26396987291937,3.1598736158765317,12.923572686319028,22.749322280245742
