Timestamp,O1,Oz,O2,PO3,PO4,TP7,TP8,Fz
0.0,-1.0444978215673473e-12,-7.105427357601002e-14,-3.382183422218077e-12,3.339550858072471e-13,-1.9895196601282805e-13,-1.5631940186722204e-12,-2.3021584638627246e-12,-3.396394276933279e-12
0.004,-8.802497515283981,-2.824282104765288,12.250611592833657,12.148114574543051,19.88980095082463,21.97785964860458,0.46231467350092004,29.252401542234942
0.008,-15.166256117920682,-4.784879611177423,21.462782056423407,21.032481004747893,35.40690085476134,37.70399640043571,0.970693994833745,50.764030846778375
0.012,-17.63216139319533,-5.1996978778162415,26.138011616423185,25.012918094782933,44.18339517349406,43.87708518504589,1.6075296563142487,60.2192777512642
0.016,-16.231263250296184,-3.7265126894293417,27.006973947425102,24.809857339776748,46.804081874375925,41.54251468472491,2.487256576907157,58.39120245391377
0.02,-12.328455764279767,-0.4908369931376413,26.469459229055495,22.949392636492327,46.209836986843996,35.22333494919399,3.690219400810072,50.25829690405344
0.024,-7.88530958469536,3.9059270434049225,27.161653435890663,22.27849520075933,45.942707076137125,30.33539360598772,5.189543868992253,42.14705989422366
0.028,-4.559582897596783,8.529842850155582,30.47629135071565,24.413554094072385,48.25510098607239,30.382630739679122,6.821416161167065,38.56144001674047
0.032,-3.087310720383954,12.387295783037985,35.88891710464254,29.001244099031634,53.127196938223015,35.47285091823763,8.334333761474355,40.400040355177836
0.036000000000000004,-3.1955335903440414,14.739732681783952,41.432398158211555,34.149812830823365,58.65082326824499,42.83594694490455,9.505542202308142,45.33288855087979
0.04,-4.019103655010973,15.321048707590442,44.93931681041918,37.66890535593973,62.40931239744597,48.84273374596032,10.244304986052668,49.833086959213716
0.044,-4.699369977202572,14.373934257137382,45.27799948189255,38.332519396443786,62.93142399862688,51.185347961082314,10.617857682050108,51.43322245326468
0.048,-4.84911511480141,12.468155862869224,42.84440369319119,36.42187072742685,60.37224549298868,49.9557020147923,10.763520226355908,49.89452989660869
0.052000000000000005,-4.670393269311585,10.204646754584566,39.121437158493094,33.33440921484009,56.1501794644748,47.165603956608116,10.747033897416472,46.81626062799013
0.056,-4.725109545276826,7.972698690387155,35.69505449035489,30.63077451129591,51.932221215761004,45.222161344536815,10.484781611861187,44.219799358455255
0.06,-5.540576422987954,5.884018771261832,33.37315356379095,29.16804817393994,48.69116920789417,45.41500122909882,9.80948503036349,43.18730237061718
0.064,-7.238880910031888,3.931794310658155,31.950632379098685,28.84858678900615,46.4048518598556,47.31028397171251,8.689509476222774,43.386962319144146
0.068,-9.404405031564888,2.2235335119493023,30.649486024677003,29.022607771354107,44.47734312001771,49.288429765943384,7.4414392662994615,43.65642578733946
0.07200000000000001,-11.246942303593809,1.1044122371958451,28.86644916600607,29.17556996456257,42.48224392633051,49.75070690663083,6.752037642145275,43.08983462496151
0.076,-11.961805804754032,1.055533741292372,26.693870920106804,29.380589268358747,40.64746024116749,48.15732958540523,7.403804423122956,41.78975356305536
0.08,-11.149618208376129,2.35420771360403,24.814169046239947,30.15445924453648,39.691607657064154,45.222910952312766,9.746488431098449,40.73600773254413
0.084,-9.06978481753449,4.721310899401303,23.881224610788628,31.849271564074485,40.12721915146787,42.21308583111186,13.216879463986892,40.86340438683664
0.088,-6.6247015795277875,7.198002423976849,23.839044115134644,34.044966409564225,41.55597858014054,39.90898672508868,16.235334958532682,42.06790501866928
0.092,-5.054325030280175,8.404745178147245,23.716672905455287,35.45663876218615,42.545598465310974,38.01090023652547,16.677928252566225,42.92018986485937
0.096,-5.423742800338044,7.142511835730321,22.133110072324815,34.5458384229932,41.306619250005255,35.416503742519346,12.8289746651737,41.38751134980734
0.1,-8.121239307198435,3.045474353297127,18.210742492994974,30.498684897978624,36.804669626640376,31.161976022931647,4.383002311074442,36.15659402441875
0.10400000000000001,-12.563296401921281,-3.047575591812148,12.339250877721735,23.962855673281208,29.610208070267827,25.332899723641525,-7.031300898761209,27.67242983125578
0.108,-17.308844683054033,-9.276995281794441,6.245402322613685,17.011612596879328,21.899453288455717,19.298077498623037,-18.2023919356957,18.213559550817088
0.112,-20.571674339639152,-13.466261284880133,2.2844389721589664,12.290692189859534,16.548245317440234,15.108599249147034,-25.50099731110488,10.929890059503506
0.116,-20.929451002332875,-14.0359491932645,2.332291021286558,11.791511672168788,15.793154559662817,14.43658048318008,-26.357752075638384,8.383039189779751
0.12,-17.949848118107752,-10.719347151283095,6.839316139762143,15.886461770304834,20.156520910817356,17.675920922516113,-20.37666732092364,11.400193073324296
0.124,-12.39128603531936,-4.687694552973003,14.578763043327719,23.159289436305947,28.207033311228475,23.719829297100055,-9.501333563451347,18.80125474557054
0.128,-5.888802957949501,1.9664511352293026,23.19330041380036,31.099120578444328,37.262154059460386,30.521515580570714,2.8490656071917897,28.08366254256286
0.132,-0.26536204082622206,7.141931512504527,30.24308459547269,37.28435756018382,44.64222448207014,36.11384910591214,13.257824338278088,36.642806451207946
0.136,3.209263441621573,9.599078163861407,34.22069846710578,40.435280559843235,48.81286909822788,39.50846739470125,19.675276076625384,42.85238611641114
0.14,4.237024421033379,9.366176135911076,35.003640735898635,40.78066171748182,49.832393849119455,40.96495651357595,22.004600184293146,46.47647003665705
0.14400000000000002,3.4537048897492095,7.561389762640644,33.61491443864634,39.63221158440946,48.95482318281471,41.529502565421375,21.734409572015608,48.2898296430935
0.148,1.977684514887681,5.749760649893444,31.498000791651336,38.47249249780223,47.70849230055906,42.194285809130825,20.891704566977232,49.28513371521938
0.152,0.8108107323283953,5.183718524676358,29.77149491287498,38.12523416164947,47.04237261125988,43.2534663569341,20.943163334766087,50.02805373265738
0.156,0.40959738275108215,6.300967685578096,28.85558401222985,38.45426784509991,46.99846768081875,44.23437825506143,22.22038781772902,50.50795510123401
0.16,0.5820911071452173,8.644727108770889,28.52641787526837,38.64401161036848,46.965661753957015,44.36076044357452,24.047973411114132,50.44851358767144
0.164,0.7279874768670052,11.194509411279892,28.251137715926266,37.80814189431128,46.229919846824615,43.16525269243702,25.380464449910306,49.71254802519114
0.168,0.22277782839337412,12.881762476259302,27.5266586229289,35.521888078598394,44.4330551541309,40.82735722756051,25.47845615681409,48.4893351118515
0.17200000000000001,-1.2748431586398503,13.036191328617713,26.062775755829236,32.01619566416208,41.7147628062114,38.070785374061806,24.228480779621492,47.176514234314
0.176,-3.7079437159736095,11.600030348539931,23.813565125664997,28.014125477181814,38.54934053664441,35.738379731644,22.01369513771849,46.094686720868246
0.18,-6.712488529946553,9.06172728882723,20.91707149090079,24.35473199867068,35.45130436514275,34.318911025302825,19.320663768698246,45.27212553187303
0.184,-9.766518023354543,6.233068639457276,17.673298919736823,21.661596308814726,32.771208641689014,33.711266135785095,16.435989892261883,44.43214099576446
0.188,-12.322358358491334,3.9693271994622528,14.56206846407148,20.204845098881393,30.683782371662815,33.3634438081736,13.435721178722673,43.21208953902442
0.192,-13.906574954802334,2.9226544396764815,12.243356434203427,19.97033296739768,29.333410010916545,32.689775669299436,10.429693843205392,41.48356656502756
0.196,-14.206653475897006,3.377167104851317,11.447003745958824,20.818138945010084,28.965073312887565,31.48723977440066,7.814855800999187,39.54125070580211
0.2,-13.188260115131763,5.157287261344472,12.683828448938957,22.560209061468044,29.870655488856023,30.06586971219747,6.264925642086503,38.01690250574099
0.20400000000000001,-11.163476032330584,7.67059950298494,15.92472628222613,24.92388878565135,32.15292582421216,28.99758644743689,6.429062919249507,37.51944009858522
0.20800000000000002,-8.763106138017935,10.078985520901599,20.431094526538892,27.46651387937931,35.47560166501502,28.669664387534475,8.50583190536868,38.23907675366811
0.212,-6.766762560914425,11.576797239358356,24.923323711895733,29.589604805194917,39.03354929001037,28.973681138709097,12.006232750123623,39.7987177066864
0.216,-5.8132929999114005,11.71043099641695,28.09581125469671,30.72945301790362,41.84275721526787,29.36242610104177,15.906241566551525,41.46280276092324
0.22,-6.133900981878293,10.589751601658488,29.2103369991796,30.62626212849616,43.21235143273749,29.221430164327103,19.127444813770627,42.5958317152357
0.224,-7.430670797999468,8.894105952347793,28.461749362620225,29.495874850858264,43.10854748713133,28.274210374090863,21.08215013676719,43.0384219638757
0.228,-9.01244833338286,7.61126010968516,26.873256416429737,27.958406846950624,42.17632695736891,26.75665752387366,21.92366834281049,43.18039537249071
0.232,-10.130893852170534,7.602827411845869,25.761358732142003,26.74634286846601,41.39356151095874,25.2615884735659,22.34427658233243,43.69646487558194
0.23600000000000002,-10.324074501790882,9.197706262345344,26.036111215195668,26.323646530124936,41.51232218495403,24.32384919757759,23.046306218559796,45.05351276718747
0.24,-9.609542014369437,11.987042865692967,27.6880226554254,26.61972335489606,42.60086640896615,24.037301519586514,24.210776651177326,47.123216741914376
0.244,-8.396621158217709,14.972383825248748,29.808055283138515,27.091386389232742,43.99635780196438,24.01273362951372,25.33012529428479,49.169036410808744
0.248,-7.206816810186046,16.993654507399917,31.088818287008028,27.04770836507975,44.66769948410429,23.675299581536343,25.49985210605609,50.21593274714873
0.252,-6.377203461823559,17.23646467491594,30.534125760888465,26.052531407851294,43.77693440496451,22.69551267518812,23.99853710893921,49.58968909468177
0.256,-5.90620379605399,15.59687902741725,28.023270046092527,24.20083829564337,41.15059355079376,21.282306574423956,20.81113646783509,47.33275411030798
0.26,-5.556789979712033,12.69943955123734,24.396428006556544,22.09366581721602,37.40018088503972,20.129106490233433,16.73424567896836,44.28051942441438
0.264,-5.105274672236241,9.582940619501441,21.052352239055296,20.539828529071396,33.638682992684856,20.03179139816082,12.998279990373614,41.71582115777815
0.268,-4.566348305319304,7.20847547055509,19.243852700920396,20.123193420102815,30.932037010679316,21.36648845891976,10.62113155008382,40.75239546170808
0.272,-4.221674745897071,6.047046343374803,19.453956894515635,20.87548072495047,29.780384916671085,23.750258403543857,9.88049468744285,41.75244851340546
0.276,-4.428569238089461,5.944355371345278,21.19270902932694,22.240492480899803,29.906880352330234,26.1320941471669,10.213260263230616,44.08596237192782
0.28,-5.380640191234476,6.2808697705803755,23.283188609273548,23.337613898363657,30.46219965029321,27.31177966582257,10.572491638218843,46.4083809135429
0.28400000000000003,-6.95316068678945,6.343029693972353,24.507071887001256,23.4066957746766,30.52704057226376,26.631973614855866,10.048420585872963,47.312776607396216
0.28800000000000003,-8.751944159598308,5.689665306160493,24.20649335348696,22.158834876152074,29.588905457092235,24.393616852787524,8.366703596902152,45.98620928079415
0.292,-10.320418259310003,4.340996823868072,22.527880246158723,19.85696601587338,27.733427416602897,21.717250044330637,5.996287447969269,42.51855271020692
0.296,-11.359195369093536,2.717994588120506,20.23096853897605,17.1270591074408,25.48933000235671,19.93157203006456,3.8439771228018524,37.73879306645679
0.3,-11.84781051226998,1.3735950527804026,18.199337826363692,14.62986905214581,23.471030544375072,19.854856904459627,2.7209424118360457,32.75854198699011
0.304,-11.968363016853262,0.7101184498018926,16.998842252664453,12.819058106754706,22.072540643558874,21.39408984604514,2.929684031632913,28.495150637057733
0.308,-11.91933634821237,0.811853548103229,16.676995264685758,11.863790173835923,21.343854697077592,23.644741852979166,4.169768045933401,25.394238480096803
0.312,-11.767917719664114,1.4542437875254093,16.859117511709954,11.714023069709064,21.059618915074886,25.389564978395775,5.766092488680036,23.412486744230684
0.316,-11.43242202323301,2.266549677631116,17.061090640904617,12.230012695322202,20.913111933215333,25.71605798163533,7.058686520655199,22.19909640257594
0.32,-10.834427180688271,2.9170467814752508,16.972641944769734,13.26145021931488,20.695646686493497,24.443525449807094,7.6807610440812795,21.36188707575557
0.324,-10.080876136241564,3.234011724867523,16.580076244770172,14.649855936748535,20.36246961019956,22.15889540025436,7.5995473757487035,20.640445203333538
0.328,-9.52843657526003,3.2101698599956565,16.05148312818013,16.158451494379864,19.952955018020315,19.84562646224102,6.946675493505608,19.910782386624124
0.332,-9.633324465350936,2.9384518654047156,15.493173722285256,17.42716486866169,19.44636442847345,18.33653004715505,5.806550343164076,19.06535533023706
0.336,-10.649669197252123,2.550775009798833,14.798006327266569,18.049314764237376,18.693784275012355,17.917381894706146,4.1388264489484285,17.909767756423324
0.34,-12.400654220259696,2.170090122742942,13.68102677748357,17.743175672235,17.487860338232224,18.282788055912974,1.8645152976064967,16.20768248003784
0.34400000000000003,-14.265786825422886,1.907251713351119,11.928631277905756,16.550430198664777,15.744922279065106,18.83580040860665,-0.941747165299105,13.841253339073928
0.34800000000000003,-15.45293372228297,1.8465136439346796,9.643870629992637,14.876188110670258,13.634488549508012,19.079898047567553,-3.9344253377927614,10.937100077892582
0.352,-15.424269916397318,1.990996924909708,7.293567217040117,13.295144587751732,11.531549690114533,18.83869638282681,-6.574601978927852,7.823854624493953
0.356,-14.218336781821844,2.2043511919140046,5.526001380974703,12.226307910706778,9.810733931819609,18.221359195696152,-8.362719356648114,4.835684137988767
0.36,-12.490936396121015,2.1796231405160436,4.825708400935698,11.65993439621867,8.615959104633166,17.427755523810966,-9.097324896330822,2.139976809082448
0.364,-11.192407569246535,1.5272747087172394,5.262234826702785,11.154552814047912,7.792951934705441,16.58517340833386,-8.963631528016094,-0.27370581699684315
0.368,-11.064629391317068,-0.03390956380961008,6.4486876091531045,10.115548748576346,7.015816820510155,15.709305432490893,-8.413276699424925,-2.432637940828301
0.372,-12.22614369469106,-2.4605906154449464,7.74353683534064,8.212510110825155,6.037125084262489,14.791257121055672,-7.894174532893989,-4.175021363866821
0.376,-14.07113340831698,-5.2616543429666205,8.608980978223745,5.70548812647043,4.9197187898296475,13.930241292985253,-7.585714456612433,-5.072410735755625
0.38,-15.586123548568901,-7.612810873842425,8.87900026428419,3.443583902948906,4.082244085679044,13.389107214321394,-7.339866535253708,-4.568256752991161
0.384,-15.880752968158227,-8.662854621055882,8.830215944964937,2.524851809377168,4.121354387305199,13.528573346229361,-6.830874384737389,-2.3009143004544352
0.388,-14.648996033932319,-7.918857673004563,8.980358441755676,3.7462482648444775,5.461781804421836,14.607671501647944,-5.826334464411359,1.5532571239901536
0.392,-12.30319117488172,-5.518855524341686,9.732217302678713,7.126198264904868,8.019490695664555,16.55625288816018,-4.404843640709015,6.130224129679483
0.396,-9.693849018145007,-2.2089664672304106,11.114854325794225,11.802187466690416,11.109422676760751,18.900849400182402,-2.952692277538377,10.094845956377661
0.4,-7.626259648540957,0.953304545553463,12.744064833221161,16.364391989860323,13.682505838018674,20.927563487911495,-1.9662358557983963,12.206454964918507
0.404,-6.442211084475005,3.04379978339509,14.05567789865471,19.483539753094462,14.812174415093239,22.027460806045365,-1.7615090239076405,11.946320058534006
0.40800000000000003,-5.915820531341467,3.632213195204539,14.618508372221857,20.47730062427207,14.15542176994763,22.010584787717654,-2.2839115017303437,9.839649330507552
0.41200000000000003,-5.498010352119509,2.877753676168674,14.32717063490783,19.513901029638912,12.11877437334592,21.184607224914494,-3.13408315200673,7.234565551650919
0.41600000000000004,-4.715650209010878,1.3606927383989165,13.409117449591276,17.40247343095256,9.658957965645055,20.169399538144617,-3.758083128587622,5.636958682469167
0.42,-3.5069426567808746,-0.26091228095338437,12.23111374516005,15.099541314553186,7.81527256343064,19.55243841041098,-3.7186080704290454,5.967284271032085
0.424,-2.2674030541161727,-1.5561389523016573,11.09255919598845,13.243476889661334,7.229540550891702,19.589432367020617,-2.8842335382301827,8.120247658173216
0.428,-1.600582872177747,-2.437853302201968,10.110442636096044,11.942432450954335,7.88349793215845,20.08964050105442,-1.4556515891709587,11.050556932244872
0.432,-1.939284153958316,-3.064361522935892,9.242868880583828,10.879508515802845,9.15584923210344,20.52323623414769,0.14420180014100836,13.298541851796722
0.436,-3.2669944355920935,-3.618624859572584,8.433326929333862,9.62852970072323,10.162503162580297,20.295034586749953,1.439040128638676,13.654004823763348
0.44,-5.14231282161211,-4.151877635968646,7.724077421742937,7.949006311779076,10.202099341832099,19.047385901664374,2.0207412185274913,11.663403593395078
0.444,-6.9704194871295835,-4.555698087486853,7.287481029632946,5.927332962288251,9.103915402810628,16.873571827590688,1.62722815240748,7.758529539527682
0.448,-8.341093815675043,-4.65435858639189,7.325499045786231,3.9015999145277753,7.299139546945899,14.314928451954817,0.18994337814529683,2.9961049313560224
0.452,-9.214527708766326,-4.326461369985135,7.906468346298029,2.2540875371913147,5.587356739580521,12.125354453639828,-2.1303052483980256,-1.4240982059129639
0.456,-9.828439070516675,-3.54822846499916,8.88972394118815,1.2419057143271939,4.7478176927657,10.939226179276924,-4.905835373083495,-4.603141388339534
0.46,-10.440392451159756,-2.368539700340123,9.961920632615534,0.9360558288583256,5.182507771905623,11.004312766224313,-7.500899925075268,-6.1484933307175424
0.464,-11.068575937187855,-0.8505415505529328,10.80494980425218,1.2862385730027475,6.765092117543759,12.11151632859681,-9.242047822734754,-6.139258364417553
0.468,-11.423936797364648,0.9289848241216347,11.256408412065383,2.196019457705635,8.923543451594409,13.710520822731818,-9.676215036851602,-4.97467443695168
0.47200000000000003,-11.085462428989642,2.803003665120393,11.342903584309774,3.5210077309737002,10.879881839225487,15.130556658696776,-8.80756148637589,-3.247125938321817
0.47600000000000003,-9.785385709334806,4.438777060016436,11.200273120318627,5.0168541497006025,11.943196879362382,15.825689969231943,-7.148353287540305,-1.673333824794228
0.48,-7.648350964269319,5.344131194306549,10.909968518230684,6.3006767715931655,11.734002935100639,15.553673179763281,-5.531314004533375,-0.9892525371613976
0.484,-5.206667124513319,5.033412243788256,10.410641965196332,6.931165573008196,10.28144330771717,14.438042394033175,-4.72605155009539,-1.7656222198648663
0.488,-3.180437055892847,3.292977820011444,9.533769299640444,6.589084393413279,7.9605820952291,12.874393246158444,-5.059742782509587,-4.184052697960235
0.492,-2.152645881860515,0.38325475828673206,8.127393310013082,5.252357819236691,5.300513565237457,11.307282650400362,-6.263386532086235,-7.902985843647336
0.496,-2.3130174402596486,-2.961860330979711,6.212960733032883,3.256875787977478,2.778487191053772,9.999055732761619,-7.631595037004784,-12.132762539690829
0.5,-3.4310713333230956,-5.814125845978393,4.045618732538692,1.1699134939640778,0.6968029821123078,8.913736677649952,-8.42451928827749,-15.895236340739693
0.504,-5.024108878611307,-7.463792865230101,2.0767105735179285,-0.4465350928322307,-0.797103670905198,7.805126961434138,-8.261428565881408,-18.372042730364516
0.508,-6.613880517425752,-7.750347697738373,0.7997521581820806,-1.2788328286636075,-1.6120578322692865,6.430801570653472,-7.298030476147121,-19.18829000432654
0.512,-7.928808916180692,-7.118558914639521,0.5401516956457595,-1.3885226167170117,-1.648937640411888,4.74132248504112,-6.100208031651814,-18.51592710110989
0.516,-8.930858871788882,-6.322656561687849,1.3352420330236638,-1.1276389587615618,-0.8211827826742644,2.9514682930722733,-5.281641136522143,-16.94825602711429
0.52,-9.726113053888492,-5.972614352439941,2.918277217569589,-0.9190070536772672,0.831014497902606,1.437353774187763,-5.167539760468305,-15.204706565674822
0.524,-10.427565631667878,-6.178986801045089,4.840287935292242,-1.0080683482920967,3.0255652024081816,0.531505137316783,-5.6783818739597,-13.840161789133468
0.528,-11.0744801887075,-6.526614569666529,6.621587369865691,-1.3499001908057224,5.195546263853055,0.31794770809384776,-6.495918716503599,-13.112495495734603
0.532,-11.63608784522286,-6.397240398126237,7.860439181945167,-1.6927272569325205,6.590094861112637,0.5481715051370468,-7.365168304575622,-13.051318822671778
0.536,-12.034507535333393,-5.41987344371734,8.311979631524284,-1.7672146352053413,6.534416794190354,0.7560482848478878,-8.29655709873296,-13.629984685397552
0.54,-12.183694521327933,-3.7924882278086702,7.899974123473074,-1.476418238512354,4.73433029839039,0.5133218486691242,-9.539315386052582,-14.860585771784013
0.544,-11.988500046313945,-2.237577411118992,6.732901464788659,-0.9464130993047151,1.4861966058627876,-0.29416122370162556,-11.325185078359558,-16.738575081642693
0.548,-11.339977755073454,-1.6159210200063585,5.093656363506396,-0.4458297853148092,-2.360809596305886,-1.376865540596273,-13.579830566991054,-19.100950532568334
0.552,-10.160949669202985,-2.4312163736044496,3.3747334170690855,-0.2522495994463527,-5.726148751134188,-2.227549047528666,-15.826799731532947,-21.549270086502414
0.556,-8.490995937474846,-4.506995152424205,1.9802288013120601,-0.5379226063754161,-7.75605099243173,-2.473523599594487,-17.36842149458045,-23.552139777406953
0.56,-6.595652615507643,-7.067760921775399,1.1780363589077893,-1.3457880268787332,-8.197598142836332,-2.1850058140497506,-17.68462322941454,-24.687543284487656
0.5640000000000001,-4.981963261207635,-9.154853212709453,1.007587993728413,-2.606553784800526,-7.471602620452244,-1.907087124061123,-16.77222390219682,-24.88568235123313
0.5680000000000001,-4.269934391615768,-10.14608134338512,1.2595535239766296,-4.182324766108234,-6.429559661736434,-2.3881973889831993,-15.210616186114756,-24.52337855941678
0.5720000000000001,-4.933261044080684,-10.068923804749533,1.5568489654385758,-5.8973616528988115,-5.925335044573403,-4.144001357082771,-13.884820254733162,-24.283604886257926
0.5760000000000001,-7.001865717193018,-9.512618681767702,1.5413766399286395,-7.526981478585098,-6.404804276199117,-7.08421393955596,-13.485656195758065,-24.822656405271097
0.58,-9.930918173857101,-9.235355127810799,1.0371996958908714,-8.799816384549882,-7.7234080730835695,-10.4280853596267,-14.10269075323167,-26.38598707375147
0.584,-12.722071123554528,-9.694118372249559,0.15807116337164162,-9.417765788810632,-9.242735152320556,-12.964502318198356,-15.130365176320758,-28.591913517743848
0.588,-14.292610729878948,-10.79168414528776,-0.7431419591331155,-9.134849777393205,-10.162239693885518,-13.575374373102807,-15.573209102350965,-30.533827332106856
0.592,-13.944790702040324,-11.986964917398353,-1.280342476407034,-7.879195330267053,-9.9255245215546,-11.78622570102269,-14.605701928445448,-31.192082078117302
0.596,-11.681810256839984,-12.660756650371287,-1.2470101311828654,-5.826113151445807,-8.483184585913168,-8.049031830113023,-12.053413342709682,-29.955042089344268
0.6,-8.236546654771848,-12.518102851240297,-0.7442086256790761,-3.387370959674521,-6.297373483825961,-3.6017400011735425,-8.549713756053364,-26.952157974229447
0.604,-4.767253506456328,-11.764717230757697,-0.11435725324452228,-1.0873096759117007,-4.099624863963358,0.057860705442116855,-5.27286054960862,-23.033837902850337
0.608,-2.3613573750502943,-10.964972997924276,0.26488821321358014,0.6069772211515727,-2.546371377484016,1.8211277178281235,-3.393597435108756,-19.40155107695327
0.612,-1.572940779202617,-10.671609633393313,0.21301591782124696,1.4240265138935124,-1.9458995249334876,1.4269294112436703,-3.5067479404472195,-17.07831377664264
0.616,-2.2095992203365133,-11.06016520410018,-0.11647491424596979,1.3544939185918077,-2.1757185985609264,-0.4808434538211719,-5.325378382357702,-16.495403766502225
0.62,-3.48857632020713,-11.81649477166715,-0.3191935559846666,0.6115796030905916,-2.804066571713914,-2.7043458252087276,-7.797917780937232,-17.355218272646802
0.624,-4.456101823185977,-12.3247744243298,0.03413737557267815,-0.46114784286405675,-3.320616338536114,-4.058116226513157,-9.568773489351146,-18.821914053438242
0.628,-4.474254657910251,-12.04828797045844,1.1178685126866874,-1.5144321670865943,-3.3792557136795534,-3.9014471924126557,-9.575300850535385,-19.943996565335684
0.632,-3.5274224547373256,-10.864532733340443,2.675673032382808,-2.316294124893387,-2.948043359057288,-2.4051139934357035,-7.51179675544568,-20.1019783473698
0.636,-2.168498432981156,-9.127843023329225,4.110161423872464,-2.8089258808253983,-2.2807238803603482,-0.4243260800555442,-3.9283170532812566,-19.26814587014099
0.64,-1.176407469231496,-7.451531227602915,4.7690767746238825,-3.0984900955826924,-1.7422712153625648,0.9413307886507041,0.04010077984528326,-17.95151817266413
0.644,-1.1013414624544096,-6.3411218013412745,4.319698180798502,-3.3612568704581953,-1.5683953215273565,0.8986943239970926,3.1840528631471727,-16.88319228119095
0.648,-1.958739684187254,-5.917209021639157,2.967188217872848,-3.729996190476583,-1.710420230196397,-0.6634670710197672,4.708433394120025,-16.625658864275167
0.652,-3.2427199604984187,-5.895629473574053,1.370304835091157,-4.226046374959697,-1.8637107608350454,-3.1671777760696873,4.477166321919743,-17.314452753811096
0.656,-4.236946191162134,-5.812610478236566,0.30379545038640465,-4.749336267202852,-1.6582395627206172,-5.68765124904455,2.951989061060167,-18.65207131902175
0.66,-4.464802896304809,-5.361509699786852,0.21744720755620395,-5.153059588968693,-0.9102819500933848,-7.451204732078397,0.8711777280680062,-20.10053955701754
0.664,-3.982659313877834,-4.6036978559006805,0.9858616188101923,-5.3313277909844565,0.23938650671331452,-8.197402202266773,-1.1272555117281517,-21.136815671940187
0.668,-3.3349687244334287,-3.919069815718434,1.9909661846969051,-5.269507703877013,1.3956514600804937,-8.220337597580137,-2.7287780023020294,-21.423875570419078
0.672,-3.1816191206726936,-3.729892832430593,2.498034300210355,-5.024125129860272,2.157764463442251,-8.088955829578644,-3.9189973747314095,-20.83939579411816
0.676,-3.8005444951473226,-4.164355516004321,2.1427461867732482,-4.620983878853599,2.412294392640311,-8.220736715953562,-4.756894183592028,-19.399593498006332
0.68,-4.81879737221957,-4.913995788311061,1.1886539231235265,-3.972037201536301,2.461839482533401,-8.582095764394214,-5.1493641990008,-17.161304116324906
0.684,-5.354681535523886,-5.384329470931778,0.4122697527507757,-2.8744052475576165,2.8777053852097367,-8.696498825335336,-4.804166488201711,-14.210542042540675
0.6880000000000001,-4.535532756825207,-5.064612435680154,0.636667896415986,-1.1420322527190718,4.126585910408482,-7.98218197631668,-3.4174062802608525,-10.748906171236218
0.6920000000000001,-2.099475962184693,-3.891899755321183,2.1656902235169193,1.1798059595196193,6.168414624883819,-6.222195254228851,-0.9880872461751506,-7.204773342646288
0.6960000000000001,1.3138716705079565,-2.3613908670838306,4.48930463900381,3.6654376624049245,8.295626818903836,-3.858033512765094,1.9748694546925156,-4.260723673609267
0.7000000000000001,4.380095670714675,-1.3022030441192758,6.447135689376449,5.552054199224464,9.382872636918558,-1.8793501592706408,4.533066617862005,-2.665609009911324
0.704,5.764135837858385,-1.4044896969370164,6.842975142488523,6.048789381017246,8.49025038785501,-1.300579197907318,5.72923692044737,-2.878615254023533
0.708,4.870228070863545,-2.774158026708472,5.158236957897205,4.7729309837495215,5.490029929856734,-2.5290620171271394,5.1207189742613055,-4.735025012883675
0.712,2.2137045164969233,-4.792111694719669,1.9292801850095493,2.054589425273491,1.324116597680959,-5.024806194230191,3.1125970513606163,-7.368168377200757
0.716,-0.8089810146730869,-6.351289815888945,-1.414730562648593,-1.0763917864587569,-2.2944563337129047,-7.48136732778498,0.8785646007591343,-9.494771632074846
0.72,-2.6859606373438396,-6.39068709119687,-3.2490636817347642,-3.3002941621368524,-3.6525620328688078,-8.480870687933615,-0.177065989458431,-9.955016396620739
0.724,-2.634386707307364,-4.426775080546864,-2.5789191133552656,-3.6063965415005512,-1.8748808551626048,-7.258124175923546,0.8665666681798532,-8.249446639536664
0.728,-1.0180878053868305,-0.7948823131648917,0.4484148689876122,-1.7697656417734784,2.6241586449034577,-4.1343593626556565,3.9479203765481814,-4.769720830684236
0.732,0.926828010690818,3.534246673348596,4.632562603071925,1.5651991813589232,8.336472976360467,-0.3571856863274112,8.04030723858491,-0.5779090294006801
0.736,1.903930929563118,7.445061966105204,8.371130293333074,5.256056018967545,13.397724973918953,2.577551092831123,11.695220949157077,3.133161047783144
0.74,1.3673426900483596,10.157435050334641,10.452243659690147,8.249183654288899,16.44712037645779,3.723036720103789,13.777322582658606,5.621349242071214
0.744,-0.15708731386047337,11.461720507505497,10.585318824808922,10.070592778430676,17.16014877718194,3.160370482445053,13.992812675749374,6.8942654726909405
0.748,-1.4550313657675034,11.6089184477113,9.37171047270385,10.925948443002973,16.180122876864335,1.8733066674834804,12.908087933208591,7.566135685804318
0.752,-1.4828092392119685,10.965780915496087,7.761354280600239,11.356886521107471,14.530937885243977,1.0927330590208149,11.465127510031756,8.366392790192277
0.756,-0.11501654072078704,9.721497517477726,6.41008139884039,11.731951764089894,12.931558292265793,1.541311867630956,10.351443701764104,9.617626011399384
0.76,1.6987750840040108,7.833424610091381,5.317232601676565,11.905623675166634,11.450518818797658,3.0365295059057376,9.622411493323888,11.04658177197646
0.764,2.525064818249427,5.250051263024728,3.9994048159581164,11.311873984266958,9.708733531748862,4.709861224174054,8.827164226016473,12.042985455961709
0.768,1.4226802351363599,2.225562458420859,2.0377756821593795,9.432953861222298,7.437374645303805,5.666793147878706,7.5429299810374975,12.18998916553452
0.772,-1.324082374408386,-0.5459586551684277,-0.409721586129109,6.313431788676788,4.958254115482917,5.631343163514275,5.9151511576001585,11.692252793916344
0.776,-4.196559474995084,-2.122573989108713,-2.4878368701633065,2.766307876160918,3.2130403649958468,5.142352289460671,4.791657606295454,11.3567826419607
0.78,-5.262408746838515,-1.80404916849146,-3.0926485543262885,0.05203820589662023,3.247800746252524,5.1501163570324575,5.267117735646175,12.086572198354192
0.784,-3.3582369183572993,0.3634770470752988,-1.6077536401742352,-0.8179947087101249,5.460332107636725,6.264336894083723,7.87078006546768,14.154042591663853
0.788,1.0655551460339647,3.386197464692737,1.5116932313999492,0.2411049566702883,9.089432492148378,8.137654943702264,11.89282817504229,16.707794203455187
0.792,5.96594512492725,5.600685855258283,4.6998992497048695,2.154641059214055,12.318537374402114,9.414853628333091,15.337172382301617,17.88758649120866
0.796,8.657431341905163,5.360504097376166,5.911148165902997,3.1024472501274154,13.025548487304354,8.355001472484176,15.658942634933815,15.579813445298669
0.8,7.1705296837018295,1.7967877108470087,3.590066052660327,1.3926627935861644,9.809289286580926,3.8166987870473115,10.973795150151723,8.511441745642674
0.804,1.3055989222345934,-4.7132138747671375,-2.488462506548966,-3.628754269814095,2.7622810768736894,-3.9338841558973883,1.1531857752524473,-2.877415312512971
0.808,-7.192706685156909,-12.617309277534885,-10.986852541011466,-11.132083185669787,-6.439619883966419,-13.099068023610908,-11.809197793489414,-16.279196423420153
0.812,-15.410884118651202,-19.761249834779687,-19.514788339334892,-19.063623396404783,-15.188965443103392,-21.020964721711888,-24.416743700945315,-28.231671989422228
0.8160000000000001,-20.544818111375427,-24.170436561349458,-25.59402871635568,-24.964754166912115,-20.99790476280167,-25.324151686614407,-32.99686917718467,-35.42216275299023
0.8200000000000001,-21.057657064523823,-24.7213572821993,-27.63832529462811,-26.97494556862356,-22.44390534419523,-24.961020924385895,-35.143921411507336,-35.97562416762277
0.8240000000000001,-17.152946828062635,-21.416204536423788,-25.445204390048414,-24.51773387339817,-19.565626225322106,-20.60217385000312,-30.58888700186572,-30.132603160447967
0.8280000000000001,-10.42850452489274,-15.208674351282745,-20.048716508407363,-18.393620622883432,-13.607715270915087,-14.198773168979667,-21.124663471589212,-20.018432120054428
0.8320000000000001,-3.021982538344017,-7.562445658580155,-13.131431697809973,-10.332223121172373,-6.3652164756492855,-7.9990153790193785,-9.707815731802027,-8.658348900456142
0.836,3.287419514970185,0.04045887840094409,-6.320658499903231,-2.259880779314319,0.5047734352462436,-3.534051060099462,0.7964551270271858,1.2609519317059918
0.84,7.575752141810909,6.423150665764981,-0.7526667440735761,4.334425815565863,5.890556503754648,-1.089905073358838,8.605086062567871,8.329942503566393
0.844,9.769832443913579,10.842462079756388,3.0148813599996807,8.728658061508023,9.288533885452933,0.14184335683580773,13.361532159211873,12.676438673220407
0.848,10.30283512622249,12.9831173442823,4.8335153905135835,10.937159912961935,10.63525846266955,1.3811191937022436,15.792276801902476,15.510989942200421
0.852,9.707143004846118,12.900387013719453,4.7452416364202294,11.426863167196283,10.098387707884878,3.4519344539551424,16.96523255712445,18.251741815307284
0.856,8.382254344941831,10.977358551373136,2.922255459336932,10.789239476431787,7.969422362363113,6.292998986080763,17.604279526725087,21.668209616227756
0.86,6.569665763995414,7.864461662549415,-0.2572433907741565,9.509592859120488,4.667360105461132,9.0148333750554,17.787449323898645,25.47372365034301
0.864,4.45814481106762,4.374619755903635,-4.093536479499326,7.902342635273001,0.7766047511987155,10.43438000151164,17.1247697057374,28.50810163981284
0.868,2.2542486805613318,1.284161550028551,-7.61995220054888,6.137680277415518,-3.0092666796212013,9.7336817773618,15.202287616556815,29.347230566494986
0.872,0.15902405590092528,-0.8947173854578029,-9.88710956412923,4.296066324977383,-6.049187233026643,6.888582829307628,11.9980837217677,27.02807695255582
0.876,-1.6877164291920848,-2.0400834272509174,-10.324275833847198,2.4317481758005357,-7.930901209033208,2.6674983863222126,8.049742590474205,21.53449219518592
0.88,-3.253394446764414,-2.4043758217445386,-9.024706195052651,0.5928819760646284,-8.578075609604417,-1.7758360900477785,4.264922105045136,13.85067732237629
0.884,-4.567962041148336,-2.418797737203345,-6.715188686912577,-1.1536999817647997,-8.195778062974458,-5.428802030870424,1.5343142460685453,5.613829645564209
0.888,-5.621296533763651,-2.421491209324265,-4.404653937816906,-2.696893857734581,-7.098668744898077,-7.787248459155231,0.3643455957301427,-1.4500648212774525
0.892,-6.298802040213225,-2.4720426452127238,-2.917831629142179,-3.8917164448308554,-5.556282914822029,-8.924101373631656,0.705774330986344,-6.077436827710796
0.896,-6.400508189573641,-2.337878390589332,-2.529361349005068,-4.593008492632481,-3.740627138098866,-9.273893502695106,2.060731554380493,-7.810825114637858
0.9,-5.78079619064355,-1.6951676316756272,-2.9390552772252505,-4.738096835212873,-1.807143471474808,-9.320179558176747,3.7533350054388666,-7.0310074589584355
0.904,-4.513322024962073,-0.418694177517448,-3.561484091884814,-4.42340488914529,-0.01958220212386097,-9.364915641801751,5.21232932970783,-4.7261825573646306
0.908,-2.9808402073673395,1.2128945100910626,-3.9589253951780976,-3.938433501306096,1.18983366642342,-9.494612212871829,6.1234272533150165,-2.1190973948716887
0.912,-1.8127215314817988,2.540154639844209,-4.145891577162484,-3.7209025777783116,1.309918108077486,-9.710012867435431,6.414039476057166,-0.27417781543773856
0.916,-1.6464161800181047,2.8118239106283696,-4.541166762624863,-4.207213095312122,-0.01585019524084008,-10.065058815372616,6.153717864966085,0.19749348234005248
0.92,-2.835481991627205,1.5906875740301571,-5.629880346741824,-5.645975308012534,-2.7445352246674437,-10.688955203260866,5.457707048231823,-0.6994664505379697
0.924,-5.218350759701407,-0.9152302776333618,-7.513084446108133,-7.925666975695025,-6.305106644009037,-11.646507253031206,4.488022677757362,-2.3448706126320484
0.928,-8.090483791867223,-3.818297133871803,-9.67818325046127,-10.529759911934494,-9.714945271910603,-12.774197094924226,3.5103845322142506,-3.6897222571481727
0.932,-10.416005917787261,-5.8758501015857245,-11.176473053120983,-12.667770606841746,-11.93011437275948,-13.631398289071829,2.9197251713089,-3.5986817457173634
0.936,-11.202477853123547,-6.039102613439043,-11.120831825421789,-13.540328044965573,-12.281464261615636,-13.65366620859451,3.166341833518646,-1.28556757592085
0.9400000000000001,-9.939373594338663,-4.010478690690615,-9.289411488970407,-12.694430805835868,-10.815801994115875,-12.482686005657042,4.526263892977532,3.300680839652358
0.9440000000000001,-6.8855521439511485,-0.5013627766991147,-6.425479691139482,-10.28305065355211,-8.343301611376278,-10.252638506077762,6.8503386997183675,9.311329895501528
0.9480000000000001,-3.059378528741572,2.967798308787651,-4.012137936713076,-7.089558528088101,-6.138000430929613,-7.631618024720412,9.45820106104603,15.182588173641465
0.9520000000000001,0.09595950064093106,4.660752872297507,-3.6061636832014194,-4.283093647448938,-5.410051281725508,-5.559232434047454,11.276140383995108,19.146001110638032
0.9560000000000001,1.298078173191667,3.3929098818353163,-6.011204776208382,-2.9450021739152064,-6.75782210188025,-4.787584087523033,11.237587138283153,19.876169979209315
0.96,0.01737726093901415,-0.8791743785270787,-10.752954202544625,-3.5713014448099507,-9.848281053840266,-5.46617761023899,8.775712937750395,17.03996513232688
0.964,-3.1942252420395763,-6.9329889013610035,-16.141099961501542,-5.782153113526119,-13.481993109146934,-7.021888518913505,4.16067869904359,11.473102775712608
0.968,-6.850881539443503,-12.715937896022105,-19.947050328535532,-8.4223384984772,-16.048651482054176,-8.441204633665276,-1.5330178310867795,4.872784329838724
0.972,-9.163742993114454,-16.18780313614415,-20.415344500253887,-10.078949072989548,-16.215965284709217,-8.830319928584887,-6.868336107619765,-0.8860374096453825
0.976,-8.862722908242983,-16.172143612902317,-17.076424220645446,-9.774355998509598,-13.537351538142904,-7.9262091536442645,-10.664096607186668,-4.514854666235573
0.98,-5.838075527048389,-12.850744363093606,-10.991363546415338,-7.516105498992055,-8.699857037588536,-6.265558834176634,-12.490971210751537,-5.7734906522706275
0.984,-1.2511164390221747,-7.670439252536292,-4.28456774269819,-4.38972803694104,-3.286996171003217,-4.8962578944691675,-12.78320936777001,-5.425640392036241
0.988,2.9796063326681512,-2.7053315108985956,0.7936096948120017,-2.1036182715190517,0.8520010816422037,-4.7767492422886235,-12.50612256721185,-4.723218529017096
0.992,5.08962822491814,0.22696721153586807,2.8031021057884047,-2.1805345117904054,2.348536575032167,-6.2060440267504084,-12.570586894025123,-4.690742564668511
0.996,4.33895803079599,0.3099181427642499,1.6387691783820912,-5.173500366844717,0.8403405768645378,-8.618891732592518,-13.313327723242406,-5.605102934611153
1.0,1.341090500194312,-2.0267537466420666,-1.6284593974510706,-10.352802586083824,-2.9844637088630783,-10.889355234957852,-14.367412339230059,-6.927293787939536
1.004,-2.30340150550318,-5.423990177555551,-5.418574048144976,-16.016214404200287,-7.805458067285365,-11.950705727844918,-14.967633305138612,-7.691974335444705
1.008,-4.877727592723768,-8.285990093558672,-8.435441430384175,-20.27450281039939,-12.31274554575402,-11.377937942454249,-14.490882390159312,-7.098867011276567
1.012,-5.463007455109962,-9.514565135117333,-10.20270741162535,-21.93101160861687,-15.760289595361801,-9.609984753438042,-12.911495801700925,-4.972303832753225
1.016,-4.3625034695730704,-8.924743446470632,-11.078977280467019,-20.97829864316058,-18.16719319690905,-7.679867207117123,-10.870087825072803,-1.8530198491501313
1.02,-2.835066755830126,-7.202718983189731,-11.860300613371836,-18.488283055789854,-20.115316837064388,-6.622378143106001,-9.324478132962803,1.3227314468627709
1.024,-2.305726009525179,-5.488535235096307,-13.23329053757886,-15.97753879721812,-22.301714109995075,-6.9085693809017865,-8.997699938819753,3.7248643368710788
1.028,-3.527741330280218,-4.825826126823856,-15.405898398797763,-14.60818831847379,-25.112010534428848,-8.219539340086348,-9.959752865919517,5.02287194666712
1.032,-6.187502589743654,-5.75868424605607,-18.109922843743334,-14.67198608549731,-28.4452705553559,-9.68203033497267,-11.608707115853582,5.457104750649142
1.036,-9.14074544164574,-8.218568293702996,-20.877720131967433,-15.59411155081945,-31.84115214085066,-10.408856334683367,-13.054260986733354,5.5519211018152355
1.04,-11.12134164380391,-11.69127454466427,-23.392186156114484,-16.413800734539564,-34.77893765658699,-10.014857827464343,-13.670922296475599,5.69468956101346
1.044,-11.439574954209931,-15.483530772242414,-25.61141795230936,-16.386481989829033,-36.9071632287221,-8.781549325381343,-13.448735039736643,5.860732471100758
1.048,-10.26606356709028,-18.943856531163334,-27.615265559353688,-15.359873918516087,-38.085106736378684,-7.411196487762188,-12.948640227647472,5.637217299978273
1.052,-8.379367943568939,-21.571215590876132,-29.330272463383743,-13.752460303064744,-38.25664259084213,-6.553704362686087,-12.906509103097715,4.515660233970806
1.056,-6.558757832081928,-23.009194068806,-30.32474512335925,-12.180591964665853,-37.28865469877001,-6.3933482544591875,-13.727631608756429,2.23998108815685
1.06,-5.085060660137131,-23.04066350709971,-29.909150091656556,-11.043895355940517,-34.96326560730371,-6.574467536881891,-15.224259535667121,-1.0104353992597677
1.064,-3.6643633744671993,-21.632951168105944,-27.50084940804806,-10.334688235362577,-31.15444680763958,-6.491832745505928,-16.745439633928978,-4.715750331293192
1.068,-1.8003140049090316,-19.01855056736473,-23.04234301181127,-9.771278232912502,-26.075215763056853,-5.7413757216330925,-17.60182639108171,-8.304001791618692
1.072,0.6481932388949607,-15.742985840808263,-17.218486072786416,-9.143471363552555,-20.414013823502586,-4.450355063463062,-17.508591856521516,-11.433476036847061
1.076,3.1631166214303033,-12.569800422594007,-11.271434604763954,-8.588005724919539,-15.20636787011,-3.2706523490445933,-16.733502776846635,-14.100937840073671
1.08,4.738465570866028,-10.252546358931825,-6.513321921431367,-8.601332226959979,-11.469489774456203,-3.0382359737516786,-15.87244795195075,-16.49291341670247
1.084,4.470615784161842,-9.237326177324519,-3.7490801129946174,-9.733505992097678,-9.755561083941577,-4.279469483590413,-15.378664729781562,-18.688240334925563
1.088,2.1850316893089086,-9.459840137169639,-2.94247489271558,-12.159336767208845,-9.883237315546204,-6.86116640406529,-15.181193061722057,-20.423104070570286
1.092,-1.3233333978808193,-10.370335393044613,-3.3263879415170496,-15.420762160443147,-11.022336954657613,-9.989563375919401,-14.68649043603036,-21.090221933427014
1.096,-4.595895581216562,-11.174199697696258,-3.8530649915077415,-18.50427015673783,-12.087069491791418,-12.560893917651264,-13.161070367163553,-20.015525600483414
1.1,-6.23379448222361,-11.199650817556863,-3.7676488441209743,-20.26748389591027,-12.249477098689567,-13.681891517795165,-10.285543514630042,-16.861314638158913
1.104,-5.595956940144137,-10.185052583158988,-2.9427695593141445,-19.960505173056923,-11.281325192746195,-13.067648608862495,-6.49488549733558,-11.922516794172367
1.108,-3.0786120761595894,-8.357267621624533,-1.822718175738284,-17.572176944387078,-9.572168250845978,-11.134780634117284,-2.8713489075537564,-6.138607900762445
1.112,0.14945548790653262,-6.290064951598566,-1.076958609152134,-13.83847437467511,-7.859661819665137,-8.761230102663099,-0.6242613540467936,-0.7844383431486337
1.116,2.8186405716593264,-4.596259970447579,-1.1565529609187513,-9.889511948471082,-6.831829186564843,-6.840727018815366,-0.41891301845273454,3.010577205076066
1.12,4.197365219273248,-3.6501330446334603,-2.067278320734548,-6.760673478010936,-6.838149062842378,-5.888674985325029,-1.9705005498621153,4.701870780254501
1.124,4.347699428726678,-3.4691855861731438,-3.449255382813792,-5.00350404963649,-7.831892938685153,-5.87013144856007,-4.150081739563651,4.515352973688186
1.1280000000000001,3.898381887889519,-3.795230997242986,-4.8755259341003905,-4.56273149511372,-9.51142022520282,-6.304503887347665,-5.563850841376962,3.3101293935541727
1.1320000000000001,3.5191193625406054,-4.313019783248504,-6.163994070707987,-4.943371084204608,-11.521287728361798,-6.571496667680374,-5.293214357893008,2.2012311088174137
1.1360000000000001,3.4868870399445466,-4.836606724332394,-7.443799311237543,-5.510455658812683,-13.560293307018997,-6.235268910091763,-3.361581151933675,2.099233853281939
1.1400000000000001,3.5876284007578576,-5.376260528903231,-8.974546811855966,-5.775747686139253,-15.370638494092756,-5.243967956041137,-0.6923070876144855,3.3643996909192815
1.1440000000000001,3.391604135068146,-6.043164347911035,-10.823546109675412,-5.533997475406926,-16.655568222279417,-3.9200960163334884,1.4253147492009222,5.696930881729269
1.1480000000000001,2.6749376565741185,-6.8690215164064945,-12.63236087134326,-4.831751857085635,-17.04469350669405,-2.7621039395540103,2.0458468578360067,8.289452810837911
1.1520000000000001,1.6700597439077236,-7.67843635828189,-13.678715369319635,-3.850378129721041,-16.189098827284322,-2.1841769253747443,1.0451710702173846,10.168338837595996
1.156,1.0082843505016035,-8.07054959365346,-13.177452602359354,-2.758934160211942,-13.930063587424119,-2.306498679899083,-0.8486887649527279,10.575990763539327
1.16,1.3540874759366095,-7.562472553738646,-10.70279504417239,-1.648332404009992,-10.454360573410776,-2.911803886245483,-2.490077393508492,9.249076917764313
1.164,2.9805869187569636,-5.814993475117477,-6.462125518623402,-0.5389149010317302,-6.306670437918211,-3.566182637591055,-2.9395570380921647,6.489589916743982
1.168,5.546339468512737,-2.8337385876381824,-1.2656157317153927,0.5666453802233269,-2.2252022038039474,-3.8376939442588247,-1.9348566291532467,3.013429924709466
1.172,8.1999224707173,0.9526988648450554,3.7783216480041624,1.6122468053824603,1.1173993257012267,-3.50842641292025,0.022166916567650574,-0.34864176200990293
1.176,9.986716226169023,4.819806101646752,7.727077585278154,2.4768186881602325,3.3497914621912965,-2.6558239472190994,2.005692036352669,-2.9739759026791006
1.18,10.285169937109512,7.991828653449585,10.131346088586366,2.987187780552346,4.465633165630848,-1.59265347613254,3.186823303090307,-4.661946526253376
1.184,9.059036917618979,9.911088150485332,11.108596127951275,2.9706099870955587,4.713016406013027,-0.6824426905048213,3.253112761151195,-5.643981876299504
1.188,6.816926009854988,10.42563184465389,11.166558692202951,2.3401128834837337,4.403920388848883,-0.12681398834776392,2.531770594259089,-6.374011398151163
1.192,4.301057957190736,9.787654192936191,10.859667452446285,1.1509713981418925,3.7381757740477717,0.1422067684483146,1.7599909157031188,-7.210555039115935
1.196,2.1294639562370277,8.501261697136925,10.517839317336215,-0.3738826731077891,2.747478610344696,0.4149248907031673,1.6725626175448678,-8.170729608043432
1.2,0.5595720311849881,7.082148560453911,10.133900778940065,-1.896151095186342,1.356269454552617,1.0101555869896979,2.6242511519877234,-8.8783399492127
1.204,-0.5179879854528107,5.856363694337949,9.459572386546943,-3.0645915263056587,-0.49509008849466074,2.0592372367202847,4.441525982109712,-8.744490108866469
1.208,-1.409502380566673,4.862173873632955,8.207084656972421,-3.6479289963747243,-2.767401926262025,3.390681352871513,6.526961853319774,-7.3023070820102305
1.212,-2.4078365824387085,3.879997078280373,6.211396472902463,-3.644493347699994,-5.322744195171638,4.588142922508729,8.132493475901027,-4.510632110261568
1.216,-3.622988686583555,2.589639441385298,3.518174163921322,-3.2771697429411297,-7.9701833977688725,5.214952672209454,8.67254831103369,-0.8681666984589098
1.22,-4.952270190733708,0.7440854111867479,0.3344576260036316,-2.89771041171701,-10.525755153846196,5.060316498286155,7.898079762929032,2.739314022106579
1.224,-6.157838130968245,-1.694682261292694,-3.059459856566361,-2.813304612455581,-12.819658944305662,4.281266207417228,5.916027886690021,5.392326570269409
1.228,-6.978622778805146,-4.501585355137584,-6.366315323444677,-3.1150949303993114,-14.65251751742605,3.3600426958117318,3.09153509959346,6.527366503861127
1.232,-7.229158101517584,-7.2409363194094025,-9.291108450067036,-3.6150111186301004,-15.766811933213884,2.8831177971823845,-0.104228336337016,6.170990566508138
1.236,-6.805247477141192,-9.354073989254045,-11.484551208251668,-3.8898186027542003,-15.864565183165737,3.279307116907966,-3.183560988928737,4.896985859758547
1.24,-5.659679843537694,-10.291305867911445,-12.53986223815857,-3.460533002269906,-14.720775211282751,4.628140818427378,-5.70556955410363,3.5230792082191433
1.244,-3.778787078337468,-9.65316291978582,-12.063918129940367,-2.013097274981697,-12.33431623180093,6.642543711747585,-7.322554635395104,2.6905827245198406
1.248,-1.1947400564542274,-7.31206773327707,-9.817369245666747,0.4443891610578623,-9.012064118830578,8.824008839109188,-7.829372927036464,2.550364486109906
1.252,1.9494768910843083,-3.505781820847744,-5.893779465406968,3.532705244761321,-5.325458389401085,10.672884066189644,-7.2359947713606285,2.710414896702482
1.256,5.3604574360891775,1.1667183407602062,-0.7927086542387691,6.611476576725014,-1.9198114482328617,11.849735753831748,-5.798423849509439,2.455332685567941
1.26,8.603486893812157,5.857135274590065,4.641726137006203,8.989163112578625,0.7279149344257005,12.208708236247915,-3.9749284407819134,1.1465435566653772
1.264,11.199076815952091,9.690439188724648,9.44665676007611,10.171768343727152,2.489568704397356,11.741349908207027,-2.2790713536189022,-1.3965002905741506
1.268,12.785715103231329,12.03987544542789,12.864281466216616,10.05673196057873,3.6173588194039,10.512845238301342,-1.071887441823029,-4.714730661527343
1.272,13.267341962916232,12.740186262415998,14.594637916720453,8.985854945281401,4.59529440341027,8.647943128113342,-0.4074690365078064,-7.813689665421626
1.276,12.889342043848988,12.163018146974181,14.897112734717567,7.653140345488519,5.890486282414641,6.380550243716085,-0.0013934276677161073,-9.532868215693192
1.28,12.149023068309909,11.068456979248165,14.43428924199233,6.849678370374765,7.698401049268194,4.075654122736536,0.6133312297231786,-9.01923338109927
1.284,11.577947766261342,10.289243841404943,13.9422613123199,7.1507355074652175,9.82362524241391,2.178084727191276,1.8114167996146788,-6.100459100100016
1.288,11.498194004334824,10.386521256935417,13.885242436287072,8.680089426666532,11.762184177179346,1.0830795385274241,3.6291457247393413,-1.3746399968837892
1.292,11.863161116416595,11.421525163309372,14.23323690400024,11.041262353134346,12.930358790577394,0.9660105284684601,5.680022507314228,4.031961186361445
1.296,12.295823727387528,12.951353103611122,14.499732923035697,13.469799556139492,12.925037155123041,1.6761394613756255,7.305010350535298,8.903500818476292
1.3,12.28464568889813,14.212792611723303,13.974047497427517,15.122431234354066,11.659753115628927,2.77056336722929,7.865333215030457,12.377277815430833
1.304,11.459751223204364,14.422533521737272,12.065970201952386,15.408848611387967,9.33785181679717,3.71503574256806,7.0518922428945015,14.198297184446242
1.308,9.791280963452536,13.055255328126051,8.591833149043758,14.203924341828552,6.297119627920131,4.142450027537142,5.037706232174927,14.675428585425069
1.312,7.588226813561654,9.985126018627856,3.8537249563375306,11.8347596994486,2.826785397722955,4.019332436043247,2.3787271151915848,14.397832630782181
1.316,5.337884990611252,5.51054232176549,-1.45762290530342,8.895898809517714,-0.9021301556498877,3.6386402385262313,-0.24307346725912793,13.858001584171658
1.32,3.455525928476033,0.2774958134078199,-6.5040437483497255,5.976775360560101,-4.764431153722309,3.4202971292369924,-2.313590383757512,13.19195336081869
1.324,2.1112771318581585,-4.8356896833396075,-10.534900531565274,3.4679773050730276,-8.507711090824927,3.643376934938932,-3.6433553688797615,12.167619913250501
1.328,1.2389507710257013,-8.849610122175955,-13.015734676347387,1.541902790757754,-11.607041894737598,4.277232906675368,-4.311259183534281,10.416594557761327
1.332,0.6946997283167811,-10.862103024332093,-13.65769170552485,0.2695085354632024,-13.29015307208212,5.012933318254293,-4.474492995175654,7.773751380371859
1.336,0.46880002837508306,-10.265112596341607,-12.37096816180814,-0.22932163979493858,-12.774807978210337,5.4665706426818215,-4.173006038274168,4.493119812618693
1.34,0.7621402880273198,-6.986763114229096,-9.264156668411296,0.23923273215173757,-9.650550849023322,5.4060956048189395,-3.290069510991218,1.2109586112563386
1.344,1.89219013873072,-1.6215801810292452,-4.662573438072386,1.8331157167383005,-4.1832060057601845,4.888791992089301,-1.6807306015192274,-1.3211288398112502
1.348,4.0694542074562925,4.651271531762667,0.8745330642684994,4.489664090159542,2.6368870046484396,4.217329857840369,0.6100059416443493,-2.594529234551543
1.352,7.160494276443415,10.376277018877413,6.564846930325348,7.783914227362663,9.353460638765085,3.729042455240829,3.1807676219582555,-2.594420111145554
1.356,10.629419755145289,14.31055323847368,11.541658104854966,10.982918658036734,14.532146263154921,3.5614425297052734,5.332329795694963,-1.8148233832547662
1.36,13.68416679113274,15.866127596784711,15.05118843220268,13.27764843229073,17.24212932774521,3.5294797709962853,6.325676194509491,-1.0194010238646678
1.364,15.583134006863993,15.311074940622518,16.667577256825695,14.107489326245876,17.32801022350015,3.217223219364376,5.735321299543479,-0.8689817014955414
1.368,15.930065494885415,13.603660106734337,16.419502082260035,13.39843399881271,15.355106489605236,2.2356043696168553,3.707365321722202,-1.6114645775968537
1.372,14.788167309551621,11.91119771998178,14.732938465957657,11.5659532133565,12.27679192340437,0.48379505537432754,0.9514869916118509,-2.9738567733916383
1.3760000000000001,12.605168569115047,11.076337239966708,12.262997449666292,9.312150085106216,9.025003269699104,-1.7230816195399823,-1.5220199882585415,-4.307553281370415
1.3800000000000001,9.988563196676724,11.265069434411439,9.646911066928205,7.307068006085408,6.202945976187314,-3.767755527397699,-2.823931073337403,-4.898384136231024
1.3840000000000001,7.479527145303848,11.971860164760269,7.309754366505821,5.938242200190342,4.004919182542315,-5.028517462854303,-2.548491922111203,-4.281761209803761
1.3880000000000001,5.431172698201208,12.358219313347833,5.395702781406747,5.242036770484084,2.334815552157343,-5.200422143266629,-0.9127443197013432,-2.427886089440557
1.3920000000000001,3.9891408202013303,11.705019156009959,3.792339358240823,4.999229738471794,0.9851621060094065,-4.468202775201101,1.3594440902241618,0.2709954047233236
1.3960000000000001,3.153205151865465,9.760032313058515,2.250810847773658,4.922501194530229,-0.22918957240015558,-3.4275189537469357,3.3662140579353714,3.154787575998772
1.4000000000000001,2.819334053447877,6.808205290659364,0.4998814321672518,4.785063755057815,-1.4401831102997473,-2.810513520846363,4.382978681454592,5.508880335699441
1.4040000000000001,2.7963959500945066,3.4937523067839296,-1.6442094762622212,4.46038816241683,-2.7315645726040048,-3.1273534496007325,4.106154477151713,6.761746532960246
1.408,2.82587061027199,0.5302789768339926,-4.176656428951359,3.9053710006393048,-4.106182192395799,-4.402430606994064,2.710209358556328,6.619880234123687
1.412,2.6225772162668908,-1.5644301340390276,-6.872539104760472,3.1207734256654778,-5.429285554618264,-6.170335304704585,0.6959271302046635,5.1117293370043315
1.416,1.9894925977683862,-2.573786585531529,-9.28904986888207,2.1684684524432534,-6.384292919612744,-7.716689459446576,-1.3494859893570417,2.5349013275068417
1.42,0.9426156604143512,-2.546182015736044,-10.866157651292117,1.2087098465112587,-6.533743721555554,-8.443713428986541,-2.98217587311369,-0.6485527419249774
1.424,-0.21786798967698595,-1.6737932722169369,-11.08440772466271,0.5201949535303968,-5.493308845697362,-8.151546049371078,-4.009778410769972,-3.9286037429298784
1.428,-0.9733849522854015,-0.18698832946569222,-9.640054856501953,0.43596180091554265,-3.153887281138986,-7.096566275030516,-4.454840902932012,-6.852284329928279
1.432,-0.8103014589597218,1.677100340557732,-6.605089648457581,1.1764703398965883,0.1743111118216092,-5.810056720101971,-4.43985009019048,-9.089098979703953
1.436,0.5491217390349321,3.694285085543684,-2.4327831886631524,2.70177195706917,3.8366086516149736,-4.761187019283138,-4.037105861069451,-10.457874187393644
1.44,2.987371011822316,5.664276893282021,2.159025156387534,4.646141376128812,7.09038259208701,-4.1011674964491895,-3.1996322328226716,-10.923919642576028
1.444,5.989940002763144,7.427354592073126,6.396737224539638,6.402737712173225,9.407824766906517,-3.6287942302924883,-1.8150783532185049,-10.587964811184124
1.448,8.82582298371015,8.888766217252062,9.686201981619131,7.362313182017141,10.666563849693318,-2.9684072147430736,0.17441651505905753,-9.65099192396882
1.452,10.790145358130143,9.997865499376832,11.744332915691935,7.173294952791451,11.099164804454752,-1.8586112164268846,2.6404439709891063,-8.355093339070269
1.456,11.420630777151494,10.700914282551244,12.622397295266147,5.9074528267101325,11.049491000296065,-0.36699437568729065,5.2388882142543,-6.929501329586198
1.46,10.584929417582195,10.87824641369492,12.58587401342757,4.018474767134024,10.684133237160518,1.0985234815606737,7.496106391038694,-5.537525820801297
1.464,8.436389314860838,10.320566791809057,11.936753500767189,2.1180692377454413,9.85782663926921,1.9949410139498522,8.98420988437155,-4.2474788224363555
1.468,5.302908565399537,8.789451276097514,10.876627836141688,0.6856149895557206,8.235060064410998,1.9502994544224794,9.49910628016669,-3.0408602702121925
1.472,1.570069167361409,6.136490421049743,9.439517051231025,-0.15676937463436058,5.585863785331722,0.984915948751766,9.126575666118075,-1.8415301929553385
1.476,-2.367307107900382,2.4446965952808366,7.544743216331015,-0.6752773632822517,2.059877034510981,-0.4789444864110015,8.180830014614903,-0.5758425030053491
1.48,-6.111637761938713,-1.8996273351538093,5.108430954599509,-1.3643359497468817,-1.7578538641366643,-1.8359155566929912,7.05232388148943,0.7871445614694652
1.484,-9.258364755615577,-6.2410416525434105,2.1828488989996204,-2.658594415059909,-5.048411846015123,-2.6015018234650604,6.059419611261473,2.244235330615153
1.488,-11.422192178049585,-9.792227737731421,-0.9292557905303336,-4.646465617713767,-7.090480975489967,-2.6123118199326463,5.400077971141051,3.8146875711966874
1.492,-12.330739576883825,-11.858161563745625,-3.68953842707405,-6.955423134175494,-7.553796184981085,-2.0394726674714523,5.183304538898764,5.593649061065335
1.496,-11.92634195139162,-12.058635227537264,-5.460820673051417,-8.864330915432083,-6.593042963495749,-1.230873711092637,5.4815801745701815,7.708741512116527
1.5,-10.458802158600465,-10.509722829483463,-5.788988138197436,-9.644760325971797,-4.745644916258637,-0.5315743973761187,6.283404858639788,10.154786855491881
1.504,-8.502753244784085,-7.881918947799706,-4.698793230803362,-8.973940009674918,-2.7267311232047353,-0.19460681115681933,7.336459614157901,12.569870548558423
1.508,-6.858042898841067,-5.275788322295234,-2.8359352029777387,-7.21029601353084,-1.238399344268664,-0.41850890556021625,7.988418075967877,14.11051528666728
1.512,-6.366169234332649,-3.93209396798951,-1.3636815312001782,-5.3882788647265505,-0.8697404201296399,-1.4431462103421078,7.18142209348774,13.582964865994327
1.516,-7.640741840870467,-4.7994619368299825,-1.5273593059685409,-4.845446879121393,-2.0292813172268875,-3.5604419907162086,3.76874380100604,9.858453482627056
1.52,-10.808697734853272,-8.114849351798377,-4.062751026706917,-6.624748601458255,-4.843065961314963,-6.9807570990007495,-2.903094102763926,2.4558623090099037
1.524,-15.35075596260142,-13.172200801385532,-8.703651982695408,-10.893438087745933,-8.99085140959472,-11.58655431596922,-12.390399816264658,-7.975813857134443
1.528,-20.132450709091675,-18.432521751566245,-14.063882406690809,-16.668553672134205,-13.569484036336734,-16.732209402977926,-22.884321828017786,-19.566019266206574
1.532,-23.69401936019037,-22.02559227278783,-18.070336757281776,-22.062256679620532,-17.16828189973678,-21.276922060951733,-31.568109045204764,-29.660040642455886
1.536,-24.704123831840306,-22.456551020433295,-18.7749058891614,-24.975748371905457,-18.24586185970046,-23.901010210143905,-35.55446671331077,-35.68540020908737
1.54,-22.459210885594857,-19.251249359146925,-15.242026411361051,-23.993490454480273,-15.75057719290722,-23.624893833558318,-33.07151229779946,-36.088411276475085
1.544,-17.202302356329323,-13.207533548448648,-8.047886867571668,-19.042149441459394,-9.696891205687582,-20.25162843680013,-24.314940924223144,-30.90533827547555
1.548,-10.095563003208031,-6.094806333478142,0.9012836962338948,-11.47138372954266,-1.3579616816600897,-14.488706128041853,-11.504802234754592,-21.689957932272247
1.552,-2.8541813300065577,0.059719440609890206,9.133480613249596,-3.5124239793883083,7.088322861088486,-7.684761731012016,1.9184098379216863,-10.82515142238572
1.556,2.8674241512595,3.7964887396947606,14.640568701200166,2.6738504782738604,13.38036058318697,-1.2820488750821983,12.65139982289804,-0.5716593713160201
1.56,6.059549798875463,4.750394357615104,16.62900386977203,5.8826319087633285,16.07733144520328,3.7233755703378586,18.783750086077628,7.698418225527207
1.564,6.670329775042534,3.6424385161898734,15.659122317472935,6.276320948155823,15.110158504659532,7.067623515957857,20.366446518738172,13.742646059422345
1.568,5.5132627876572196,1.7707803915700255,13.151532963375058,5.138074230468374,11.698735684717441,9.140550703818857,19.05045478339075,18.114119304109252
1.572,3.8063623219357687,0.2815885176834252,10.537651002098002,4.101156044616951,7.6712945034989835,10.618705111846364,17.01660720907757,21.521580459325428
1.576,2.606186928001245,-0.3606476944694412,8.57814296591901,4.2962924824302275,4.569147890943825,12.039300999535136,15.818943207401446,24.266109392513357
1.58,2.3868420979953275,-0.46312995498735177,7.159058855031562,5.8352085348260605,2.992800921835696,13.527182605409402,15.72015570838618,26.06712373795149
1.584,2.9607414163565373,-0.7423754617546667,5.639540545007689,7.885594920615465,2.5250201078715393,14.81328440333786,15.829299458779237,26.33740198016941
1.588,3.7497877549264764,-1.7546571350170679,3.4991242482385716,9.26220448244204,2.229900354791552,15.482780681433884,14.898325816500558,24.69921190109149
1.592,4.195491574090333,-3.4924395511516253,0.8252682368507185,9.152873054522427,1.3824784610919716,15.265627867311219,12.239960305402638,21.401273277683064
1.596,4.1067032266146235,-5.342444428069518,-1.6109928443289299,7.600559816817562,0.004403260459914016,14.20714363401645,8.247119420349541,17.353121661542442
1.6,3.752291332384445,-6.417884763642367,-2.753811190618366,5.475461474963131,-1.1120394508710376,12.62169534910916,4.216338331337157,13.753978585331021
1.604,3.68718977742766,-6.030307439532996,-1.844424737654905,4.004941068350433,-0.8627561422526304,10.916601410422201,1.6302353934154978,11.534642380534189
1.608,4.426620974057999,-4.029627891155559,1.1610975057611026,4.143942860078045,1.5011362714303513,9.408919191429177,1.3310007149781633,10.91362070604458
1.612,6.133735510304502,-0.8649124087102348,5.535078695742896,6.1054856749725515,5.878572118086936,8.229276853108033,3.0432155586137277,11.315650746715093
1.616,8.518887811522388,2.6587810229611755,10.133197311188443,9.302213672504188,11.284209014337787,7.355388813926028,5.528878398636911,11.673104626875714
1.62,10.96191818346907,5.7388868527757575,13.892021881322872,12.661060519217862,16.26268724586819,6.705186797438565,7.243267148285913,10.95332100827872
1.624,12.779835058535824,7.854908505281939,16.205653265105052,15.117693148151623,19.525686584550733,6.218081461813696,7.112905990924203,8.647060155555716
1.6280000000000001,13.515519032893165,8.872265079783022,17.033958137571176,16.042697236055425,20.491603343456774,5.882195177131973,5.024398919502684,4.999129478487702
1.6320000000000001,13.090191555475961,8.958835983681158,16.72846770629404,15.396196625396119,19.464964964096445,5.695765448529771,1.784710435921586,0.9166855706220565
1.6360000000000001,11.790919783536447,8.43609221856688,15.767321788401787,13.616655169860165,17.40021862904773,5.622611829275592,-1.3603377288373888,-2.402409304391094
1.6400000000000001,10.090107642542316,7.624523398250652,14.52020249857949,11.331756043100356,15.386971712301195,5.569996996148249,-3.380007099578646,-3.9432968805453843
1.6440000000000001,8.413128146676417,6.744054517479237,13.15949861329899,9.073116808774547,14.141069842397322,5.424266471603868,-3.925843457256647,-3.2554013488418847
1.6480000000000001,6.9617528437491805,5.864209929428247,11.696155646261033,7.1223533387307665,13.738800888600492,5.123238507984874,-3.397751022152096,-0.6123726981888309
1.6520000000000001,5.633189134915283,4.855731618210226,10.01066446326173,5.486546574907193,13.667547540479882,4.703137532915766,-2.6569807981207223,3.0931225247060548
1.6560000000000001,4.103169287733657,3.402885735980458,7.890618959466127,3.990411645418818,13.146313712763948,4.298800173615898,-2.55143177384904,6.6442090852063735
1.6600000000000001,2.017349731565517,1.107094239626493,5.062632007734531,2.403744779292807,11.543733446187977,4.0902259986521985,-3.5175197855165896,8.905467669504361
1.6640000000000001,-0.7710324211500872,-2.295070640773049,1.3044673563583151,0.5683154255603062,8.71420404521032,4.234678183754484,-5.41931246903866,9.206452303885701
1.668,-4.023712789038249,-6.672313065984853,-3.3582487328670068,-1.5134891440494886,5.103548068453217,4.797950521670575,-7.6570770068391045,7.550305178839685
1.672,-7.115542568758485,-11.361437157067284,-8.485360251068627,-3.6484634702856633,1.5955218523860668,5.713910079748857,-9.469158503810874,4.601530711759877
1.676,-9.208232440857072,-15.264264661785885,-13.177029226493879,-5.4662837648805045,-0.8116963265182315,6.799515939206066,-10.255116130602222,1.4301756852324097
1.68,-9.581815572543771,-17.230951418052232,-16.310343803682244,-6.533965477611574,-1.3898353692390302,7.783817446967621,-9.821207856775876,-0.8934523823357212
1.684,-7.971499803538981,-16.567269825512223,-16.980072856206846,-6.5230679438509735,0.0446396908270863,8.372551481547912,-8.445771445840169,-1.689203258267629
1.688,-4.741060813853132,-13.404733337073285,-14.938109211245745,-5.364175646271356,3.0664125224067247,8.336330413594068,-6.753987480147687,-0.891408335868535
1.692,-0.8018954516283632,-8.719579922434505,-10.80405645142688,-3.323122013264304,6.810334827811207,7.608276198451931,-5.467592958383176,1.0112277432102754
1.696,2.751385788549219,-3.9158475130501618,-5.839015317014385,-0.9050607688830938,10.322965281685748,6.375633674398643,-5.087656689846622,3.274827887982169
1.7,5.099364361343115,-0.19880675781009982,-1.41883574994793,1.3507712890980192,12.909620616992783,5.0650406643076735,-5.66740369989346,5.268136748601529
1.704,6.035935039702972,1.9352055603963008,1.5462926295619948,3.099876609198529,14.329267308090401,4.212448363818572,-6.781814723809196,6.7170713814147245
1.708,6.00268661428953,2.811855572814917,2.931061989719799,4.313376757302009,14.75563747054489,4.236949807264441,-7.729334021733255,7.708272648760094
1.712,5.763880612359035,3.215013663726989,3.2556138421763645,5.1936292596148785,14.538802036374708,5.213863538244654,-7.910531961388282,8.498632515381004
1.716,5.920261715015782,3.78457426452299,3.2213500081713557,5.9521678322408835,13.915960083999176,6.793077914553875,-7.1899264362683555,9.255142343924813
1.72,6.499381586156548,4.532576048203189,3.166197096970148,6.55029441683075,12.81783660545128,8.292651634456384,-6.0593387475075495,9.903465683300436
1.724,6.879372036905817,4.79620917597688,2.8088660236097684,6.596428205707944,10.896084091694313,8.973649386861487,-5.4534651697934855,10.186547684204974
1.728,6.131934616629884,3.678801735800519,1.4512757464346633,5.507576988136351,7.767641434506581,8.389841006388979,-6.258217805184857,9.887978255975423
1.732,3.5832680394406298,0.6987500125927415,-1.5133128289152058,2.858295354417698,3.3381282884525803,6.630973203539629,-8.764935702276812,9.086623369086897
1.736,-0.6883577053622165,-3.7299128585591568,-6.054176043410203,-1.2380280586573722,-1.960310636025401,4.337254634620008,-12.348205230360783,8.243578206242779
1.74,-5.745503696945079,-8.337342385893528,-11.328984962505057,-5.98977308093369,-7.1968755097568184,2.424320641495356,-15.626877230739439,8.023263025994314
1.744,-10.155863885235288,-11.572457557179403,-15.99207321664242,-10.142491640723136,-11.24499655794022,1.654648480873508,-17.073340463219264,8.923550291779335
1.748,-12.629876291543715,-12.37568324275379,-18.80405112614602,-12.463501765318023,-13.218890020769965,2.2721846199696314,-15.779099635540653,10.925007497025108
1.752,-12.63154111817933,-10.737794313108004,-19.24227091921027,-12.296150676330114,-12.851663416259392,3.877672303660651,-12.003533101755696,13.384976906528133
1.756,-10.607947797381765,-7.691399354815343,-17.711108788615196,-9.867724544748784,-10.60530070963906,5.626713072812635,-7.157535680194466,15.26683923849512
1.76,-7.724427904233693,-4.741291944924721,-15.276704136969329,-6.198710677974174,-7.465501106687378,6.638544857781706,-3.1918239327204807,15.617505327180464
1.764,-5.259306070927838,-3.0578491035552853,-13.082369987713783,-2.6499209918409914,-4.517082947486964,6.411407046101503,-1.677446840787467,14.041089891245326
1.768,-3.9845303965807948,-2.8855139823702154,-11.769181642679344,-0.32880373620589953,-2.494520952744426,5.036744142989206,-3.0439765114643063,10.910213144502109
1.772,-3.884545981776246,-3.5212923821823865,-11.253238050170898,0.33295501509998715,-1.5247572259054145,3.1072938199808253,-6.396996612033357,7.204994808451321
1.776,-4.2994058274960025,-3.8199877503315163,-10.894283054306413,-0.33055321781640945,-1.1452650127908441,1.4083960827148139,-9.98319249409068,4.050942771598556
1.78,-4.394242293586765,-2.9201620440084928,-9.965277387019473,-1.5083735977774744,-0.592688651046946,0.5326512707944562,-12.072832792486949,2.194599613028969
1.784,-3.658860262172607,-0.750023004437353,-8.105911479922264,-2.3858744812348074,0.7971645460022483,0.6184444050817137,-11.787971564447929,1.6876445710547499
1.788,-2.1399701791149512,1.991858438470615,-5.4866808391089155,-2.5277720602116736,3.2730799263553374,1.342376779429535,-9.431410765843719,1.9380076130541584
1.792,-0.3338325566501885,4.317342108935089,-2.661359309048634,-2.0080131823767307,6.560997803000876,2.1380030584078242,-6.205606411356792,2.0972792119305073
1.796,1.1717713142571797,5.588765695485353,-0.19632543321336726,-1.2346714654432058,10.00779266373755,2.5213368612299187,-3.497135195791886,1.5512946070694356
1.8,2.0348919262019463,5.8877906222172385,1.6245845247062343,-0.642907713777247,12.857448589273465,2.3213933973739462,-2.1639173137528163,0.24189790954632429
1.804,2.288625254082492,5.907425018682884,2.8783206173609,-0.43257151808153393,14.540792575929093,1.7372028329668012,-2.1889442368767127,-1.3309887570869847
1.808,2.2411187724389565,6.470519683124781,3.869762133800648,-0.48068637304795825,14.864838678940473,1.2122144261979626,-2.8341244868544937,-2.403590466997156
1.812,2.213167509486934,7.9564873862932615,4.866600504015903,-0.47801442894301616,14.025259028259311,1.2001810795094932,-3.164459178455691,-2.3460757825378247
1.816,2.3428063594421293,10.038943992224096,5.939303016492321,-0.14108445861417174,12.49102229476217,1.9755737203139732,-2.5709408200196444,-0.9412867938649043
1.82,2.5541387557194843,11.87237079649165,6.9446891567542774,0.6077925756221845,10.808110829772936,3.529928657529762,-1.0281451134137143,1.5771063799528093
1.824,2.6707642120784496,12.595343206643939,7.630946805102076,1.5899863479876162,9.401976124834473,5.571843801633049,1.0070210528533723,4.694846462401084
1.828,2.5751885205233362,11.841839602917537,7.776039797128843,2.475517663023977,8.451203411752353,7.613094900574808,2.939931222740789,7.856889710396605
1.832,2.2720379338512267,9.936404875356,7.243640612928431,2.9548115901415146,7.869295713716322,9.097264786403036,4.367477450428759,10.646684010885624
1.836,1.8486248248730583,7.695945260668358,5.994546306302575,2.9090593776023237,7.408371338674842,9.561222358663604,5.219397036160561,12.812166688686208
1.84,1.3754773088515195,5.96734307587384,4.061394590287309,2.4713602338951643,6.81541704639934,8.780099086146064,5.660978147224107,14.17800298348807
1.844,0.8539297759813276,5.199598072612941,1.5700879661677503,1.9614445888868577,5.980282041251618,6.86399722452203,5.877691843014439,14.549577251917384
1.848,0.28485977394454864,5.314196976480511,-1.1765355029993234,1.7439869340314624,5.022293334629356,4.272781690095041,5.9302041704794615,13.709316138735282
1.852,-0.21222295175800232,5.891399036431876,-3.6544462121199257,2.064858102125808,4.271716113079827,1.7172623977113681,5.757075638979153,11.547367802387067
1.856,-0.3136051700319369,6.534405247147685,-5.1532187872758115,2.9602648087770023,4.166492415654056,-0.04122058593812661,5.319889288065933,8.226785691837772
1.86,0.42378127908064034,7.122132289049425,-5.0028273972367145,4.228078516480861,5.060732807680259,-0.47863805735859133,4.719550598023152,4.241655692670124
1.864,2.326965211194217,7.805407373899088,-2.884844052545634,5.497188938781287,7.037660097552533,0.47153880310714347,4.1932985658086945,0.30842985594692807
1.868,5.375181229890565,8.802602880590976,0.9566890657561884,6.387320810227175,9.823412982974993,2.37941335753448,4.005301933255106,-2.8771483533868816
1.872,9.092032380730148,10.144598161802673,5.705537475865924,6.6703946424322815,12.830704797487526,4.494774870291178,4.283531902259942,-4.886906069835977
1.8760000000000001,12.681785737528958,11.589471083815381,10.256095580228674,6.394112221420529,15.344141608207504,6.098435156495981,4.952256078789442,-5.686778749562125
1.8800000000000001,15.348953881539831,12.754334607972956,13.626873936375596,5.876330189919198,16.755012668825305,6.840226058275835,5.7946842956852755,-5.577231002786893
1.8840000000000001,16.62773810138765,13.36001818207262,15.311021342340759,5.560153690441279,16.75840798666711,6.8862603217551985,6.608459789851396,-4.993588344963909
1.8880000000000001,16.542464043622417,13.405620931702185,15.390912860415089,5.780214553587342,15.430604979498046,6.778667203412396,7.338442017271386,-4.299122888556099
1.8920000000000001,15.499518896272932,13.12264301994372,14.349243407415297,6.542082654261596,13.165914409723648,7.084689337121708,8.071709532348718,-3.654924612718264
1.8960000000000001,14.010791191251151,12.754866179633375,12.750478500498444,7.457730521079856,10.521419567659247,8.045440353925969,8.915310253420913,-3.034271863414664
1.9000000000000001,12.393499644042535,12.299953754764482,10.929205773701362,7.856142796711531,8.000643231051997,9.396268506841908,9.828582202791937,-2.3486068468850676
1.9040000000000001,10.633171356238092,11.421056625663713,8.874554529683243,7.05391275151411,5.874135844080255,10.484014695169854,10.547855036939069,-1.579546640592661
1.9080000000000001,8.481946696522114,9.621743926024543,6.358787224234554,4.6664939687726275,4.100302876682997,10.61512263669825,10.682695643437752,-0.8433942214944783
1.9120000000000001,5.678139941193411,6.567760506154336,3.1617611828365426,0.7901734129173548,2.362595427244326,9.427864185582393,9.92540186283113,-0.33936082231635245
1.9160000000000001,2.181769273267516,2.395963221006779,-0.6907115864945332,-3.9881077371128866,0.2548338556214276,7.117005099509244,8.279497853217816,-0.22408469788165686
1.92,-1.7323056814529778,-2.2252338034311934,-4.8651150321078855,-8.790380346619106,-2.487024281765641,4.351541154128091,6.134217925485193,-0.5071915630460735
1.924,-5.546934864124811,-6.323160851355705,-8.825181412780486,-12.74050457243699,-5.779244652046281,1.9580995956614167,4.136857317869975,-1.025185434550263
1.928,-8.661792475615501,-8.999205638522405,-12.00179779886744,-15.206994153360057,-9.104384077200871,0.54306064555021,2.9216224381012657,-1.5206133457244464
1.932,-10.578849208172901,-9.784170640929789,-13.972062163730858,-15.936330593471846,-11.629850005456692,0.24206027094740512,2.807617147966808,-1.7680294236449945
1.936,-11.013376282706083,-8.758666567828811,-14.515596239243322,-15.021833730334546,-12.492776509951069,0.7415903573537976,3.65421880565353,-1.6788435327071287
1.94,-9.929755124030336,-6.41331277491711,-13.598020993076988,-12.788442445604959,-11.16854132143604,1.50647468005084,4.933019989748759,-1.3291705918678436
1.944,-7.54058388139708,-3.369695383655264,-11.32517635696376,-9.673220432974988,-7.749549113719409,2.070595730874511,5.984511563727964,-0.9059506272321092
1.948,-4.275743838091193,-0.12182639995800315,-7.902963675480738,-6.135878106055238,-2.9815612420638598,2.237050868157832,6.345749483371021,-0.6142646527833895
1.952,-0.7424654318199204,3.0544963286305835,-3.6515544403666365,-2.61747837212116,1.9877281567061313,2.0899109047262785,5.968047894026602,-0.5709270592646236
1.956,2.381899868086367,6.035190253423461,0.9994050568562862,0.502981697427181,6.061031783780297,1.8675170854636771,5.237621610272246,-0.7539749456264355
1.96,4.510440318634565,8.703350112639223,5.524302398459069,2.9425486258124094,8.609962640606033,1.7779837660148607,4.781336855289011,-1.0284455923529925
1.964,5.324016099337957,10.861774682025452,9.3692427682799,4.548852786860915,9.655835620254198,1.8865771830084888,5.1520279462907075,-1.224358054756491
1.968,4.894635138944512,12.280424829453343,12.071759588945731,5.32323309703549,9.725940846743606,2.125607589717836,6.553579065765483,-1.2311800239962825
1.972,3.642406516403911,12.807813840175438,13.344108473809104,5.385591250403854,9.456482840000874,2.3847788341613394,8.710647037019537,-1.0426028926639754
1.976,2.1616775396546366,12.482491829052242,13.154997298494813,4.937775612223905,9.200680387341443,2.6313482681698446,10.984296864160456,-0.7307641612054547
1.98,0.972512916692212,11.53642217895284,11.741328903311473,4.21724372607616,8.853357249062146,2.9452822577169395,12.665331115977192,-0.3732617040942947
1.984,0.3236237058568614,10.277935764820224,9.557446463259334,3.468566153894641,7.998483329330329,3.457977168419885,13.314699105521075,0.030503868651428512
1.988,0.1536766278799151,8.935555772536297,7.182680106124463,2.930170252782876,6.276413411024581,4.236524825998821,12.996055797433147,0.5832954614907822
1.992,0.19113961829557047,7.54542067213271,5.155395891996506,2.787789186310611,3.718267305055403,5.182781511681789,12.249569575204555,1.4429229265142576
1.996,0.14171188568711834,5.974647020033468,3.818989730751241,3.114256462909763,0.8342597514125933,6.03222032195206,11.82157597342679,2.7099538702163253
2.0,-0.15749563463981275,4.063220055587446,3.194898703176951,3.798956090800301,-1.6219079524639293,6.447212838188609,12.263663350105897,4.309405271112785
2.004,-0.6842164870677618,1.8041087619964804,2.9759138362427056,4.53408228105821,-3.0547406007219413,6.171643031112565,13.606830535473163,5.946184924131649
2.008,-1.2604186590786264,-0.5350337662857696,2.6902065221647034,4.9188015905977736,-3.337683586210348,5.1690815936917005,15.304166429806434,7.173195402719617
2.012,-1.6429144434860024,-2.4507401017719106,1.9546706302204604,4.647553144454166,-2.83319212314818,3.671011518095958,16.472837664871808,7.57412815463714
2.016,-1.592069541228181,-3.3792226438352237,0.7508770653310277,3.7219103176849573,-2.089768674984618,2.1250182854821484,16.349929592771964,6.964024423312985
2.02,-0.9267838960202979,-2.9542619197990794,-0.48165774959978114,2.5221588963186603,-1.440993008698129,1.0275828270193714,14.707615252726683,5.4949733256567335
2.024,0.419317291812596,-1.2217423758967536,-1.0192792196483142,1.6603924357649538,-0.7770801796628852,0.721822798489107,11.998749735550103,3.603637672304275
2.028,2.3454320924949226,1.3116426141698962,-0.22524855300895852,1.668134230932223,0.3462312700669248,1.2611755568199308,9.157113140766533,1.808912439451685
2.032,4.522968398929447,3.808916301025913,2.021943869194303,2.6487894360990634,2.3072301573441356,2.3837341207059435,7.125303271897507,0.4723551897703768
2.036,6.436131374711482,5.41432661240661,5.157151607420797,4.158806140338882,5.024884427047059,3.651711762896606,6.401489867883182,-0.33975651364690607
2.04,7.551187892341078,5.6157205999185695,8.116592996742217,5.400822797989038,7.840661811089631,4.666265696762605,6.842263090189794,-0.8211926255831012
2.044,7.56508368594398,4.483173592277737,9.828344008126683,5.651117346839609,9.789472683873967,5.241359426720363,7.8126006877484695,-1.2521313414164386
2.048,6.6336647182940744,2.6768562724143576,9.780544372584451,4.7125967705313005,10.135753968790278,5.463114368287734,8.602375478102882,-1.7974008171457743
2.052,5.395618926842058,1.174893246234607,8.307641244965627,3.0987477021917105,8.84026388445415,5.6013049252974385,8.835731934886736,-2.385317682091369
2.056,4.73335137746238,0.8296445732219127,6.439077086361036,1.8223908761848797,6.655856926422025,5.929193159833909,8.644365740743286,-2.7609869746940205
2.06,5.334990527253603,1.9384397046804187,5.329683877146049,1.8493984643282841,4.743797009749424,6.534091199765614,8.491211627941212,-2.6789343083581043
2.064,7.290796139639242,4.059682631175588,5.607804906475615,3.5307820543364943,4.037339402672101,7.249525484987829,8.77840803091432,-2.093173202615739
2.068,9.989281284863928,6.209006499767967,7.035222372979894,6.358854012566651,4.737217298179108,7.756741267267146,9.518894273946959,-1.217483282872308
2.072,12.378460804676436,7.3333033298977,8.644159719462571,9.177976714000257,6.228783545460483,7.779044783033716,10.26616818686405,-0.39831266470806637
2.076,13.486770227683703,6.843024789424864,9.31828900375532,10.768208062839534,7.484709059295323,7.259655996823298,10.37054551859282,0.11107494378202398
2.08,12.919369274771908,4.924881094030111,8.452996664248339,10.467858483991737,7.692812303168308,6.3995150467036455,9.406259860963772,0.3322020526598706
2.084,11.041358214586825,2.454933492503483,6.305487062282957,8.499515184968441,6.733210663540881,5.5437505829454246,7.495355810280012,0.5721077539944517
2.088,8.746143486483053,0.5552651961450674,3.8408479542116423,5.829318774922561,5.218914550529563,4.975685050639011,5.325700808536229,1.224906079835054
2.092,6.92210517469532,0.009325674153992325,2.1278326970764887,3.6254707802785138,4.073007272644418,4.74198871505562,3.805209475045562,2.4888462185653646
2.096,5.9792393774917905,0.8902404235591259,1.7147387456551106,2.677789228791025,3.9476069336518247,4.64687193310372,3.581647408118605,4.183149359487617
2.1,5.705389224541541,2.5916675481279086,2.3354132839035118,3.0723713701681294,4.835210220651423,4.3996207344375176,4.68729089678631,5.787908046147441
2.104,5.52449716126266,4.228379141962781,3.1294208404437778,4.28120020409094,6.1082539394266,3.8326441158162448,6.514037143661777,6.70820014524242
2.108,4.9897933962300645,5.170347988383657,3.25465760590453,5.580264709679077,6.9583394876024025,3.0445360265986947,8.148067358247431,6.613585324813129
2.112,4.151943881372353,5.371117138130557,2.466268918307874,6.494480524400114,6.934587726852528,2.3687278437293324,8.849534392537862,5.672473502952539
2.116,3.5681452600745254,5.31959007810575,1.3446018901547907,7.03053394210125,6.25571428324624,2.2025392736839797,8.433230246426362,4.533011662855327
2.12,3.9275080834672558,5.654530520630588,0.9873025562053874,7.566925168383329,5.690360425082462,2.7811445137996915,7.326554439341368,4.045038474169874
2.124,5.5324135612604515,6.698477095517111,2.3447401628771436,8.507917652227455,6.087430870025599,4.044401675924343,6.289117908083081,4.857821751216585
2.128,8.005381965495408,8.239752985447161,5.620488742062276,9.959498372561553,7.8576935388549805,5.671740279149239,5.9874406499271045,7.089828807945971
2.132,10.40314977762866,9.672905939163531,10.05283423029572,11.605680246807726,10.6995307190878,7.243844323750997,6.642908278387165,10.246323020361604
2.136,11.707407434766166,10.42038625654422,14.255927163915977,12.875081837472136,13.734695389700047,8.439388861476703,7.957000204463066,13.408697867173053
2.14,11.379581038746627,10.334870294700218,16.881164733201512,13.246861382345175,15.934202419522784,9.129829482335374,9.312064613769273,15.596104618540524
2.144,9.649106263377078,9.812730204225646,17.246510229713312,12.51463630925963,16.593763985760535,9.348030889322509,10.119781292295986,16.145396234604405
2.148,7.374579254852715,9.547875757153523,15.616316537667206,10.866862133063494,15.60550663974044,9.183311832403579,10.127227520097385,14.94616510270645
2.152,5.531714001161879,10.053479014065715,12.961412663744483,8.730909164328551,13.397521824259643,8.68435638857249,9.491592967375352,12.466888486905084
2.156,4.679987046151179,11.292634091867853,10.432827807223344,6.543527486170349,10.658889063794014,7.870232102220393,8.64620032135735,9.584415482974258
2.16,4.711486806385316,12.647434403858627,8.814810714163228,4.56953375918501,8.017746785193015,6.811323163135438,8.038152816585363,7.288198790405467
2.164,4.991833996601243,13.24130556512548,8.228989769661364,2.857240038241572,5.838566407180293,5.692002840800872,7.8913397795276685,6.3624180244046284
2.168,4.791982861158093,12.430149549993176,8.212703369945885,1.3382346160735583,4.203646280708028,4.780570992320256,8.132831188960125,7.134997288286287
2.172,3.712220006646131,10.143957022985298,8.034528109152404,-0.03850172261351936,3.0117385202555074,4.302930177630409,8.485807942514175,9.392711887076405
2.176,1.8764078295369462,6.9027942397026205,7.097123086016704,-1.2066693655852623,2.1121394051580253,4.321373865406991,8.684808673667355,12.484853753771024
2.18,-0.20658346587037268,3.5059443013816725,5.187679111588208,-2.0025265139075463,1.375270708640512,4.684568675749539,8.66445535346488,15.572982116589179
2.184,-1.9794276906924226,0.6112364495812357,2.509587447157026,-2.2644828059331505,0.7029145187888144,5.12379848575867,8.608206859708531,17.93940392137086
2.188,-3.1161598361703837,-1.5130975166300191,-0.4323749997913504,-1.9233594579157884,0.034672223205722386,5.43997885621843,8.84816949560347,19.22099192833485
2.192,-3.6095759983090714,-2.9597407002076666,-3.037651496654745,-1.0568473321856937,-0.6266486816425759,5.63749519763863,9.651063745653044,19.47759853444818
2.196,-3.6252857414133826,-3.9168884789805665,-4.759058777252134,0.15101597324224025,-1.1530233900553997,5.930380733251181,11.037254668662719,19.066427847016442
2.2,-3.2913249949525514,-4.403376605265169,-5.216402926138438,1.486228561780801,-1.2745728337491578,6.569500487968771,12.72617247312619,18.3873363579102
2.204,-2.592202965256953,-4.200144169353429,-4.263444301566366,2.7782599303005027,-0.6405642618813441,7.607697714158647,14.25531871484742,17.657305955546633
2.208,-1.4085505759464803,-3.0007834987049415,-1.991443325190257,3.960101110944941,1.053451648099664,8.785654187229337,15.239682892886126,16.834675504712312
2.212,0.31878403086880613,-0.6756292630501994,1.2914560223032125,5.071679061705118,3.9178320742976283,9.635911714467031,15.618095373205335,15.762395024148496
2.216,2.458111023556534,2.5562647092577384,5.151027566604058,6.22791334032315,7.780635746171326,9.770152940257962,15.736683617018251,14.412496366700644
2.22,4.673296421980671,6.153762606259161,9.115527370718256,7.525714623405957,12.171931452010153,9.14073397376243,16.16651598263777,13.033514550760339
2.224,6.529564776679442,9.446221211070853,12.72315055054003,8.90776386732265,16.375165441508685,8.090137742162593,17.312585369882434,12.06035874625869
2.228,7.654130373102721,11.86553694250875,15.532454263584642,10.060697425051444,19.53353914886928,7.122973676706932,19.026018252407397,11.790333719608372
2.232,7.810157419925321,13.037943586164026,17.060491602939436,10.389744711485054,20.773248395514855,6.505184199331485,20.4274821333989,12.015526860479962
2.236,6.882943871812326,12.729804111870305,16.770898044391966,9.15908536115409,19.372906957966652,5.970616395754103,20.12965173596242,11.869658947350672
2.24,4.825129415330728,10.746878251893655,14.161534776061487,5.773627869844166,14.970660029330789,4.742367960237935,16.810380979671894,10.065592821686618
2.244,1.6442821782276789,6.93485063580626,8.978789777980381,0.11315261575841773,7.7719857539807045,1.9316686682088793,9.895525393823396,5.48514160060053
2.248,-2.499774658544162,1.3711886873464687,1.504967633596217,-7.225422923854288,-1.3252940441317893,-2.873092761628957,0.039829793718249906,-2.152595915355466
2.2520000000000002,-7.1818411949339165,-5.389039781608062,-7.300167801464752,-14.967395959120818,-10.82460512183011,-9.188490091489594,-10.899394793483225,-11.894220898474453
2.2560000000000002,-11.66173286923002,-12.18910216043128,-15.88675318118547,-21.480728844576543,-18.961116918402507,-15.628941985265635,-20.405700010041688,-21.68498875726673
2.2600000000000002,-15.005810971571,-17.45465933880519,-22.504864599940042,-25.294479338874527,-24.21067865892708,-20.382375700585964,-26.16209707855973,-29.02795945347982
2.2640000000000002,-16.37765848326846,-19.69785198952922,-25.773214414904405,-25.597315418882104,-25.774451050632376,-21.95335184585726,-26.85765872376834,-31.88580677123877
2.2680000000000002,-15.352427524175752,-18.117696276841436,-25.15545364065525,-22.47837996173689,-23.807143604569163,-19.798811208399727,-22.579109319342898,-29.43339186038276
2.2720000000000002,-12.114450629654925,-13.005831710362653,-21.15548816776315,-16.831798905334086,-19.28229578264775,-14.552308816408077,-14.666176575889644,-22.313432311753978
2.2760000000000002,-7.396371880580723,-5.6889398341797435,-15.078943361420878,-9.954264410912163,-13.526758498877175,-7.716458891145442,-5.123900721117229,-12.32260662647088
2.2800000000000002,-2.196610098297624,1.9853720542835633,-8.507073458368406,-3.0664847695653386,-7.676970073567117,-1.0253610157315514,4.092911695322443,-1.7248984215469414
2.2840000000000003,2.5615925380861935,8.367897281590112,-2.7344984189337893,3.0038039173990696,-2.336678332738747,4.199302170158116,11.601618631671018,7.475312212607284
2.2880000000000003,6.2669825466354006,12.582754722715482,1.5929626164660986,7.869644727223335,2.4042450986189325,7.398135751838834,16.756463426116525,13.986160742685211
2.2920000000000003,8.642930131375358,14.676009791468262,4.471138881481344,11.396477112227256,6.648616415023197,8.720490316985366,19.492288677499545,17.32657632090038
2.2960000000000003,9.639603134894305,15.338659559713953,6.2897552380307475,13.492574215321477,10.337591122451041,8.708362967714951,20.070614285141517,17.658278797745073
2.3000000000000003,9.309788935892392,15.394688124404082,7.500125469649574,14.031519877462449,13.107031412799646,7.925715506848514,18.89517447811139,15.541953384126472
2.3040000000000003,7.771756325306474,15.356125656170235,8.39069769075195,12.960802344961863,14.465626882861207,6.738894913648178,16.459479784715263,11.768930347127512
2.308,5.287899277853707,15.276294752811337,9.065719363892997,10.50815294106554,14.169457134778096,5.312719003457512,13.36975338338684,7.25958899511858
2.312,2.3342106959890243,14.895180482964273,9.52244333686841,7.275626921933437,12.510569536714957,3.7261190180348986,10.306067529119673,2.9777815934157355
2.316,-0.43223104501888976,13.944212550534797,9.760926766588799,4.12285096652687,10.309244000517577,2.087877722058522,7.8763519900679935,-0.22511673489387718
2.32,-2.364187183774386,12.380892899427906,9.801676201651965,1.8389507587716076,8.54373367981295,0.542793300446597,6.398245399693925,-1.8344200836062532
2.324,-3.0909404243118455,10.424241457294691,9.62120968155994,0.7820115282459358,7.827073175232792,-0.7995526964725712,5.756600165657956,-1.834907591528867
2.328,-2.6800627973751485,8.430857888960958,9.118219823062987,0.7229804838261656,8.068285401657672,-1.9229908848467974,5.47120505918342,-0.7024748343301561
2.332,-1.6062083166733574,6.695012852111089,8.135877106518953,0.9802869455652352,8.52782216200611,-2.896288702037662,4.94943678623942,0.8338241091493541
2.336,-0.4977158868353819,5.33572220525619,6.595643251948879,0.821590613540642,8.2790834472977,-3.7641860580605644,3.81227296969265,2.1547173189303463
2.34,0.18371303064211997,4.307141504008635,4.619165010137062,-0.11429675955987717,6.793950931382916,-4.443341848246518,2.0955277803785317,3.0413680488171835
2.344,0.3259341356145544,3.4696322100401105,2.521438594876316,-1.6301650648602584,4.286684425048615,-4.724516351697729,0.20402236987969058,3.723155449444634
2.348,0.13515408055157696,2.6752866902684787,0.6738521091746321,-3.102217688809567,1.6116841108408435,-4.396652010749383,-1.3326303126904344,4.648942605309658
2.352,-0.099496045969933,1.792268132739384,-0.7366578424329955,-3.8838021842039128,-0.24101178402673362,-3.442765950969705,-2.1744072240786965,6.12468790001035
2.356,-0.25169473257815334,0.7144232459878017,-1.844323978189295,-3.701263937978455,-0.7285765286091657,-2.156146225362889,-2.340016851268052,8.036964451205712
2.36,-0.4389536880881799,-0.5992049655484228,-3.0349100635977777,-2.8076731174537146,-0.06357543484953787,-1.0871239728520234,-2.149702465876728,9.838807848451305
2.364,-0.8861746092913299,-2.054620590655645,-4.681576538557989,-1.7977331697701278,0.9392052877154602,-0.8026445355345833,-1.998405579853856,10.825190378383837
2.368,-1.6648125957842668,-3.363814670545195,-6.813809948795235,-1.1918201124460603,1.3837333067392965,-1.57720519588025,-2.1095778047684037,10.522690821837237
2.372,-2.5463273050310615,-4.105388993785366,-8.98502562327071,-1.0887381098380624,0.8377181181038775,-3.2175049465086705,-2.4599101694649885,8.961188758467916
2.376,-3.087679274788566,-3.912217137527329,-10.418553966297,-1.0873123864825152,-0.423952447562316,-5.118521659328333,-2.880872684567213,6.665412635410281
2.38,-2.9271324094438818,-2.714536402952879,-10.40936587205837,-0.5549158823621099,-1.6320522181277877,-6.54134829906346,-3.2522752076878296,4.379118644690358
2.384,-2.0994440858194894,-0.8933952120949202,-8.765492449597966,0.9170066974685294,-2.0437677505221536,-6.977032088115999,-3.641358829008086,2.691987098650941
2.388,-1.1116390897361224,0.8064770816694047,-5.993010547073159,3.1711538978011933,-1.4295758761386375,-6.393706782049037,-4.2604241436734,1.7708548661222645
2.392,-0.7040746977226828,1.5936944794138137,-3.1306479634644817,5.457749890200212,-0.2365903573701722,-5.237551958292778,-5.300169159598357,1.3532852537908484
2.396,-1.3871504960469865,1.050640267114825,-1.2549361740996692,6.793052758207407,0.6864475071342349,-4.1736287438598305,-6.742113074669502,0.978225879817177
2.4,-3.0508555900068974,-0.5968246284416527,-0.947715302678759,6.48268334735251,0.6065845092161206,-3.7363484004480507,-8.313709651379456,0.2896133638477485
2.404,-4.937097497463465,-2.5650013288178166,-2.0381206743733675,4.493569463882073,-0.6677592180225203,-4.082603598934822,-9.64852370873106,-0.7773862488417231
2.408,-6.022613555750356,-3.915542276054357,-3.724475135618399,1.475846616860421,-2.7025791794004252,-4.960375518115778,-10.527576335176832,-2.0334161672011044
2.412,-5.648271598502261,-4.08832345956677,-5.0535057661861496,-1.6081146062756817,-4.751687635299436,-5.90286385118242,-11.06379840516721,-3.2329653928124227
2.416,-3.9925246123606684,-3.2334219300498166,-5.435002232037482,-4.001953117477722,-6.235771633943086,-6.497464780544382,-11.657758463432602,-4.28685813056633
2.42,-2.0721114627320194,-2.1296288692084184,-4.919782556376303,-5.522794548297586,-7.087914700089533,-6.580968236307674,-12.730218573051296,-5.334032246413144
2.424,-1.238154887574093,-1.7383289090054577,-4.110957237120013,-6.581181499910551,-7.765863214780704,-6.271007853817913,-14.41172185492967,-6.632824964251858
2.428,-2.4120464712249943,-2.6329308865707026,-3.754589648186205,-7.846255968074486,-8.926020885589692,-5.847702050736679,-16.376199484336702,-8.361175300480237
2.432,-5.535132063610216,-4.675674887127538,-4.316471971347723,-9.803184741255773,-10.991321898430545,-5.594706528848501,-17.976995124031973,-10.454398156363707
2.436,-9.546917876242727,-7.121539456979217,-5.747242743935038,-12.446415642545508,-13.870429840267366,-5.685678014519848,-18.611506127076833,-12.593635191153982
2.44,-12.939385318544023,-9.089914653163772,-7.5740706495982115,-15.29835703651057,-16.999606145423645,-6.18325731065591,-18.111028356910168,-14.360062864830816
2.444,-14.592817511004395,-10.12283935189592,-9.239717298424022,-17.721411020198097,-19.666066391496855,-7.103949730363715,-16.914556853176588,-15.464403130661111
2.448,-14.36790397642436,-10.438710077327853,-10.407800862178298,-19.267349851281942,-21.373322801439944,-8.432475581017721,-15.870911767661225,-15.911058835694652
2.452,-13.143822050661012,-10.753382411320885,-11.102126991264381,-19.87791012109468,-22.0562687169461,-10.081249989809768,-15.789953963043004,-16.00231799396611
2.456,-12.259677507448032,-11.764668587177084,-11.577064463627893,-19.80134136165705,-22.022778479079268,-11.804731992616238,-16.97549605502192,-16.19209251357623
2.46,-12.698964307706394,-13.636309882389916,-12.057917243899382,-19.3282019994272,-21.69891129253082,-13.17534311966986,-19.022540886122282,-16.87951864388694
2.464,-14.515713118572382,-15.832413747727418,-12.554367468495457,-18.564542273188728,-21.364563072027526,-13.702411670391152,-21.020015548260115,-18.25098546359566
2.468,-16.82908295683844,-17.414524678448334,-12.856094400500602,-17.407396143575188,-21.04383525947417,-13.080001134063647,-22.04368842860921,-20.255258256677447
2.472,-18.40873087421331,-17.64928560346665,-12.756406901047216,-15.76959621418103,-20.612178400743353,-11.448793843260123,-21.687340620069598,-22.683598341417778
2.476,-18.46657129588781,-16.529199962387246,-12.285572908828039,-13.852390450054784,-19.991517906601924,-9.468932035333662,-20.302625136571624,-25.280799448487244
2.48,-17.171198993426273,-14.869430585592866,-11.791546346837228,-12.244972780859301,-19.284808204911933,-8.118495758939357,-18.80969659890317,-27.814663687055145
2.484,-15.569374141256485,-13.891835922153266,-11.784099178976437,-11.721798148814017,-18.736903935822816,-8.24951725762671,-18.168723463293794,-30.05707601487849
2.488,-14.933071869251092,-14.499867616417085,-12.581398222202868,-12.789194018650514,-18.538197820036412,-10.108086485326318,-18.794322068066318,-31.732782484284886
2.492,-15.952541236325647,-16.691705705787157,-14.027027743437186,-15.273685982035477,-18.63130791941318,-13.10807762904549,-20.268472518709345,-32.49975649262616
2.496,-18.231552909599145,-19.443601173132034,-15.43053684397256,-18.2026678152033,-18.64191620655391,-15.995538312918018,-21.498695703158205,-32.01158521982403
2.5,-20.414677291788088,-21.1695582405475,-15.83386851252903,-20.135503472415202,-18.024099018777576,-17.39585120598464,-21.261031824211596,-30.063905534146425
2.504,-20.905213678548883,-20.535396848147805,-14.49161057249863,-19.820961307243053,-16.36068040938045,-16.483140932244932,-18.849351491316014,-26.751485410518022
2.508,-18.758274853151057,-17.173315131181784,-11.279794150136945,-16.827738211513907,-13.638988923365886,-13.421702915445621,-14.47749753698628,-22.550986934393944
2.512,-14.263471946620578,-11.924160242394704,-6.839301846776482,-11.819409815928413,-10.343612548933823,-9.331310269495168,-9.231924155737406,-18.232781519323225
2.516,-8.863328918654043,-6.458358903299856,-2.316730330707852,-6.276869979745058,-7.27842225994406,-5.750084856782186,-4.573308649020782,-14.610725459992175
2.52,-4.466592341792825,-2.494051669520033,1.1394250954668816,-1.8255099703628783,-5.222893052269702,-3.8900323178808907,-1.6632115131417011,-12.23635328773312
2.524,-2.5217294985784657,-1.018694503604781,2.8676032213635896,0.49241683586951535,-4.593030223490994,-4.052611955528008,-0.8516968826806846,-11.155899382070452
2.528,-3.311285158421157,-1.8800890921165179,2.9492852558935514,0.6461597092834426,-5.265789278693134,-5.503075853324113,-1.5566805246335393,-10.864084462619893
2.532,-5.868248036882821,-3.9639460202877714,2.054148619913649,-0.5003785770808227,-6.6769121929189605,-6.89329684368021,-2.6179739250086937,-10.49876470105517
2.536,-8.50641056386291,-5.8088718627404585,1.0295954412186799,-1.727545626634841,-8.111786839457164,-6.984588887917557,-2.9125461040651306,-9.218216160704166
2.54,-9.67477069935844,-6.326355247054265,0.4494599355616371,-2.1160267284077454,-9.03935841732666,-5.30398456394005,-1.91012091102231,-6.600804262309405
2.544,-8.704905529566306,-5.273251633404982,0.3604597245784813,-1.4707450422168566,-9.316369855319683,-2.384288433113098,0.09308210550561746,-2.882478759434215
2.548,-6.060542169119875,-3.24587458350836,0.38163263429347527,-0.28664691776446594,-9.162883488732396,0.5359602815604295,2.178533632468534,1.076475687415503
2.552,-3.0312223308325024,-1.2774340265490105,0.02202626931288343,0.6502515153023478,-8.964128106830536,2.1551038478597238,3.2984330240580997,4.1146267616949075
2.556,-1.0429215684921025,-0.2596172413015614,-0.9404281041032023,0.7837398491317762,-9.00113883987202,1.7658282294089047,2.8187413246899826,5.2503045998388895
2.56,-0.9578969594216669,-0.49860949943621247,-2.2650222726407954,0.11024507611460521,-9.274901465737862,-0.4292956966752177,0.8316167099065468,4.109387572448258
2.564,-2.7115705316481122,-1.6215421634185825,-3.3505147667328523,-0.864684958342516,-9.501194930301539,-3.4770565767296975,-1.901127500749467,1.128204941587571
2.568,-5.397214286164461,-2.818455246182252,-3.5291571366444017,-1.4554526236324037,-9.25579226989107,-6.179698761692905,-4.296046827045901,-2.5806275593605386
2.572,-7.739871915393245,-3.2864544094317223,-2.434960293883417,-1.226549346564059,-8.206573833379615,-7.682630977483425,-5.426190732835574,-5.6499025973848145
2.576,-8.673955776123568,-2.619268413162663,-0.18674199766497535,-0.23180431176086896,-6.281195889606211,-7.8125995433355815,-4.8744705386324965,-6.982293733600024
2.58,-7.758350022008625,-0.972086347694467,2.6778732613588976,1.0473956694617237,-3.7099089315359013,-7.038798679551292,-2.82699876998451,-6.155981735278713
2.584,-5.28108941707208,1.0423680530578197,5.4487483604822895,1.9964347978281438,-0.9399548212287538,-6.121719101106695,0.07741855390602348,-3.5392284417266544
2.588,-2.024942603524399,2.669044971897479,7.5637874413976585,2.2276412010585984,1.5403189746324497,-5.660321613427375,3.049371205655949,-0.07979073762122546
2.592,1.1208675010149152,3.3454453041681993,8.78833258611219,1.7652049162374353,3.361789718618835,-5.810803066924045,5.42579287848077,3.1369054500766977
2.596,3.5182775086882763,2.9162542726490117,9.213130461108545,0.9848100136781093,4.363924736113709,-6.275882350271526,6.830335543793388,5.342470653822971
2.6,4.952895658989634,1.642516352724587,9.088123007201922,0.3546868326241692,4.579211324071943,-6.541787014244629,7.183075639486633,6.337736272936947
2.604,5.575919995417536,0.023423115316698606,8.610059359300841,0.14107036352703517,4.144270718018933,-6.2032309710450555,6.601754290183473,6.457376569052443
2.608,5.721872482417194,-1.4311465468573719,7.83663719613909,0.28348777055685837,3.2205135126760434,-5.18224576310893,5.317629397276471,6.28826419676279
2.612,5.684595635305671,-2.3999614676062286,6.710108108760784,0.4664103409161302,1.9387501781977017,-3.7683294379950185,3.615239214919587,6.3039584960457855
2.616,5.596136835587422,-2.8174043692772015,5.203783143855393,0.3578823432929563,0.41077327836628363,-2.467382124765095,1.810225373312424,6.612357299916528
2.62,5.435669480668938,-2.8182937015199965,3.450276963074245,-0.15711159964432397,-1.2294411037480124,-1.7850925891561438,0.22345411943947546,6.93079953004996
2.624,5.116182677847008,-2.6228709530400183,1.7502129266897741,-0.8958936102233761,-2.7911242415076822,-2.0512384275619517,-0.8754618280650206,6.799472085775152
2.628,4.6011905899158485,-2.4044221865428197,0.48660482683515127,-1.4656087674273575,-4.014889116804589,-3.3277183686273784,-1.3222830376455845,5.892646104910966
2.632,3.9490892150633767,-2.225118849776143,-0.054904434386655154,-1.4864481670472993,-4.62549014050931,-5.427306519542868,-1.1092817911910264,4.257920950208827
2.636,3.302836787976566,-2.030212988217679,0.1965224268760899,-0.7833140155160665,-4.407095429075624,-7.975085338147042,-0.3720136119543891,2.345645335866677
2.64,2.845260632654189,-1.6871278669284013,1.1008191364798483,0.5573021927055002,-3.275634195256939,-10.48753878639424,0.6817788066201822,0.8074837673054418
2.644,2.74435071578577,-1.047754893910148,2.4129612537395286,2.282970596371605,-1.3171851412230873,-12.452073536004566,1.864538758768152,0.18684408580267764
2.648,3.1418974336159406,0.013886688667384295,3.953760446008645,4.159291809682806,1.231744610913016,-13.41349883086933,3.0743587670027264,0.6469350940076262
2.652,4.142088432159908,1.5619652156493706,5.679250063172248,6.088008826827391,4.032776633900491,-13.101190780376015,4.277991954205139,1.8796730155220112
2.656,5.797508469560206,3.586628720418755,7.64940584680455,8.11343182819633,6.731110319933382,-11.52421165298783,5.457396873117409,3.2505245271627485
2.66,8.052144207339701,5.990926026844285,9.884454556617886,10.288674820872803,9.02427358219597,-9.021742303720607,6.541710490823759,4.090531895397898
2.664,10.647924051845488,8.565631525782868,12.19025834209094,12.49026974030569,10.693695973559581,-6.218224220173127,7.366447724888818,3.9846827170606565
2.668,13.103478865406625,11.00565412197356,14.116952186178082,14.347451898208657,11.615849084693972,-3.848439611205609,7.722912110891343,2.9111555241638443
2.672,14.798685161987857,12.958256763599078,15.061102516724304,15.329751468825268,11.747369981868719,-2.5187577669098786,7.446899668871854,1.1923403025414374
2.676,15.188778954573996,14.124258866181584,14.525896449198118,14.99570364607714,11.126450972165125,-2.480204017205574,6.513547772424846,-0.6996953229645935
2.68,14.058605382165318,14.372549470615999,12.383171374233317,13.249801445452253,9.87852598039371,-3.536696933791683,5.074448272621825,-2.3736184989534044
2.684,11.666969723079447,13.80077526237833,8.981523050249649,10.448792058673794,8.21160257508059,-5.128795371003684,3.395005430018654,-3.6550730958930653
2.688,8.708662923879675,12.728123223875055,5.076764671346664,7.307021304487684,6.40574328848433,-6.54383289071704,1.753723430630489,-4.579467122356953
2.692,6.0378094018893265,11.580782424742488,1.540130706421447,4.600509136338428,4.754112901728011,-7.199401027187168,0.32927631158174275,-5.271224601894374
2.696,4.286037551815662,10.723319655770661,-0.9767238723082103,2.842433240582154,3.486560267784867,-6.8561592617580835,-0.8431999981796683,-5.801748089306926
2.7,3.57908882816,10.317317314630943,-2.2619705440869744,2.09758701973856,2.7025501717755183,-5.686836897463091,-1.8276765564255852,-6.117615415050368
2.704,3.5058825416053656,10.271099795724671,-2.555178775639665,2.026509489967304,2.3522088194760196,-4.174321836599127,-2.6952596701391127,-6.0700188807427065
2.708,3.3970834439878033,10.332557354015762,-2.3182203880407917,2.1527960928917693,2.29758225661591,-2.881669995673564,-3.418248116681667,-5.524045689682229
2.712,2.7368253205641144,10.253424424033128,-1.9538116139141464,2.1554721875551612,2.398862508708439,-2.2226914271045137,-3.836517840376048,-4.470357424190525
2.716,1.4979356663896457,9.948598514688975,-1.5910838677106125,2.039801224252199,2.5969688120625456,-2.308424869401205,-3.712412786655236,-3.082694731600342
2.72,0.1947507857791635,9.558069267524086,-1.0758418381586652,2.08339985810832,2.9282648506405096,-2.937187198909891,-2.8516456660909775,-1.6924370945411582
2.724,-0.4032856435812966,9.354095563324506,-0.17894624207842225,2.589304089415516,3.4527956319100994,-3.728595601093262,-1.231795032592819,-0.6851109119883306
2.728,0.28098254957903723,9.55664655874521,1.1531345805151254,3.6178867094507625,4.143767456794771,-4.325856306521381,0.939106406731367,-0.38904711173774753
2.732,2.2446287648226275,10.134938114755501,2.6181562240147214,4.841105643034095,4.790625013313406,-4.591389666930889,3.2407400574643597,-0.9968724608572948
2.736,4.837463170829386,10.748003450609815,3.6246200174300864,5.656435690807884,5.022265008580748,-4.66891962530001,5.157276694609862,-2.536052366129192
2.74,7.071049993691545,10.884916287801413,3.583137997957564,5.501283005254847,4.463182948900293,-4.89150248084089,6.259141856988287,-4.869740620966044
2.744,8.118480069763624,10.13029681141032,2.251523113435783,4.182961241847495,2.948896241023763,-5.5831457906954896,6.359545931788253,-7.704376730668456
2.748,7.758133075766709,8.444229053593974,-0.023729042945761947,2.055681519092816,0.7007932078164638,-6.827719706271898,5.601607510638075,-10.60677131581548
2.7520000000000002,6.483974024816489,6.2585113855394034,-2.3872383900783114,-0.108465343996486,-1.688785417654105,-8.35836159863905,4.404776722854839,-13.052464224088858
2.7560000000000002,5.233825406474266,4.318018778278401,-3.8367967474325546,-1.4839173410597795,-3.4739512540551836,-9.619812541435621,3.3018662302878043,-14.532997075231949
2.7600000000000002,4.878811089206276,3.324859873482301,-3.706790444917511,-1.6171867223063892,-4.093117190542528,-10.00419324776463,2.7269941597849385,-14.715523022097752
2.7640000000000002,5.748675213016133,3.553879566455642,-2.0283511547365487,-0.6841302931840916,-3.4586346176699188,-9.15163605334117,2.831761937627257,-13.58814496200865
2.7680000000000002,7.475440330442071,4.68523727138942,0.472208314952721,0.5952792189809566,-2.0148685587952846,-7.145797279709274,3.4416797062438955,-11.519100637637319
2.7720000000000002,9.198884518728349,5.95284706201595,2.7128155688533266,1.3234476737713985,-0.5229865991785987,-4.511078261218246,4.153200662058174,-9.15383456140665
2.7760000000000002,10.030833405970508,6.5670010115610715,3.8114090428915173,0.9129645165756335,0.34136396192831464,-1.9869498813292044,4.553118830437991,-7.164545554710296
2.7800000000000002,9.506518205751913,6.172148474089084,3.5362446040744446,-0.5848482057736284,0.3499000890836488,-0.2057907223672828,4.44026395922901,-5.964078925104074
2.7840000000000003,7.772520524443273,5.064589397269751,2.3828096212495,-2.5105660647581125,-0.17240076800844273,0.5595600967898073,3.9176247968031443,-5.519311197257018
2.7880000000000003,5.457464721710547,4.04218602360754,1.26940330598969,-3.9577820640776573,-0.5641901809078824,0.45845946545968674,3.3276481933163327,-5.385547717946117
2.7920000000000003,3.296570988668134,3.9186926850716706,0.9631218918761446,-4.305245747654222,-0.272607991243472,-0.11057187840414961,3.0328528685673306,-4.956098312191068
2.7960000000000003,1.7611166514278502,4.9923682804345155,1.6060423196582096,-3.5962634885749987,0.7530786601587924,-0.7618149010830488,3.1797271133655594,-3.809978278963502
2.8000000000000003,0.8882744737229551,6.781549868432216,2.607080583531121,-2.549389932973075,1.9547412851733195,-1.3216258868242026,3.5843122971644616,-1.9768771533734408
2.8040000000000003,0.35759181371545257,8.193728337992068,2.9518531099132437,-2.1959166476954843,2.420966549302542,-1.8549711347369415,3.7939765610563834,0.043418538804774975
2.8080000000000003,-0.23259431666625918,8.090540685505903,1.8070534815974284,-3.2979947361602533,1.3885961560161042,-2.497488500300594,3.3267304688470296,1.5219650672173801
2.8120000000000003,-1.0915307020717409,5.929712692445699,-0.9632303038126118,-5.8826516224510055,-1.3014425930265872,-3.237350761366244,1.9448316387721853,1.8990413363181435
2.816,-2.117129647710199,2.125794735198469,-4.636559675143542,-9.148843631588365,-5.052000340461143,-3.811657202201882,-0.18249953134290142,1.1131824622059812
2.82,-2.996129088434002,-2.1004830128328322,-7.953783860637537,-11.824785836693977,-8.781331949953517,-3.8220543135959217,-2.539659800533969,-0.3397324111002562
2.824,-3.435943610156268,-5.316708770568912,-9.753329686081514,-12.785799783712715,-11.46087121604796,-2.984364010357528,-4.515398893734096,-1.631514303449947
2.828,-3.3528441346174054,-6.586145091376925,-9.537077265040175,-11.591784869155079,-12.611413690057857,-1.3576584976688157,-5.687419469501656,-2.016894587336978
2.832,-2.928833488082291,-5.919300734239965,-7.704116066962813,-8.689838327962539,-12.49583372850956,0.586532773065217,-6.016607905018679,-1.2100227179422705
2.836,-2.4755785572411355,-4.190794270975653,-5.279221963491212,-5.145437284241356,-11.871208405041669,2.1751541175542393,-5.8267897495787615,0.4918653099032042
2.84,-2.2036564877279208,-2.58420676645103,-3.3200096438427633,-2.073518990720112,-11.47217061891326,2.8939055302001764,-5.596152350587548,2.391840999773269
2.844,-2.058243493958307,-1.8966913874818871,-2.355997376630774,-0.09390778199962613,-11.531127363055425,2.684314361605227,-5.68789456140099,3.7891587792765584
2.848,-1.713174208974418,-2.100155628642262,-2.147610561547155,0.8987239662528563,-11.622551886073083,1.988273789255214,-6.16681445138086,4.332895869052918
2.852,-0.7682578728123874,-2.430804826730654,-1.9356201005895137,1.511186558327624,-10.952716177563001,1.4753277811014431,-6.828026739966913,4.139111027689458
2.856,0.9768088876914996,-1.928357292931911,-0.9730526374029465,2.36039925895009,-8.90572484696489,1.632424313234352,-7.3807385455805665,3.6230722172629832
2.86,3.33312939607712,-0.09825084238197812,0.9683389475783084,3.6188488617089325,-5.525868508432172,2.4445502659235396,-7.662312641234007,3.159305341249996
2.864,5.733457002402796,2.7053491633064803,3.4093756139583955,4.8707571217554735,-1.6366840013926125,3.3897543860826875,-7.749216002868856,2.814746959122749
2.868,7.479487889361293,5.438311639055264,5.430172053916194,5.38101446629579,1.4978780831287994,3.769154596437414,-7.8783430618092485,2.311974071813095
2.872,8.066620751745049,6.94812170154744,6.172464539415371,4.571069474624618,2.773160072432015,3.1467296970621437,-8.262208996808246,1.2519201513603564
2.876,7.430230169948843,6.646850446102231,5.318342319942625,2.4311460773885023,1.8021763321553241,1.6629487280286754,-8.899982852537107,-0.5437317982285323
2.88,5.977060158199373,4.87090629497495,3.2537070306456854,-0.39254688444022945,-0.885192598604255,0.013809440859199995,-9.519438971169983,-2.8010624367749757
2.884,4.348335250126949,2.6841804475044344,0.8073144298992299,-2.920895400029801,-4.119481248925106,-0.9203700431546622,-9.714276297628286,-4.833774540468037
2.888,3.0716371831765055,1.254887258669953,-1.2187710143189987,-4.3627124940240485,-6.668739999029134,-0.5713131334049373,-9.183543612465062,-5.869071681508634
2.892,2.2763210733910846,1.1516369098628783,-2.4863386309202378,-4.54613113245805,-7.818786791620865,0.976363415768231,-7.951488658050611,-5.466323751656121
2.896,1.654339867824203,1.9976646609183843,-3.2343479308466416,-3.986373078400659,-7.641408618316419,3.018729057664171,-6.412630189154254,-3.782345461751249
2.9,0.7026538197144911,2.6992436748951345,-4.021148631465961,-3.547035023598756,-6.828266664732414,4.613733281434713,-5.155707054062102,-1.511449922504748
2.904,-0.9135755264031116,2.109012318245129,-5.290942355072602,-3.90694668040984,-6.218251555351493,5.087388241366965,-4.671442988673981,0.4867268146618431
2.908,-3.0572342410498257,-0.22515682373744728,-6.9861791236601265,-5.110298162662023,-6.272648548914246,4.392778814023214,-5.068089510351584,1.6550917733645334
2.912,-5.094379629783901,-3.6918067726108754,-8.49234049444604,-6.488860701387102,-6.805793991237263,3.1037822742998094,-5.980004774212122,2.0365340355851886
2.916,-6.181628348596527,-6.855822921436886,-8.937659488890297,-6.997620075805208,-7.106273287634405,2.068783868439659,-6.735041989671107,2.203840743550825
2.92,-5.7115318151927434,-8.175003263960058,-7.678893715161241,-5.772730844073125,-6.360680688823791,1.930345958834132,-6.698630228697036,2.8651480492386283
2.924,-3.6868409710971113,-6.825856028657501,-4.721888874628991,-2.6287600024015827,-4.146923767131235,2.772652602275971,-5.6344224673113645,4.382336143018701
2.928,-0.7685364102891395,-3.1610947005959784,-0.7981341477834736,1.7981905895565946,-0.7085060859022474,4.099375340925043,-3.8602798959687528,6.485410061715005
2.932,2.023546738420719,1.4354388829866886,2.911480478024303,6.309430736776205,3.1140756227777966,5.120349357823823,-2.119820843773211,8.381404192271354
2.936,3.823336115748818,5.232651239561804,5.310305669428786,9.686651451117658,6.271027192363214,5.197913258395447,-1.1994586785812853,9.210587695614581
2.94,4.3656913099532595,7.002519649807626,5.884939026449177,11.227966999470734,7.992653851470232,4.193909476233742,-1.4808176514998017,8.584404405212585
2.944,4.0943487795675395,6.56878597230315,4.9007516505163355,11.001859337403676,8.121699676720674,2.5396995630765757,-2.6783258696244534,6.892986538874624
2.948,3.8965178224107584,4.798374059134182,3.251874912093893,9.738710488990746,7.148488178414443,1.0260275009845783,-3.9004039938786814,5.1659722264319585
2.952,4.565197292052944,3.0307209968931765,1.9825409842929265,8.39562857208937,5.910429635704331,0.3961127158642973,-4.075802897903948,4.525395503055014
2.956,6.295113289688462,2.2808039421648534,1.7504146139440238,7.642808912207259,5.133498424699182,0.9706347834651841,-2.5484953708568954,5.517604666249034
2.96,8.492701858787337,2.6491688525257295,2.4845778238238108,7.526247620043616,5.049893189008627,2.4631054208239362,0.45144017991604457,7.687314214308388
2.964,9.991582842397605,3.237781895766041,3.3868065076733362,7.453411086957821,5.276306134493876,4.055725679484032,3.713933440355622,9.667030191609449
2.968,9.590540132522108,2.621881507863984,3.3174645128694493,6.5175304049692935,5.0213668548483685,4.706490386029115,5.451475537950524,9.757933480827415
2.972,6.618703303574518,-0.39836914536095147,1.3320607343033002,3.967758612125822,3.4980949669679093,3.5404565618249033,4.040389381786548,6.738729223248377
2.976,1.289981784343043,-6.117593066352173,-2.81822835113602,-0.362381428755465,0.37415632994395875,0.2281168154775901,-1.185495552545445,0.5214748742128688
2.98,-5.3083241430233095,-13.646646729531565,-8.450986660222117,-5.868797513782831,-3.9573150013598193,-4.806201755799144,-9.46439178169139,-7.674672448886203
2.984,-11.589249016552996,-21.180108631553892,-14.121445335390055,-11.334091809748175,-8.422573947298261,-10.43416141065875,-18.721953475577685,-15.71135141513855
2.988,-15.99332803522727,-26.651463253704517,-18.087532927535296,-15.331258871295585,-11.596476253455398,-15.110658113432368,-26.234941855225017,-21.31118616025016
2.992,-17.464898007616615,-28.488873642739556,-18.9241125056587,-16.722644886954036,-12.198208319771272,-17.337311516145135,-29.603627829738798,-22.863757930504644
2.996,-15.70873853881481,-26.152989080844215,-16.016246057670983,-15.035437083080021,-9.550714530038537,-16.15040477073226,-27.616446522446807,-19.923379103869227
3.0,-11.184496081701536,-20.269237065582576,-9.761430608668245,-10.585062692647584,-3.845218771340103,-11.476651380874259,-20.656003766803323,-13.24706666316143
3.004,-4.913071191437985,-12.357356128768247,-1.4390302438865987,-4.334810386397052,3.878490991691029,-4.212649817088868,-10.515004436433484,-4.410781006843514
3.008,1.834977386047436,-4.281380213142518,7.229670019607842,2.4529484911798622,12.040165797203906,4.029258103568382,0.2997098990025364,4.7695915527850685
3.012,7.8444031485170065,2.3243917844103015,14.598353656318578,8.589816989389739,18.982594502618056,11.411318822326063,9.434274332155564,12.76033859704292
3.016,12.216886016101371,6.475062760154399,19.538548215725484,13.248834657056122,23.45147928007142,16.451298091437707,15.38950599707755,18.609926593122413
3.02,14.551554412059213,7.990622890829615,21.668962346803312,16.084231768651396,24.927252297959104,18.4600157930667,17.816419241528266,21.987746193205496
