Timestamp,O1,Oz,O2,PO3,PO4,TP7,TP8,Fz
0.0,2.3021584638627246e-12,-1.0800249583553523e-12,-2.2737367544323206e-13,1.7053025658242404e-13,3.979039320256561e-13,5.684341886080801e-13,8.01492205937393e-12,4.320099833421409e-12
0.004,-64.1586443135177,-52.10798399184637,-85.23575835334253,-50.93631431461995,-27.57411303051731,-20.171580506704572,-52.58826997243449,28.454488002599078
0.008,-110.79420253632446,-89.88104242368746,-147.80594144956137,-87.69380333717703,-47.73040198560983,-35.436680825949,-91.72329599435488,49.3644550950678
0.012,-130.1629676273893,-105.36831222171196,-175.1048640891068,-102.46259188178993,-56.42718260677316,-42.97569053297286,-109.85035336822182,58.490021722819506
0.016,-124.10055094635271,-100.1061758994824,-169.477587660013,-96.87444573602033,-54.5995951267235,-43.09202148331667,-108.19848886311235,56.535484263246644
0.02,-104.02776708561765,-83.45955191479143,-145.61105482557036,-80.31344732368257,-47.21852356786053,-38.73031893728273,-95.29877944781475,48.33498271023416
0.024,-84.45470121078802,-67.2750025127983,-122.10457956764719,-64.54234203772307,-40.40189340719115,-33.78224311315307,-82.09719046812745,40.127675782792494
0.028,-75.66724346490042,-59.897874811358236,-112.05212812686574,-57.72391834980823,-38.234958352531976,-31.13763966223371,-76.44615902439887,36.47290227835299
0.032,-79.51912051720532,-62.770799621322965,-117.70451517917132,-61.063610228447885,-41.0253587291171,-31.496975199202552,-79.92538816044816,38.45827024676123
0.036000000000000004,-90.23789576659482,-71.14858329659808,-131.6196193190857,-69.60699596851208,-45.81866079539526,-33.491142816578304,-88.41138319254998,43.97674123843149
0.04,-99.1523180063495,-77.99695007011005,-142.8219220570445,-76.23371379942262,-48.63996455028558,-34.88380522748514,-95.5668827119656,49.605626330014275
0.044,-100.16134014471172,-78.43988307559982,-143.77536439523425,-76.16067256815586,-46.98171735215408,-34.039345000920775,-96.87154539227782,52.757417278512435
0.048,-92.8087001546408,-72.19185012550088,-134.1547837874042,-69.36963957961456,-41.123340569286995,-30.83721296305464,-91.87432340228702,52.84235433649218
0.052000000000000005,-81.6467644618985,-62.95630905453615,-119.83351027893474,-59.91095193960655,-33.70714021825131,-26.60651935160763,-83.73664120397098,50.989607322256006
0.056,-72.87533904661132,-55.65869978794808,-108.49182665668792,-52.97523110167083,-28.06255183923048,-23.26041156849783,-76.84142896592249,48.8040738063728
0.06,-70.60068091431683,-53.45712515011297,-104.94971042089202,-51.77371711970687,-26.394586010818102,-22.230772919792457,-74.17781393106952,47.118718027510454
0.064,-74.85081905402123,-56.248850400061485,-108.9014838963991,-56.00053056770213,-28.821863613145354,-23.751886433647996,-75.99735552294487,45.55146136648699
0.068,-82.2006222695857,-61.29213899063191,-115.99590165219337,-62.536249791855994,-33.67266595309502,-26.857569263995117,-80.27350141660241,43.04101569982174
0.07200000000000001,-88.26857693365307,-65.26783772960067,-121.12929315748312,-67.67859782203999,-38.691621490104524,-30.009685572860974,-84.38505461824394,38.87663896314433
0.076,-90.34520049868462,-66.32427032027977,-121.63480431307016,-69.35466412668058,-42.32262699372683,-31.91789698860748,-86.78365668678606,33.47553431326946
0.08,-88.60143884355972,-64.88299749151287,-118.45063222551914,-68.02058649745155,-44.3496539732875,-32.14473518208325,-87.64037330263227,28.327418431401554
0.084,-85.3534397244064,-62.87253227289162,-114.77299653796348,-65.8513293529455,-45.61439848278883,-31.175728885963395,-88.21487375415762,25.14476319401109
0.088,-83.17293471740652,-62.13223368755243,-113.46390370471312,-64.99700630203168,-47.16592074317197,-30.027576877783133,-89.6047058692265,24.803277658267064
0.092,-83.26484110623085,-63.18353909547412,-115.14109896005266,-66.18041569247308,-49.48726345722537,-29.67269937805986,-91.87700669479926,26.81038810171424
0.096,-85.09492285726643,-65.13220075430587,-118.13084573845214,-68.49820909895902,-52.27002474709519,-30.593628842919486,-94.14682182587427,29.650180819388595
0.1,-87.21412000759338,-66.54717687826468,-120.00569535164283,-70.34079176144874,-54.74956935570435,-32.65980190689862,-95.37727835488903,31.738215732520644
0.10400000000000001,-88.42603655435346,-66.52168756245564,-119.3389399099176,-70.5938198860639,-56.23817735062855,-35.25586300961004,-95.16908438686232,32.31306841422014
0.108,-88.45533948445134,-65.18409044185424,-116.470195412772,-69.30436334334806,-56.487007986770635,-37.57125997777422,-93.95833412558022,31.694641360070932
0.112,-87.81829478305437,-63.43483133132116,-112.97331169953065,-67.48728397340795,-55.70218042153007,-38.918630887723964,-92.58441171448115,30.840441429870964
0.116,-87.21246655611913,-62.25204787690987,-110.43689777264365,-66.35536778267033,-54.30877222190139,-38.96674871046412,-91.65437322867155,30.5760704999866
0.12,-86.98180616794824,-62.11007464883258,-109.50668181012179,-66.57625311878249,-52.71032033839512,-37.84901651037575,-91.20609909902672,30.997018030499532
0.124,-86.94511409029627,-62.79828256195387,-109.67431288108469,-67.93914112623614,-51.15144020725606,-36.06761068834555,-90.82049720715324,31.409811769918463
0.128,-86.61286783089793,-63.65959514327014,-109.8168211107226,-69.56269721772986,-49.72034688671752,-34.24707167705526,-90.02931036716879,30.816326140220553
0.132,-85.59175205807841,-64.04251150446024,-109.05360036799044,-70.46706076155218,-48.44410737115777,-32.85395299284289,-88.72659353662621,28.606581535104056
0.136,-83.8660851874497,-63.65888748231146,-107.3224653193696,-70.12320348417529,-47.36840975989415,-32.00951109971197,-87.29328103052708,25.032401890722895
0.14,-81.75969099923111,-62.63859509408837,-105.32395537303407,-68.66284137285487,-46.562502950598144,-31.491661437189578,-86.33631938994012,21.15120946931779
0.14400000000000002,-79.61014243432601,-61.27981304545784,-103.87431169275317,-66.6307980928731,-46.0359393226874,-30.876132634304668,-86.20538902827076,18.26736167102007
0.148,-77.47035173743143,-59.75562302122421,-103.22512686763156,-64.54318462247272,-45.67616622212148,-29.767431917214253,-86.66542761980043,17.226095856037603
0.152,-75.14286018966612,-58.05360944603649,-102.90877306130477,-62.60701102046977,-45.29714154075765,-28.00795111045045,-87.00635082933627,18.009003096196693
0.156,-72.52780246724947,-56.17228330477124,-102.19106259747161,-60.74842479281088,-44.76796785010964,-25.756475677633944,-86.51866214242716,19.867888088872633
0.16,-69.95411688631384,-54.344345545235285,-100.71901373468626,-58.85123736679526,-44.120326863237835,-23.415688408958374,-84.97600167086989,21.832047437963297
0.164,-68.11870117009167,-53.003624735035544,-98.7496372753601,-56.91909740246018,-43.498035208482634,-21.411344447304145,-82.72916103325281,23.231144174174858
0.168,-67.62651602984428,-52.48605147295598,-96.8220146925056,-55.048957417320366,-42.97861738377111,-19.985687005522664,-80.36069419267017,23.935615364197588
0.17200000000000001,-68.4959577948564,-52.72755851423824,-95.23638616070377,-53.323746257832056,-42.426656945462184,-19.128495221291587,-78.22689103030712,24.25513450847734
0.176,-70.04859093312837,-53.248368985512286,-93.81522052044664,-51.78382190223692,-41.525068155507995,-18.668381286848103,-76.26743909686883,24.626463029077172
0.18,-71.27217419428399,-53.44352841952235,-92.11791952197217,-50.50423275412783,-39.98286277529985,-18.469337272591815,-74.17968492920107,25.290812729602408
0.184,-71.36006768865732,-52.93229045701963,-89.81953038981084,-49.62832562385438,-37.746903089242494,-18.526206498288502,-71.73640680740834,26.124038615618247
0.188,-70.09709402152532,-51.738578086376776,-86.96729210811651,-49.30086531559135,-35.0802955928624,-18.89952599913147,-68.99468115111546,26.68329516404765
0.192,-67.91811163406857,-50.23446743530292,-83.99312167957817,-49.556790269138276,-32.46608689214463,-19.572802582756594,-66.26987038527955,26.451312206194416
0.196,-65.64475078897917,-48.92413473537749,-81.51190742329868,-50.258629011497476,-30.400689021442304,-20.35889495091908,-63.92908901515716,25.14644552277116
0.2,-64.0445094719214,-48.190619416455206,-80.03200445440297,-51.12322308353481,-29.18980788273268,-20.966127677729673,-62.152029728036496,22.914701603545268
0.20400000000000001,-63.39098037503817,-48.08149874969945,-79.64028297181596,-51.762804096536286,-28.794089639022218,-21.143177969504222,-60.7700076685461,20.31350264037667
0.20800000000000002,-63.30615432357348,-48.27359575878842,-79.90723578844495,-51.77439731562362,-28.838757256422355,-20.84100793530763,-59.34038313140002,18.082322718137675
0.212,-63.020020912653536,-48.26521825710063,-80.13744233869659,-50.88131084257071,-28.80253576099392,-20.28451786902349,-57.464121903117075,16.856309159310968
0.216,-61.90253077581718,-47.685655875342604,-79.81400005530816,-49.06099926103718,-28.277497410846536,-19.8615493259598,-55.1385674031269,16.97969002490072
0.22,-59.90240887865161,-46.51051895371023,-78.9291240863381,-46.57938992992928,-27.161811515166733,-19.895277729746113,-52.87580085934326,18.439319628853582
0.224,-57.548806637646294,-45.00483986890055,-77.8814778062432,-43.83431132986641,-25.649934470963444,-20.39737514552644,-51.409611443510244,20.903533019513134
0.228,-55.56855708160498,-43.48511378494101,-77.08696667068023,-41.14415971994276,-24.062313437706507,-20.98523227651208,-51.18924786992477,23.85022494727673
0.232,-54.423060826078824,-42.116287785643635,-76.65173133171777,-38.656744272436526,-22.654183367781116,-21.075767550089267,-52.02480424335897,26.75179813568775
0.23600000000000002,-53.98987317905886,-40.81691247298318,-76.22781176503656,-36.35950290149276,-21.477664183379034,-20.21731140454949,-53.07154075882181,29.22714210354013
0.24,-53.619243966700424,-39.34831978438359,-75.20192021725973,-34.20193575281735,-20.394954083960783,-18.39486259919886,-53.22886936153566,31.10253584691077
0.244,-52.60490797635646,-37.570337925943136,-73.17925826563999,-32.288995392860556,-19.247060641633425,-16.140110806238226,-51.79311281579419,32.39333548709442
0.248,-50.699005543786825,-35.625587811638866,-70.3440567688491,-30.940416254752108,-18.035139179797284,-14.344737268520703,-48.91616168172288,33.18811581439911
0.252,-48.29922048083489,-33.889376215644916,-67.40615824031556,-30.526707107105835,-16.9812763142354,-13.840514925296702,-45.55858043802823,33.480053082578934
0.256,-46.21649520672025,-32.741950312856716,-65.18961420235007,-31.195100882407928,-16.42779123471189,-14.954631905092128,-42.97827282291621,33.08773438005551
0.26,-45.19815512009103,-32.33787887015001,-64.17552995104279,-32.6876959769703,-16.65028853602064,-17.29669712032137,-42.07262744522154,31.770908449763738
0.264,-45.51640122720596,-32.542188400907776,-64.31024941837723,-34.40466862553967,-17.69894283996291,-19.90028397461083,-42.96657063547559,29.499568706230093
0.268,-46.78916405646527,-33.006336305096625,-65.07297586006894,-35.641625256819,-19.328941089926275,-21.636437837347557,-44.99587691467593,26.660660652981278
0.272,-48.09867193260294,-33.29624655622024,-65.68954985328264,-35.85602926216495,-21.049851776289984,-21.688060724826073,-47.02739918836062,24.02488887617551
0.276,-48.40632972830036,-33.06026742805943,-65.44285239929695,-34.88205869813669,-22.31381161319416,-19.891867743671128,-47.979471442807835,22.43222015081301
0.28,-47.10450960552646,-32.21069779206721,-64.01666403495472,-33.04659134481028,-22.785496747487628,-16.821227958102554,-47.31954460019165,22.351699412820153
0.28400000000000003,-44.43168288334931,-31.051775984333858,-61.74212505663536,-31.134416066783274,-22.55834211471938,-13.585204652788661,-45.31961233718539,23.570225639617775
0.28800000000000003,-41.39831080516751,-30.18349041983072,-59.48032296048723,-30.094723883623942,-22.133285903562978,-11.389183941405463,-42.88624723172734,25.18882488240388
0.292,-39.196120403689974,-30.170088820225146,-58.13123576770761,-30.56055435517203,-22.127191270250933,-11.020956336576091,-41.03552983251416,25.970724182771164
0.296,-38.460089116304346,-31.165822688715707,-58.06981412044297,-32.439746256677836,-22.867968868525395,-12.488599783419886,-40.33428419892539,24.92704761059599
0.3,-38.87056004637816,-32.75273304683037,-58.90650597257729,-34.857925447810885,-24.137629285795697,-15.000429498082894,-40.65813463002064,21.870450724514967
0.304,-39.37074933820304,-34.12324419546542,-59.747877671684364,-36.546421349088746,-25.238613999446443,-17.303242974845716,-41.38912607990096,17.643559301136293
0.308,-38.80322935463994,-34.46516555881601,-59.70135324416492,-36.444312490817765,-25.337746339878777,-18.22229578742622,-41.83490385831965,13.822347802354443
0.312,-36.57034631003569,-33.33803355872658,-58.30419914042068,-34.205609007996145,-23.909722444646604,-17.169194471602395,-41.591952454102966,11.972769764016448
0.316,-32.971789067179884,-30.876489473810807,-55.69320068927732,-30.369236912640076,-21.050357737779336,-14.390336833887204,-40.67653257894017,12.870269995931721
0.32,-29.08261286493655,-27.75702102373066,-52.518086687769255,-26.14498534694235,-17.504486482241873,-10.848981248118207,-39.43543345381795,16.110149872785314
0.324,-26.2820915843306,-24.96705149893876,-49.70307153910062,-22.937895781423776,-14.390245216692279,-7.791944243427906,-38.34976897204024,20.339127722268813
0.328,-25.60259467096739,-23.39905849347474,-48.066128975322954,-21.750514149141395,-12.712504676866274,-6.173206947602921,-37.794517165858,23.95046802428442
0.332,-27.202906231811312,-23.42127426961622,-47.91747556222822,-22.717589081871324,-12.899019078638958,-6.213151676557345,-37.838289858141025,25.830539633844637
0.336,-30.276036907692287,-24.675714625201863,-48.872703821816685,-25.033653459745892,-14.61382775334232,-7.326473045013472,-38.196742065081025,25.78337717318709
0.34,-33.47185121797065,-26.25428763860225,-50.0459067540221,-27.351633939249155,-16.96041129318064,-8.480585719131568,-38.389705316137906,24.46272295634185
0.34400000000000003,-35.62039682525153,-27.196092859243436,-50.557389705641754,-28.487022785507747,-18.959655102998795,-8.796289302075365,-38.0254134806205,22.920360930275592
0.34800000000000003,-36.261660154502124,-26.971983449197296,-49.97280396715496,-27.989786086697563,-19.99499345325296,-8.026798986060157,-36.990913020596054,22.038803022127922
0.352,-35.678493474937966,-25.674619403905922,-48.40759697994315,-26.280192014272757,-19.98662869708528,-6.655060579870906,-35.43361088544532,22.136300478552585
0.356,-34.506548049933144,-23.862934574479254,-46.31915186970832,-24.33027794978875,-19.25170583259228,-5.555322177107428,-33.60392335465281,22.93420131539824
0.36,-33.26036877045749,-22.217181306506404,-44.21854807449108,-23.133808444788883,-18.214477511944324,-5.443544531016869,-31.71986894384304,23.848430631917154
0.364,-32.10229035305326,-21.222605550982166,-42.50932720993387,-23.27009333698811,-17.171637708659546,-6.449914555049645,-29.948163069726206,24.402068828780784
0.368,-30.911107598349417,-20.98963917224637,-41.426674161120445,-24.712769607769133,-16.23090063404129,-8.053591414382709,-28.43378226001414,24.452350533583967
0.372,-29.508272265207324,-21.23568916646525,-40.99621854170596,-26.895255466911067,-15.401138729925151,-9.404335751905137,-27.2837313192274,24.112637354192202
0.376,-27.874058245522065,-21.427323553398196,-41.01343895688365,-28.976167461983323,-14.728442130124677,-9.831305644056329,-26.50523373578403,23.512338763568778
0.38,-26.237776748766805,-21.043699755754687,-41.113705109010425,-30.204432903392217,-14.372869400155878,-9.245852186000548,-25.975211179647204,22.61528503901468
0.384,-25.021669328055054,-19.8634577028173,-40.966322240868976,-30.246829448208018,-14.568999653683477,-8.199059862902459,-25.50578366618288,21.2673470788925
0.388,-24.612630224789882,-18.085619908903936,-40.42461077430585,-29.294264277672937,-15.460808744256155,-7.535794974739474,-24.93245769381224,19.404485992204854
0.392,-25.07615221606602,-16.21322252641255,-39.534262191451944,-27.899942418539467,-16.915810191550918,-7.865189128378006,-24.16244783535467,17.229944466919278
0.396,-26.022557991194617,-14.794915357921582,-38.44278879025592,-26.663048834011988,-18.46478511216901,-9.15837913667474,-23.181378833862937,15.223626163685822
0.4,-26.75797639813186,-14.189022206550703,-37.32223494077812,-25.96085134497889,-19.45873143696417,-10.743717811643137,-22.05494023776646,13.943436013734072
0.404,-26.657716996473027,-14.462228466964575,-36.3612365141596,-25.846375997007954,-19.372744524891004,-11.705667629843902,-20.93680756592039,13.758808769681309
0.40800000000000003,-25.48418817420361,-15.380463625778589,-35.70790562424577,-26.06986152733407,-18.059905662169058,-11.412720538296071,-20.013240576345197,14.65406223335549
0.41200000000000003,-23.434428216176684,-16.44912391444234,-35.33038945103908,-26.174255640522688,-15.796622673591173,-9.853537528550532,-19.393650803120863,16.20242251245554
0.41600000000000004,-20.950974341993856,-17.026818673113212,-34.93145694227496,-25.657407141789008,-13.115353117916811,-7.610581991131312,-19.04016842786791,17.73950915334808
0.42,-18.47410990197227,-16.546946045275945,-34.071946993139136,-24.18649807420934,-10.559600047375397,-5.516200514328375,-18.8223503784925,18.634250431715827
0.424,-16.32658211757189,-14.819920856482895,-32.513457831512824,-21.81695944251669,-8.51116091159065,-4.2240974605660995,-18.69249738003282,18.519945402767462
0.428,-14.715049187752811,-12.22702770476053,-30.507665347575085,-19.053918568562267,-7.146147843075141,-3.947205466521609,-18.821307371662897,17.336626168275416
0.432,-13.751485447555865,-9.640957135733288,-28.77115238465467,-16.6554678950356,-6.4857806718414395,-4.468938082639397,-19.543272682778934,15.203436728372026
0.436,-13.455592785126896,-8.088964436585911,-28.13586624043114,-15.271072312698152,-6.483823664004149,-5.3600464483938595,-21.135739865679398,12.26555309159221
0.44,-13.741636079982527,-8.313062203690379,-29.088399546985784,-15.124988917382325,-7.0917812263796804,-6.2490438998320315,-23.5798632172,8.65594875008378
0.444,-14.435214585032554,-10.45626220581994,-31.49103441514876,-15.941441650407569,-8.273749057902933,-6.969238793129989,-26.481746018445392,4.623994260957261
0.448,-15.287543756256468,-13.988604185559325,-34.59075066958826,-17.120736929460463,-9.968045051588206,-7.517451091152907,-29.181324911370666,0.6640417620778862
0.452,-15.98225300799038,-17.892098060323633,-37.289987914553194,-18.047826252781306,-12.034701860434325,-7.89611561677566,-30.983425842109227,-2.525628432690837
0.456,-16.184958098078482,-21.05297763608428,-38.586981031902724,-18.383954902989444,-14.246222161032165,-7.990373513953273,-31.426892967573167,-4.2921244537023995
0.46,-15.667151059685693,-22.706864243230484,-38.02065356810226,-18.202504050837888,-16.345997962833053,-7.60742695508452,-30.466558999062727,-4.34961963902856
0.464,-14.476656380472036,-22.75277003496808,-35.93074694238703,-17.921815334634857,-18.14412656949412,-6.657744892725987,-28.506915764440237,-2.9583454585199433
0.468,-12.98091269098461,-21.73282280529429,-33.31010360343066,-18.026368730187187,-19.56506583029409,-5.31860444350923,-26.22069034412084,-0.8476158059781937
0.47200000000000003,-11.692471148779418,-20.468947212746116,-31.275998880588986,-18.708828504711846,-20.593109734995778,-4.024221272313298,-24.205445004433386,1.0987969176392198
0.47600000000000003,-10.984995098584818,-19.58713117161801,-30.475735944955204,-19.67638575463002,-21.162271925896448,-3.25844407113982,-22.69290650394555,2.248585930032732
0.48,-10.899668611279367,-19.23342536434552,-30.81474136226643,-20.28952699031538,-21.12110724241188,-3.29018979499142,-21.50656771535182,2.4956112696554555
0.484,-11.17706127894337,-19.14456021183173,-31.678875515334312,-19.97525854745163,-20.320986377646705,-4.016378806353259,-20.299230732337264,2.272689178060091
0.488,-11.44762152006274,-18.956234993506314,-32.41818005449022,-18.62370264924175,-18.77191953663373,-5.011488172931422,-18.881239391800136,2.2497735196780013
0.492,-11.427155155567561,-18.488244869342452,-32.727357047531086,-16.68534973988676,-16.74510696216248,-5.759339013015506,-17.386210353011847,2.888772949044096
0.496,-11.033104532118955,-17.834754176111346,-32.72096255972997,-14.910826895021955,-14.740494057678916,-5.934717851193909,-16.187009820440835,4.1327053620500465
0.5,-10.400720246498167,-17.24591174034458,-32.72894324363119,-13.911016899986635,-13.315287501798366,-5.581291358574617,-15.647585946014487,5.412150314278733
0.504,-9.82705624687037,-16.918597225224744,-33.01230159860188,-13.82458812160985,-12.843930872577175,-5.085737840861384,-15.888381187038704,5.987879295778839
0.508,-9.615273913003648,-16.808192224751565,-33.52993728210026,-14.247248988131787,-13.297771894010339,-4.950325477175056,-16.672685467408883,5.403045954631125
0.512,-9.873159005203888,-16.577926886527393,-33.86648282555325,-14.440023677235104,-14.161569372206259,-5.493106431855949,-17.46197487522636,3.7554455448314457
0.516,-10.382076866075977,-15.731325743327375,-33.37395995646443,-13.695955262135385,-14.55490401382076,-6.637128249479474,-17.619883674365838,1.6644081573149379
0.52,-10.622703708202494,-13.850761414959152,-31.472453379644094,-11.665308682491741,-13.538293682243193,-7.904089044498505,-16.661166931263324,-0.009976023901344888
0.524,-10.00907985450499,-10.832688039987033,-27.98270558740296,-8.508255397820449,-10.511166664017765,-8.621801613261823,-14.4542831154954,-0.5216976186236479
0.528,-8.201249045298823,-6.969691458410239,-23.27499267497319,-4.803845717733566,-5.533908137778553,-8.246380010223902,-11.275818156455898,0.46268460473606865
0.532,-5.310633884366553,-2.8202016864258894,-18.132057921248816,-1.2792095706063265,0.5844312148858535,-6.640992857843003,-7.689243547194337,2.715877665277503
0.536,-1.943942444497111,0.9957502270215173,-13.470691776113426,1.4322799439123628,6.460257891440733,-4.19073637034171,-4.381508967837362,5.482912400343594
0.54,0.9038767915734525,3.902038578392535,-10.143200992014727,2.84656299006042,10.482803581510552,-1.7363088885163052,-2.0894822399022814,7.643006373283242
0.544,2.0636761446625087,5.320896526694241,-8.916394486399213,2.5162493184290042,11.225960846379394,-0.35440079783620604,-1.6164999812906444,7.983086763427536
0.548,0.5355860213217056,4.639782836382096,-10.460128326301401,-0.023554546660648157,7.8529158754597574,-1.0064622664758645,-3.7686316724948483,5.535386261223721
0.552,-4.091714758999501,1.359412811917764,-15.160740669057304,-5.0715829326189805,0.44005429145249764,-4.14490323705445,-9.067622062580313,-0.07295009827680587
0.556,-11.318339229506137,-4.556717885947023,-22.767909136211983,-12.380113684611388,-9.873336164991542,-9.42003694372147,-17.297055798042265,-8.323649543621741
0.56,-19.689060999753337,-12.316374387966675,-32.09655403557235,-20.83582695700113,-21.008656655945288,-15.631909590032592,-27.147470417360637,-17.702118432223642
0.5640000000000001,-27.175601961412895,-20.24345185413324,-41.09920453526274,-28.538642307482405,-30.41153380276728,-21.028616298926863,-36.297273349884335,-25.922750667579066
0.5680000000000001,-31.83304806978481,-26.159454923621183,-47.36300267044135,-33.344131339114824,-35.75331173317181,-23.876603077357004,-42.02333366202811,-30.55586927575314
0.5720000000000001,-32.44862878886033,-28.10839606120021,-48.882084473140594,-33.666930741708484,-35.64538529487754,-23.09912696436595,-42.15215239600434,-29.903379307985915
0.5760000000000001,-28.950717703487726,-25.16281096158275,-44.838572798255655,-29.19278287453153,-30.122902740837276,-18.70800865838646,-35.994723917855026,-23.76107803247828
0.58,-22.41233899370377,-17.913395505739118,-36.03757075946169,-21.114238170369163,-20.683936332753092,-11.822054255365856,-24.808467846051826,-13.655488774523292
0.584,-14.661250478424336,-8.358341202821293,-24.76470619538145,-11.719714709853747,-9.816790337397833,-4.241122091349325,-11.49191986421647,-2.323898816889823
0.588,-7.609197600640755,0.8598507556733921,-13.993806687312599,-3.4492570411507586,-0.1380847051428873,2.2658738842085313,0.4656008793529054,7.366219767966413
0.592,-2.5599636405077035,7.5533420849130835,-6.224450367857116,2.1409224685156687,6.5296958223043475,6.629562642848896,8.349731552294315,13.544141209011741
0.596,0.18062297367077917,10.858592238914639,-2.508436580556463,4.963940795798749,9.736101962176463,8.800042645304302,11.250922395072394,15.971189432719939
0.6,1.2017145931542927,11.408784879207133,-2.1700727642988795,6.20883350100371,10.356988424476754,9.552529816871129,10.229706180016592,15.876995096489509
0.604,1.4459289753386884,10.71824098813238,-3.3865883662431315,7.462343593969194,9.94832545487202,9.899765918270987,7.536734168952307,15.121584607780278
0.608,1.5802881097705495,10.186716657002421,-4.249824990318757,9.68206162740023,9.849673881428998,10.476185883137987,5.356657809541275,15.137338356101282
0.612,1.6604750179111534,10.341262298864649,-3.6947785542504334,12.639284339307324,10.520299907960862,11.227199749046804,4.782124053612961,16.21733312736569
0.616,1.2518942814793377,10.731133978017965,-1.8459466728461393,15.134855124248816,11.441141217569907,11.561496823839661,5.526458774804041,17.5304450601418
0.62,-0.10979731556426486,10.475527543429394,0.3148155995193065,15.82527775453525,11.593117314914025,10.850174722107568,6.43706156245662,17.815661578481695
0.624,-2.4763938920418127,9.029854304648097,1.6389753624235937,14.107873089521263,10.18158866416104,8.921141485230692,6.39313002522772,16.301276077496595
0.628,-5.313331579388773,6.676803627527761,1.4752883122549747,10.551111540336137,7.18375502762899,6.256239250831186,5.037598751459768,13.255331482394695
0.632,-7.693540850959835,4.425062233131484,-0.028965526875254,6.626438491431031,3.4043166536646368,3.7826978803050224,2.935718538423771,9.817380676799075
0.636,-8.77017657132734,3.3684495911059003,-2.1124770279848235,3.904049399138671,0.027983208966475104,2.3963183223154374,1.1141140334902957,7.256928831167443
0.64,-8.253439786690876,3.9209230355348836,-3.9152336900144746,3.1908225832953576,-2.0549203584509996,2.4949032081060523,0.31636037973794373,6.156395263776403
0.644,-6.631366040290629,5.420038554785947,-5.019882388174665,4.099505395698088,-2.7444323868777474,3.791462383967655,0.46316575357388956,6.062371944747838
0.648,-4.945784668242538,6.432511940729228,-5.626783157961881,5.339022464849677,-2.713986995932032,5.516682456543549,0.7053181766874559,5.836858313388348
0.652,-4.212246381526882,5.630026119990589,-6.263019965044123,5.5539182868188846,-2.8964030124137707,6.871606811510901,0.052835043454024344,4.463373963783056
0.656,-4.8419599199312415,2.6793088461898833,-7.286142635022202,4.182960622947462,-3.823255929569086,7.439833240688586,-1.8753064485302957,1.7868511199459363
0.66,-6.429321704781557,-1.443196958220824,-8.557103543328822,1.79317205825771,-5.25928457509508,7.318780014547883,-4.505087337109785,-1.3108304952941126
0.664,-8.065913883333565,-4.975582538780486,-9.555179391710112,-0.3361016377399437,-6.381804516083321,6.9146607840068555,-6.638254262451255,-3.4067191710227007
0.668,-8.95151456511769,-6.407426869016945,-9.802286393858367,-1.0764462884908426,-6.3720984327853785,6.575639266727649,-7.2331010939745966,-3.4154058677984267
0.672,-8.887790558093457,-5.374931610479052,-9.24942577028105,-0.1851464280205164,-5.011654439496056,6.325423429321518,-6.106685246473148,-1.3129212034123157
0.676,-8.352282044622996,-2.8655863307182017,-8.346566084905135,1.5414114256672065,-2.882047248831782,5.864605792245584,-4.095741870447,1.7737441665838105
0.68,-8.110712135241272,-0.5966348943019852,-7.739474002456745,2.7826807332936596,-1.0265399516466687,4.814440922875633,-2.5486822848955626,4.18524405351684
0.684,-8.652227945516927,0.030658803380617883,-7.834870084789145,2.524980696679677,-0.2977393262073065,3.030728470868212,-2.483468393111025,4.70413198506526
0.6880000000000001,-9.787159770125413,-1.2191902654593036,-8.493118008230567,0.7039392934278794,-0.8020305919256998,0.7741991889344035,-3.9260195294122013,3.2697133413491883
0.6920000000000001,-10.666517553939173,-3.269629209200673,-9.055241649029654,-1.737425714717915,-1.8111278372641664,-1.3843288906841735,-5.838864609629013,0.9821935493463343
0.6960000000000001,-10.25704970604761,-4.392176891295151,-8.731578273059881,-3.4182643052811272,-2.2198386578079408,-2.8513676460863735,-6.715376235732606,-0.5957041773484661
0.7000000000000001,-8.00154808448599,-3.2721296328339236,-7.122844447908847,-3.3696869659012236,-1.2689843974492305,-3.3070782355584925,-5.493617964537179,-0.4012975740656657
0.704,-4.285309003146551,0.14938806318752995,-4.571696449620163,-1.6584342646881396,0.9222004666686416,-2.8452564570601453,-2.2488412325992613,1.520311803784466
0.708,-0.37202686542025276,4.586212066947553,-2.0650972417352023,0.6241341024284566,3.3748910317001446,-1.8697217344226829,1.7812115596017293,4.102970084944445
0.712,2.213296464315988,8.135521858581,-0.6889207664800097,2.0212312243537554,4.831877015530949,-0.8326024176167266,4.871459440426065,5.948259314787151
0.716,2.5155812782340377,9.37342901110219,-0.9553716125217306,1.614486794883078,4.549843962664795,0.016090785635128668,5.780976972147528,6.188814260167192
0.72,0.7243068409056264,8.159065046425496,-2.430381880738196,-0.3731231679028042,2.80608119518854,0.7135281196732421,4.441516993877599,4.995666465012164
0.724,-1.8872802878964308,5.652344920427595,-3.955590944459118,-2.6699118466386835,0.7721640016436595,1.4664512415170066,1.925472574912419,3.4427600110911953
0.728,-3.628283173843272,3.5769447622994903,-4.322165531528867,-3.6828049193883885,-0.16896297128187143,2.4379399908109463,-0.23575575122947612,2.824770819669993
0.732,-3.2665903006171675,3.2184259873767473,-2.968975243256864,-2.4118396039567074,0.7590881068211957,3.58977894385157,-0.9338539174601692,3.8473414640670853
0.736,-0.652138146136906,4.750073578758872,-0.3020972175248744,0.972004439358443,3.2633588669480105,4.69003311631036,-0.04951946923631567,6.179044546048772
0.74,3.2295310728319464,7.239239750922081,2.5344781587135685,5.1823121636409155,6.144461878704931,5.453447354234072,1.6036170715369735,8.600977268163547
0.744,6.7438480678934525,9.241017587995543,4.245146811378959,8.426194433003332,7.9578352103732755,5.678093068782005,2.839405051314202,9.654442087413372
0.748,8.377302323174035,9.606993100168381,4.018070877328341,9.23669415093218,7.786696136485318,5.303363833362027,2.8015944365175756,8.388928670086557
0.752,7.418013700909967,8.056047425152883,1.889483034152022,7.101448511746241,5.69068981590101,4.373903052091464,1.4058056399086354,4.783647250870217
0.756,4.226187735207304,5.218991801923323,-1.3419900454172193,2.604162234298599,2.606262152334523,2.970901954661599,-0.7073953075127974,-0.3181932777267775
0.76,0.008992603325054915,2.2086566904121696,-4.564082672839618,-2.9255898482352904,-0.20580363638669041,1.189570497195632,-2.6278273655357225,-5.654920507164434
0.764,-3.7712050121024276,4.491784829951939e-05,-6.932376570227518,-8.040035044419767,-1.8350609486553822,-0.814384195833668,-3.745686475906041,-10.07102884613721
0.768,-6.018178424023347,-0.9990887590147963,-8.22739402527884,-11.722437764299798,-2.127690637948376,-2.7544514161590996,-4.06532898949024,-12.87485056734522
0.772,-6.34149270137209,-0.9701562735144762,-8.795463761256258,-13.606155565752601,-1.6301718594202157,-4.207834339722126,-4.09139436074031,-13.930943363895494
0.776,-5.050608133393752,-0.39909238952543546,-9.196433828604029,-13.874383720354672,-1.1827681751803425,-4.751681828682422,-4.434823724980674,-13.565927356521001
0.78,-2.893110608766989,0.26892647014614113,-9.803728330874776,-13.00173994774542,-1.437901557193186,-4.2028866051549585,-5.418246761541695,-12.404772111516309
0.784,-0.7542906755516583,0.782936369928791,-10.646039042379755,-11.55525980459305,-2.58986255846861,-2.831289194581359,-6.958931903716973,-11.201822106489772
0.788,0.5697730541916997,1.0222773161663667,-11.518649860728374,-10.109796534770396,-4.400479299558697,-1.3596101501428848,-8.751719429311095,-10.679579807997357
0.792,0.5434124264770333,0.8794316821515054,-12.200061094432215,-9.190425028378343,-6.404682022841371,-0.6642388497155025,-10.544032731914001,-11.339628277794077
0.796,-0.9830639294737296,0.24587918981666235,-12.6000815128059,-9.163015933370957,-8.120882287383154,-1.300760206834525,-12.281401104840825,-13.251831798594367
0.8,-3.70124960119162,-0.8677539968650194,-12.747768458576218,-10.07812960773225,-9.166143103477793,-3.134318989469648,-14.032335520988738,-15.939749801106245
0.804,-6.897938938500033,-2.2125435647670315,-12.70745114780027,-11.591141874053733,-9.29224431173094,-5.319131700763478,-15.78939932849886,-18.47261297247269
0.808,-9.637507893551458,-3.3022257960543584,-12.489901969123991,-13.039548058072114,-8.395994426901666,-6.685479468997187,-17.313818340093178,-19.8065058654704
0.812,-11.04647584294105,-3.589252913790517,-12.024674588975302,-13.698922773015681,-6.561549611039538,-6.36116401578056,-18.157166419108535,-19.276640417081126
0.8160000000000001,-10.63323169634387,-2.7580349769353347,-11.219349944718317,-13.13696321572661,-4.118247976130988,-4.278877719494744,-17.879008249482354,-16.987004535019423
0.8200000000000001,-8.490490989482652,-0.9388602813214106,-10.039488458358676,-11.46897647273039,-1.6213180166336087,-1.2662767237777643,-16.32612161656931,-13.835874081614179
0.8240000000000001,-5.306303217637719,1.2824319704411664,-8.585510471531279,-9.373323305759925,0.2870239324512909,1.3535272808938998,-13.810449124204922,-11.106154173104642
0.8280000000000001,-2.121197977756765,3.11904720030617,-7.065077406404214,-7.795716737684302,1.1370385508474214,2.463368874869502,-11.024811486569035,-9.807425670040061
0.8320000000000001,0.08744630005332965,3.976728021068652,-5.67232966613858,-7.482118720510414,0.8762192880736279,1.7542745982723318,-8.721532665644816,-10.155509179189096
0.836,0.8012338656608335,3.7538006714222547,-4.462104717862587,-8.585646201242525,-0.05467951418626171,-0.10754566451839764,-7.329587411096668,-11.476531607655943
0.84,0.15159877721185921,2.8679803816200433,-3.304321066346688,-10.56940352786495,-0.8968010977616814,-1.8369846937505372,-6.732347337052431,-12.599128634372562
0.844,-1.2189498374156074,1.9685119013785197,-1.9980713991151902,-12.50171562727013,-0.9480244166866783,-2.222429666995822,-6.366796394408482,-12.508955055605327
0.848,-2.520311389786457,1.5325436631757157,-0.44609549422091277,-13.563717900538165,0.06956110622292044,-0.7650017345025617,-5.568894088744571,-10.88975237888161
0.852,-3.1720350928334824,1.6202237401602133,1.2614844471385709,-13.446975791514319,1.8706467391829733,2.0999881505010762,-3.9343011627610167,-8.25009675659328
0.856,-2.989597493961071,1.9139054469971484,2.903234105170327,-12.431059046539417,3.7766969006868294,5.297727163656646,-1.5138923691245054,-5.58495616280652
0.86,-2.135382124365833,1.9943375932391518,4.279427705355658,-11.115860282676806,5.091175525082122,7.71682689042791,1.2474024303237456,-3.805854275770173
0.864,-0.945061291177069,1.6261973019452682,5.305059407610372,-10.015083915457296,5.444988566285872,8.758972265467378,3.744855632250676,-3.276703155897053
0.868,0.2508619408128254,0.8648726386403496,5.991822273889966,-9.26652742384448,4.926502524708269,8.547854122509477,5.474018383891348,-3.7299218069044855
0.872,1.2252948336171414,-0.054859387561464246,6.357903150687832,-8.621249398567386,3.946114357593956,7.716276762154791,6.196000632850371,-4.579121558753229
0.876,1.8600036219297067,-0.9342935942136705,6.3550139536341135,-7.684646093522019,2.9597245113676536,6.957482419751557,5.968898906028528,-5.360262896045583
0.88,2.1258160903730072,-1.7385503415830499,5.906267718041704,-6.217682466691201,2.242117354482616,6.65029263088627,5.084185628856744,-5.99577540791006
0.884,2.057629586724346,-2.561265831753502,5.0030296567461505,-4.324130148309223,1.8168807854686975,6.740384394014541,3.9394972194793354,-6.701287961202354
0.888,1.7634264056551103,-3.4420672072648415,3.8076280809332843,-2.391169192317733,1.5565392805576153,6.9146007451148535,2.9196282856045173,-7.6213709009081185
0.892,1.4533307951610084,-4.178988181921312,2.6803992918797235,-0.8254924824092882,1.3443040298208189,6.891898910253303,2.3260359769742536,-8.497853104008016
0.896,1.4027044420687105,-4.32682898320644,2.054283633362843,0.21136283698933767,1.1590125655952193,6.617794422369968,2.318654113536809,-8.645120524275683
0.9,1.843214377776178,-3.4109723723623233,2.22116726772947,0.8948656908382873,1.039648511077985,6.256263585471515,2.870724296148069,-7.301541852256548
0.904,2.806187056533446,-1.2598439072403949,3.1268887224767923,1.5800772641978824,0.9791492333472434,6.012413255083516,3.7479206456819156,-4.1432267345644505
0.908,4.031825720013103,1.7723863090163263,4.337016326558228,2.515510212428694,0.8712469541405881,5.941971795555901,4.568275049060446,0.3609632362094999
0.912,5.066007616760601,4.891425265064754,5.25361021478318,3.642850696745768,0.5880467841788004,5.910427472301876,4.971701632618192,5.00531892756328
0.916,5.525948210835907,7.242671041026824,5.4785989271985045,4.640495717854037,0.15048903684305515,5.733819105190605,4.842149293730927,8.350766072586566
0.92,5.374190751820606,8.355132306141513,5.0898348678242655,5.162352806279614,-0.16811348457548547,5.365927916323471,4.4408812449484,9.38449028178593
0.924,4.981725038645038,8.350190677415412,4.5972923943394335,5.077750550773544,0.05795578675827073,4.965990385828832,4.312352197991686,7.998647679908231
0.928,4.925340088920223,7.791696784026499,4.597527783278792,4.563501042761118,1.1296594879257782,4.800218985757965,4.977667075763748,5.033818495893911
0.932,5.627893052761067,7.282091034718519,5.352432579766173,3.988617811532265,2.934916010281995,5.0342133879019,6.586450323684403,1.84815110071645
0.936,7.047359055178049,7.064665510918644,6.563373828329077,3.6770440910969455,4.866245447274196,5.576332067544627,8.732889126704094,-0.3340262870087827
0.9400000000000001,8.649734030212699,6.9120575955267896,7.5242752269488165,3.725582472348151,6.0623269794756425,6.095130681371984,10.58682708953495,-0.9553421707689722
0.9440000000000001,9.681122338156342,6.342181863345331,7.541751263656238,3.973362239247649,5.860266919448577,6.209942561122034,11.286812000833265,-0.2805015988055857
0.9480000000000001,9.598147172569384,5.01589804546029,6.380735297024785,4.141009608312515,4.216207679649187,5.730234401607049,10.403640412014738,0.8673833773360684
0.9520000000000001,8.414925372154698,3.0519703871011643,4.457143743270763,4.033928239492525,1.814727626704098,4.775898914445861,8.220631876602056,1.585365666190114
0.9560000000000001,6.716107857981342,1.0106842468493369,2.620653181270768,3.6424341811423346,-0.2514286925431861,3.6849573973668157,5.635077607929588,1.3020248414698017
0.96,5.321748480359872,-0.442960838541012,1.6623805490389714,3.086594920329844,-1.070290042797751,2.767274292899401,3.7229179530913825,-0.06465812323972386
0.964,4.769595899598471,-0.9929648252286825,1.8126622359418434,2.4435052101948713,-0.4413981573463843,2.079761852976617,3.183304687659529,-2.1939140730214604
0.968,4.940954153912912,-0.9285746169097138,2.5594588749484046,1.6214388595421951,0.9799972899165823,1.391942465349075,3.9761233776425797,-4.588139861194122
0.972,5.111466403463169,-0.9797567521534347,2.952781396871046,0.42830803015795027,2.0565090634726175,0.378326831603772,5.389108571754605,-6.790299703980054
0.976,4.431307428898094,-1.8017185378141676,2.2346400714071706,-1.179608151225466,1.8705534176785932,-1.0775010656709583,6.504008250147763,-8.47816138062717
0.98,2.5641189294046853,-3.4292265824923334,0.42192058177897707,-2.8391683720526544,0.3453392987252073,-2.678749774928292,6.7880871887255125,-9.455686866272117
0.984,0.038529581443867755,-5.105235233774238,-1.5825955662685374,-3.7732059282411683,-1.612923996696395,-3.7929134499049724,6.423969238993777,-9.613183307217696
0.988,-1.9406732080642541,-5.6433598160372185,-2.448790485041627,-3.1188083686110986,-2.56125928974825,-3.790598634950129,6.183581441950537,-8.915319354223811
0.992,-2.132153578697171,-4.1278688193058315,-1.1805506840323687,-0.4347823450824535,-1.3120665618453131,-2.442768161906315,6.929396687655753,-7.434234947786763
0.996,-0.005664133014079198,-0.5479353861957179,2.2588517862727713,3.9107484462256252,2.3759387296436216,-0.12183320496797023,9.04443228273658,-5.3806385870536815
1.0,3.8664606816307696,4.054194926078253,6.864934513210301,8.761594191973245,7.612054068939642,2.338773605770257,12.155256922012995,-3.0941242741118913
1.004,8.007809248158537,8.034728615275071,11.081630220234956,12.642893111745366,12.795462224836683,4.054860528548943,15.2956513390277,-0.9575070485798278
1.008,10.754549955981247,9.973785538063112,13.601200015263203,14.466763917551816,16.41838809171736,4.540664404880317,17.419386688693976,0.7298270105256961
1.012,11.115993635652671,9.420035333815349,14.032069437455903,14.088741665462294,17.79485773522015,3.926901936275044,17.960304439186302,1.8255182444227103
1.016,9.302518191813533,7.131943812734335,13.062284623997357,12.390178195389126,17.332770593462556,2.8344697443069435,17.11558684091733,2.3423586826920655
1.02,6.634775138888699,4.679049231846534,12.043814491703188,10.819732691430772,16.223588134854936,1.9828658380401976,15.697623276915238,2.3731061295243308
1.024,4.842848314047501,3.598567260343316,12.202559679124533,10.605231671342153,15.733916958171903,1.762345418647783,14.638692298522074,2.01886702200909
1.028,5.150637373510108,4.590794499287767,13.93491087398479,12.088260609903273,16.51328917257956,2.0435814129177743,14.462380830059828,1.3839028359868735
1.032,7.654462783295912,7.208267364026142,16.595921902973714,14.562690768544144,18.293825745858612,2.313766152043627,15.040215927747795,0.6201419267831625
1.036,11.32129165851245,10.183528863156425,18.878995432425427,16.700595976693876,20.117776115724155,2.044006327513671,15.75359566292309,-0.03011308453528727
1.04,14.585717419437742,12.182527072901394,19.56968535576857,17.320905374987433,20.92225933689042,1.0588544390529933,15.948496406978848,-0.27391187728744626
1.044,16.16205420188112,12.511774531555602,18.194618054345483,16.02473749574642,20.117374279527667,-0.34300511784522314,15.339502427481193,0.10799342731024808
1.048,15.630109894919087,11.394979357641205,15.22400303417976,13.346454715988784,17.853672141444576,-1.5750497107137562,14.125780328148721,1.1166949386624765
1.052,13.530735883869397,9.721700737131641,11.772778055039907,10.381729534079113,14.883223381127209,-2.121555378957055,12.789581796523635,2.459754147962485
1.056,10.970468268101172,8.46548500602853,9.005978834463576,8.141002143848937,12.143781096528528,-1.8425369440301438,11.729513373183863,3.621398300584133
1.06,9.027633222150484,8.163538580269233,7.621791041530514,7.043885745388707,10.332538484710312,-1.032480439464507,11.011881563922088,4.065743774020575
1.064,8.271255673420683,8.725073332309648,7.641523478371482,6.818562197639039,9.680271126414482,-0.2211664673945961,10.388074309796139,3.5082596154038583
1.068,8.625115359689516,9.633676170297576,8.575196268790478,6.8288718023659385,10.003914264725609,0.1496604214648869,9.560613724825998,2.119384847978381
1.072,9.587487159715238,10.361460900271823,9.808302317409925,6.5734269334911914,10.929034283186638,-0.03103646174304231,8.492891179848357,0.509645171503962
1.076,10.602077450332217,10.695731306437665,10.945644525597345,6.01475487633661,12.112180736367236,-0.5188263956565606,7.5315929325729485,-0.5088346195493614
1.08,11.357191731034618,10.797099804145091,11.945104852688019,5.551482397728705,13.339829674222074,-0.9059413457389383,7.249365544397278,-0.2936291960172639
1.084,11.844466398521718,10.976098264763323,12.979243652081095,5.667665798673397,14.48837388021957,-0.8992000105918123,8.07707562934138,1.3220935205467867
1.088,12.19036982100738,11.36993610221839,14.157303767734902,6.5129412743590365,15.419420298328532,-0.5079728872287887,9.967217151953719,3.931904922942522
1.092,12.449119487561802,11.786525133094301,15.345612667573732,7.727810787091357,15.939706150260463,-0.028517841798475274,12.342375859027925,6.713296862041261
1.096,12.514257976963336,11.825161417718391,16.213568990477143,8.645758282021916,15.88437256360794,0.15179687915542672,14.379690688590017,8.778721757534186
1.1,12.22277754694369,11.196043072004159,16.479753079584953,8.759884107938433,15.26482642032488,-0.20319033796113217,15.479220093237473,9.536387298120644
1.104,11.52428838761466,9.982827035408036,16.14548400354306,8.108930305908189,14.348250602429289,-1.0419551852264703,15.59012799131142,8.905764400532007
1.108,10.56808465265567,8.644115115667773,15.538715254553153,7.312831585034928,13.582150724826988,-2.0629297636901356,15.184639154709203,7.308568798356191
1.112,9.641165694215033,7.748014407043229,15.135350831669712,7.21771106418737,13.383895638773538,-2.89075384779062,14.902003146840343,5.445273054513109
1.116,8.981904137772062,7.601823595402266,15.262389016717862,8.360273409462025,13.913954477995048,-3.2707292165246145,15.086007308000262,3.9828883588852477
1.12,8.633750937557124,8.045062026426194,15.90119987720027,10.608293813526416,14.984211512361071,-3.157627291350309,15.542952761861216,3.2927566702996955
1.124,8.427778625421524,8.530106007070799,16.690196169178307,13.189736547840312,16.15561725927182,-2.6771633867447235,15.676823709674409,3.3613220716151773
1.1280000000000001,8.104022585964685,8.441295985292527,17.12034150265299,15.099041481496897,16.96560461369245,-2.022305587533083,14.91251668814948,3.8779443516882566
1.1320000000000001,7.514287503599689,7.467222646103437,16.823686559864655,15.649262832955174,17.152278318442313,-1.3628139474240015,13.146997827205723,4.423267924793436
1.1360000000000001,6.746980504593239,5.778041782824857,15.767632724711348,14.826538521384919,16.73587408598496,-0.8315701736064511,10.90749913043146,4.652954291611422
1.1400000000000001,6.091028505236636,3.913038138241518,14.267496266701983,13.256034481798906,15.918971577312277,-0.5654375833237282,9.112676862288936,4.3884330901341855
1.1440000000000001,5.823592881412196,2.4333764699072162,12.781352771067759,11.795219689595797,14.870991608717759,-0.7397347180703946,8.545333122645388,3.6116901370301093
1.1480000000000001,5.959826564433797,1.5717312349252097,11.62545963215689,11.01994590801496,13.570750124386905,-1.5224420992526575,9.358169499108953,2.4255352004006454
1.1520000000000001,6.171055950507025,1.1302055163027944,10.813361057606471,10.938189946072725,11.83924056673186,-2.9443521150997185,10.952425746431345,1.026634132590516
1.156,5.944969991534208,0.6825266575369824,10.107756216521466,11.089708115484882,9.553387475687941,-4.760611792165037,12.322385005521937,-0.29662526240281295
1.16,4.942143783560596,-0.035967816206266434,9.2755403163128,10.962616762662037,6.912005049774052,-6.423496091126253,12.680069848086077,-1.1832619512942983
1.164,3.2947770105720338,-0.8513109112914208,8.320371550777963,10.403645555991716,4.526113363706827,-7.253307657669211,11.945974666116854,-1.2744172637485462
1.168,1.6306738771288565,-1.2013708014778786,7.518921963098819,9.738896398095221,3.2095022142939342,-6.753665621266009,10.777676695823175,-0.35015737078083475
1.172,0.7747811407812151,-0.5012123340711696,7.2364145528667905,9.522987787249804,3.5398214826482217,-4.917559123346109,10.112953459606615,1.499120179863894
1.176,1.2640879489781582,1.3996423322437295,7.639155739972921,10.089580773519629,5.439503068568229,-2.335664057561189,10.514326784692912,3.79644027798804
1.18,3.0009652548965278,4.014532779078763,8.55055462372593,11.255385484876115,8.081452927315695,0.016889403448658413,11.763573618886312,5.793035359581154
1.184,5.260369495386158,6.427599965516947,9.545764294665787,12.392993074948208,10.243302992696044,1.2429609422088106,12.983121950404893,6.795383316394691
1.188,7.068580991197905,7.815318478270456,10.238484825243631,12.847218962202533,10.964340619979339,1.0063801583755776,13.225723637877309,6.571892880137057
1.192,7.755201686667078,7.975525549054055,10.578607526419546,12.425074035253147,10.13230858128145,-0.24539092609029467,12.155781898914938,5.583486665278542
1.196,7.334940981765612,7.5042440976030775,10.927950970152324,11.601435679800488,8.616692278065784,-1.478411047552072,10.348003093287844,4.8416881202756485
1.2,6.490209425448029,7.470339526734733,11.831629839526613,11.266085482800918,7.796219061680404,-1.6321019136657924,8.965171424732034,5.3677772913979425
1.204,6.102462740132523,8.711471859048743,13.545656102779503,12.095341700865902,8.667583313084833,-0.27359790226455516,8.924638871494608,7.491559595473518
1.208,6.591875364923908,11.15473942262679,15.603456236085549,13.92692191690503,11.033944742746826,2.0167779744433574,10.052055384855521,10.386188103942004
1.212,7.49973522512164,13.617197408449101,16.767970894997234,15.587552138967567,13.30489661475849,3.7812907369516324,10.832242383839912,12.169765003483008
1.216,7.613931911289001,14.281805348804028,15.504719249082882,15.369553621403611,13.13762143590975,3.3378790335245867,9.026658291270905,10.660043803251028
1.22,5.662202201150194,11.685994024260253,10.837715453695637,11.989617412673397,8.693300379467473,-0.3157659478692949,2.9479694154897516,4.496838255081457
1.224,1.1928914848017484,5.681142268545045,3.1192130604258637,5.500597838404246,-0.1463376629853883,-6.820294770130204,-7.298042932149656,-5.905197088953173
1.228,-4.899252300630906,-2.2099896938862003,-5.7735611887246705,-2.415665350421932,-11.312977743123156,-14.381735888940057,-19.367300353348583,-18.1143722878287
1.232,-10.549796905155745,-9.286749418104137,-13.002470272725986,-9.005482419958753,-21.185792667025453,-20.400754311276614,-29.386610125429797,-28.395341167022707
1.236,-13.390568721489672,-12.827078170682398,-15.901961625246258,-11.626885917493382,-26.09854254746824,-22.549073833093644,-33.56733379549405,-33.137952829176356
1.24,-11.872718838149922,-11.326381686944842,-13.135855856914532,-8.959171189033441,-23.997781413721896,-19.782253680324175,-29.928057285816067,-30.386909497512534
1.244,-6.080177423490568,-5.201225237889048,-5.324944528852939,-1.6324194760868522,-15.420833589682843,-12.807661115018163,-19.25859779840266,-20.72835297130314
1.248,2.202875112107904,3.384031078760927,5.1626255274295545,8.038449362954452,-3.2897787840265664,-3.7874812060308614,-4.830471429639147,-7.084724250586078
1.252,10.258198564014492,11.49652555588409,15.190263661940662,17.081837581687978,8.391008965247238,4.588287933916035,9.033026789999894,6.497577808315327
1.256,15.637766545079103,16.712573452952256,22.127531362244554,23.12688679398616,16.280789753926,10.213084381653971,18.804334422053216,16.505640456635774
1.26,17.2152944189761,18.076151103961365,24.840832812503322,25.279723682639997,19.02543046221217,12.33919398488979,23.110235012502017,21.24773134246152
1.264,15.550569161809108,16.288667718568377,23.92967548557317,24.220969078916823,17.536479654958384,11.669783150565308,22.946024948172635,21.221601873693544
1.268,12.403251817476303,13.106478861233427,21.151465236727745,21.572014533856418,14.187790081749881,9.776923991185868,20.73434366453148,18.476224915077182
1.272,9.721788390919755,10.339265794478251,18.41179175794423,18.959008459426514,11.449347993497213,8.192143364295589,18.83502027222312,15.36575507402631
1.276,8.66812883108878,8.99894427893787,16.86718671649942,17.294224366942217,10.717810285522319,7.668046010920989,18.337699755415088,13.388112251977873
1.28,9.202876155195554,9.025623885609548,16.588295312257287,16.612686812071843,11.917379674338918,7.966108560805878,18.7641772905572,12.664399664879966
1.284,10.3710460045736,9.626538605872156,16.843734286036124,16.418617559904305,13.94414245076041,8.221813225327423,18.717217209224145,12.254406889924212
1.288,11.022549876764515,9.924595182633766,16.725371529732,16.208648822556825,15.552690616040309,7.616978283969729,16.971451815120417,11.016796380307824
1.292,10.515252024532401,9.50325763132605,15.717290389559821,15.809835119867785,16.093265106703257,5.927662788923044,13.326715859851902,8.447978868050996
1.296,9.00185207013783,8.545762172861032,13.903325176171165,15.359040169272703,15.695078721021673,3.6521165027315874,8.742801953920207,5.038310306650601
1.3,7.211809662763699,7.574599188834327,11.795358103803665,15.028664579145698,14.90010252306638,1.6810800211078458,4.755665981640959,1.9737982147935327
1.304,5.898657842309603,6.9950087727957,9.926627998015647,14.73484518765872,14.073333133018423,0.7340897020876582,2.57137191007223,0.4246897164730399
1.308,5.331405941158209,6.759971719225177,8.499211316840956,14.074715574837683,13.04464204132637,0.9285571796717704,2.4003654596690467,0.8910143339589922
1.312,5.1530968437155025,6.380391910199251,7.316188092765515,12.558284305361667,11.235941299873048,1.7350036818279477,3.4198404043163464,2.9688615760833272
1.316,4.658352760908656,5.249986279994118,6.0033200598663825,9.972194561717515,8.172764966562681,2.3327258106000954,4.337978239878794,5.6380614265435725
1.32,3.3147248504915297,3.087359968261808,4.380209752856899,6.6456781978704385,4.028685342828794,2.134342468873001,4.1972109978396475,7.85610616789927
1.324,1.1760351255115893,0.202308974202424,2.699368295394379,3.4147145043998535,-0.19925325444546615,1.1502949897330836,2.9107007909296954,9.09491623490976
1.328,-1.1067173710189309,-2.6142637526581893,1.5605698995441344,1.2497567492109738,-3.0709048575226916,-0.04012495635470259,1.2080132573928495,9.50349193706461
1.332,-2.641265249949356,-4.484690965567097,1.5775486807215202,0.7825615354504407,-3.424913099787773,-0.6724913907146401,0.0848537433284946,9.652956847559835
1.336,-2.795931089878195,-4.896607729708194,2.990804493284486,1.9975014975316299,-1.0300869358216005,-0.29325007417355664,0.13065688900496752,10.061427855107468
1.34,-1.5362369754247993,-3.945783626058983,5.486424372870715,4.2637440476437405,3.2179783486199085,0.9398183276989585,1.157613288705761,10.784586755886266
1.344,0.5798914092051746,-2.2502094594337905,8.310363246685483,6.665734843725659,7.6756337815377265,2.338510164172476,2.3233808653258166,11.333078839850714
1.348,2.707739225725618,-0.6069077041156561,10.605964695142575,8.431395632953354,10.707737726647792,3.0807636881763756,2.64022733740876,10.969600985261422
1.352,4.127368014692365,0.3950418962176627,11.790851711137293,9.217434676751509,11.407265196402477,2.660876813086361,1.542276642097022,9.167211210600726
1.356,4.52820416853092,0.6057543023416656,11.779796255240399,9.138826643342327,9.92230455133722,1.1418458902608108,-0.819105615857552,5.980010957109698
1.36,4.070421293495201,0.3105474162148312,10.990068339876416,8.600549289083574,7.268775973416268,-0.9065675863203069,-3.6734048882717616,2.1044914702215465
1.364,3.20745635291496,-0.004346554003859637,10.103686699239006,8.03409389389708,4.74650473829206,-2.746527378558312,-6.046072403671133,-1.397810685897639
1.368,2.394229986495702,0.02643028112652246,9.698432035958831,7.673666246667381,3.285083428987491,-3.866681024317586,-7.245742296101525,-3.554480339615111
1.372,1.8985163999659562,0.45256250349848415,9.962779171097282,7.4997954321961515,3.0642723361452227,-4.176531453049392,-7.133617364674137,-3.8726549383100064
1.3760000000000001,1.7744740412126703,1.0162617379410221,10.606101144509012,7.322767667539665,3.5423787632571475,-3.923469326859049,-6.085397721308254,-2.4852694589008024
1.3800000000000001,1.9742005698308276,1.3502383021659625,11.024210505636802,6.937245011681625,3.8229416447948097,-3.427393425232367,-4.712938566502999,-0.025459454513111268
1.3840000000000001,2.4642763059719073,1.2174299556309052,10.591663936850637,6.2431382537388345,3.1256993791012064,-2.841519835556028,-3.565714629858121,2.6958688363520196
1.3880000000000001,3.2203850655532733,0.6227729511911093,8.914619476965527,5.259088738831451,1.1036610946875953,-2.1086691340842663,-2.992532209638739,5.035647526763569
1.3920000000000001,4.115635368234507,-0.25015792829708516,5.950325885041821,4.061282119278985,-2.1094614233488755,-1.1293192714365432,-3.177788230608712,6.725144879741492
1.3960000000000001,4.80510482675345,-1.2200490192471989,1.9613661340517865,2.7082256139683523,-6.0711165730836,0.014232063949748408,-4.24692634494204,7.877518173831049
1.4000000000000001,4.7637800713036995,-2.248565839548064,-2.603708399741663,1.223248048460846,-10.264253003131671,0.9810565916704945,-6.284139017290727,8.807874398602507
1.4040000000000001,3.5012290894583202,-3.4523830061907574,-7.252405349432593,-0.37116390016490186,-14.26194733428565,1.30937244562665,-9.243592189099218,9.777355239406461
1.408,0.8618322981519668,-4.972312767630683,-11.554554845561142,-1.9957466517462308,-17.755684021112756,0.722387502572019,-12.824406551228094,10.816948455256352
1.412,-2.7543121473427163,-6.774167685272914,-15.167881309376753,-3.475567594851782,-20.48721209546602,-0.6175881945237052,-16.42684600485336,11.686025839460854
1.416,-6.41742949122272,-8.52520390222162,-17.808079083328266,-4.550993626611671,-22.173792441160913,-2.1052136585421977,-19.28346721779235,11.981186732775313
1.42,-8.944779973598997,-9.620757927117666,-19.175194198653116,-4.918104854188641,-22.495640036288023,-2.9644883602286427,-20.71489195268441,11.3381571390928
1.424,-9.372891476155019,-9.422218999455254,-18.958925797691336,-4.335706314932395,-21.209549765986594,-2.6916519078276906,-20.419175593760883,9.613069628052472
1.428,-7.441179124964947,-7.620078800167903,-16.9784540251585,-2.7886379028605006,-18.337045301668695,-1.4189193173388048,-18.653741035468556,6.968046550073268
1.432,-3.8110509772632213,-4.495715427521645,-13.366653395893081,-0.6123150866496871,-14.293676544719347,0.05709148542700859,-16.162866175067393,3.82754319326159
1.436,0.11052705985366629,-0.9224787531884431,-8.700420940633194,1.4975687924661543,-9.868894224564428,0.6433989231463784,-13.886910075074411,0.7198762749339949
1.44,2.7274888639121855,1.9527871928876266,-3.935391134406018,2.663364747243577,-6.021390938654804,-0.45038380788719223,-12.578868283251722,-1.9288370716676582
1.444,2.933395269838911,3.2004087685800187,-0.14901713155813923,2.139982604783654,-3.5764399768868316,-3.2230418395647575,-12.529008129211434,-3.9493578868459736
1.448,0.5861559421464335,2.5148913175053167,1.805948269826331,-0.36651107670786587,-2.957588699664484,-6.783874049997394,-13.538732295348382,-5.4520411382927705
1.452,-3.436914466482449,0.33968770385035896,1.6101514598158246,-4.518896443150879,-4.071218896544451,-9.739761241293309,-15.120813572910265,-6.720956808900155
1.456,-7.653285154074183,-2.375477384277474,-0.4161031951152836,-9.439735191016553,-6.410418487146671,-10.893881822685216,-16.801886639597797,-8.040016085849857
1.46,-10.62005426333053,-4.622738617919822,-3.419518047619931,-14.022857803691295,-9.292039897558425,-9.865371878955557,-18.31838042140589,-9.530849949960611
1.464,-11.52503354507644,-5.770386301393955,-6.327174571004434,-17.354148595219158,-12.119062673753433,-7.305860183661935,-19.6265553605881,-11.079572266653486
1.468,-10.472239607003758,-5.777166791520358,-8.254819224317544,-19.05294354880789,-14.552458345027844,-4.586784858998726,-20.76166339485644,-12.36072659036654
1.472,-8.317538854777013,-5.07157888101483,-8.813011029074914,-19.337195125184735,-16.521372148474256,-3.108157144042707,-21.645056898631083,-12.948232098056906
1.476,-6.186632131763872,-4.222896529502577,-8.214933201423264,-18.809051430585896,-18.123455054113947,-3.599651743792492,-22.011026175623556,-12.478278464011964
1.48,-4.912674390116081,-3.6003342385811266,-7.127125969862391,-18.073234563218648,-19.491213301536845,-5.770031966294482,-21.495269029381234,-10.805139695208709
1.484,-4.690518807233275,-3.2351054991549972,-6.37266788832676,-17.41453541386909,-20.725214142421464,-8.476699000526423,-19.854394406533174,-8.089893826721891
1.488,-5.117108469674349,-2.9562319101223693,-6.63537873747191,-16.72847254764747,-21.91753534120653,-10.331404073773228,-17.192659302656466,-4.773161010756667
1.492,-5.5399196202643,-2.6676470697093464,-8.258769747510087,-15.719898774572357,-23.21199203609831,-10.412353578445618,-14.032358177708375,-1.4565426176632172
1.496,-5.489972384067187,-2.54750865888127,-11.180617358919335,-14.213959613431143,-24.807203916094295,-8.696495378108011,-11.151719345323727,1.2820042888288299
1.5,-4.91925214733601,-2.9860083782159563,-14.943217389987694,-12.343882345194288,-26.83942183236468,-6.010773298352433,-9.225195188977523,3.0673723402633186
1.504,-4.139524492011333,-4.293608122966361,-18.77885710904775,-10.487364329768752,-29.19752792833242,-3.53329177890555,-8.454536725501384,3.8447204502972454
1.508,-3.5680052003453966,-6.392233322713764,-21.78984561357356,-9.016228784590567,-31.407778775273982,-2.1513974450590467,-8.426163143640224,3.8923339571338147
1.512,-3.444151466571384,-8.696976170545895,-23.179101238172734,-8.028136611659647,-32.697384408988,-2.027934453872149,-8.28496780432397,3.702833529237978
1.516,-3.687232354117441,-10.297416799528946,-22.474178190033854,-7.2483429272979265,-32.24860651749259,-2.588436744419596,-7.1523994333838345,3.783702422346323
1.52,-3.972260046948577,-10.369199553332692,-19.669874957522552,-6.194594489887095,-29.55525978224796,-2.931457822302036,-4.586832408062037,4.420518509848989
1.524,-3.9834504510145052,-8.621227298230224,-15.2692267937,-4.543934808029007,-24.728530332418813,-2.4087348355424183,-0.8739679960453941,5.497025082999244
1.528,-3.671589698027674,-5.5221069143481145,-10.191486118736066,-2.4651787690399942,-18.565142682569785,-1.0424865301465616,3.0127183435088227,6.496422987185724
1.532,-3.319867389567662,-2.1407085953896967,-5.524204817476857,-0.660519820634363,-12.301585021408755,0.4475265152796055,5.806705666684138,6.700591108785375
1.536,-3.3668868615723113,0.3368903732707622,-2.184154748578294,-0.038313456365358434,-7.141962677180345,1.0379224678108585,6.535804228606139,5.539003798945487
1.54,-4.068607506872468,1.188087604104112,-0.5817981391937792,-1.1581675939996785,-3.769493975209116,0.002058118199784076,5.046750021072512,2.923430133909278
1.544,-5.236727119588068,0.5064840914474189,-0.47047224856578396,-3.788780296439654,-2.1060111013521237,-2.643453630647855,2.1778782761521143,-0.6032360602457629
1.548,-6.256112105766988,-0.8759147848613793,-1.0851237882252462,-6.887338905875367,-1.4529288501689734,-6.092602566764981,-0.5496546614267572,-4.00016574844085
1.552,-6.3927188609523,-1.8476628675798565,-1.5218431150406104,-9.074671561500509,-0.956816198233355,-9.137210980774398,-1.6143512068520067,-6.143133687779482
1.556,-5.233036953607552,-1.6225910654120526,-1.1961462524923263,-9.384752958345416,-0.164460978248826,-10.777153456765518,-0.24037298015173292,-6.342744861864048
1.56,-2.9883636319364086,-0.16145034644796397,-0.1363709038705565,-7.8599983961066755,0.6408572321106476,-10.712137831731525,3.175708687551378,-4.730555559734057
1.564,-0.46211543161007285,1.8031523054833087,1.023748947201966,-5.626882390066385,0.5196918723213457,-9.437861160229659,7.186605837452589,-2.287074041649248
1.568,1.3165602493454571,3.1306169932649937,1.3492960463627242,-4.367510707123074,-1.6352282126917999,-7.897692770791764,9.937292433458424,-0.4313065601145354
1.572,1.621451186104423,2.8495797921732446,0.08531242579920217,-5.4165468127976055,-6.430962818652915,-6.901511256928643,10.056192064270363,-0.34969253795316035
1.576,0.43386027721680875,0.6549365171777026,-2.920567461720566,-8.958398537357425,-13.470997346910735,-6.649829191897879,7.361341737154362,-2.382181397275417
1.58,-1.5037246769488775,-2.9094984442890564,-7.043292198972267,-13.771641999512212,-21.299530876538483,-6.647828624245449,3.015514254628215,-5.809625331523421
1.584,-3.0586398583836854,-6.682544419887563,-11.09071979717919,-17.72019211195402,-27.880282266578433,-6.076308003783197,-0.9908077479703934,-9.177849157138553
1.588,-3.3411905263483277,-9.428343474426583,-13.830426939519384,-18.786003891478686,-31.41999297478651,-4.383958033948147,-2.8039839952434704,-11.00519343734777
1.592,-2.2307592602865043,-10.394903431280909,-14.552815564598859,-16.103117558152007,-31.13260501655168,-1.7291091122770013,-1.6263292564653966,-10.528880150366604
1.596,-0.4726795213468904,-9.59551406163564,-13.356895443799203,-10.424728376990515,-27.535101903852592,1.0198164025832739,1.9173164928752158,-8.064336454668592
1.6,0.7658002382631821,-7.6554361047165,-10.9655913034062,-3.7349847440300437,-22.100148283449016,2.751327900821707,6.204212894290777,-4.784838727363422
1.604,0.6244365947750339,-5.3480283636426975,-8.206657950100634,1.7704793077737122,-16.460646707002525,2.760349581905757,9.579325947175676,-2.049508651398355
1.608,-0.9005764313187683,-3.1384307086100307,-5.513346078829272,4.747862506179445,-11.623025085302288,1.1528017416640068,11.277859096298926,-0.6642324235363049
1.612,-2.9404117091289663,-1.0271654485077306,-2.774149998624125,5.215534995693815,-7.648765833147991,-1.278571434715559,11.753331518615596,-0.5304778439276561
1.616,-4.325474650370779,1.1984213601626834,0.35423009206715506,4.244730645985328,-3.9813140918849967,-3.616725948839303,12.198551485442295,-0.8821247219966608
1.62,-4.370666570739559,3.526845968764974,3.927978647609052,3.0989835912259878,-0.16052497968303214,-5.418148594093509,13.599261113409739,-0.9247693434081157
1.624,-3.348640748532489,5.455355166996014,7.385944061574264,2.4014158455502184,3.5922625627554226,-6.9203374539501965,15.95269387080043,-0.4083626794490556
1.6280000000000001,-2.325952401887662,6.133371410247491,9.690010275484383,1.8495807965191489,6.345541756285456,-8.689841298371903,18.174623659826466,0.2728229204767558
1.6320000000000001,-2.3764525056294588,4.941771556172171,9.975245454455944,0.6736102046997985,7.0852789379569,-10.93489436130767,18.84376774283737,0.5332692088813928
1.6360000000000001,-3.6925333222152403,2.1327250912108866,8.291868743794112,-1.5295205160073237,5.586849360151973,-13.013124215824064,17.305093568154916,0.2529618533753819
1.6400000000000001,-5.2417834624484385,-0.972487624065252,5.889681116170323,-4.229026907669322,2.8794701692877425,-13.594864117843827,14.354120360600064,0.07557477320006001
1.6440000000000001,-5.347857598610062,-2.546242089189036,4.658084696322476,-6.159210375144539,0.8275600336419302,-11.522269538683759,11.92332071594501,1.020268442327506
1.6480000000000001,-2.950415000304929,-1.3862518340556562,5.9005588716572674,-6.232732404625494,0.9580622853700334,-6.837867253078002,11.827476844957346,3.5926490775273123
1.6520000000000001,1.3037511001948587,2.087182078297701,9.212539504069355,-4.525643511860835,3.258686876290085,-1.2243343867667136,14.360414943032083,7.0071307964281
1.6560000000000001,5.0046992365050755,5.728206383942961,12.316702743748465,-2.537259827120579,5.840723698602233,2.6267390054599673,17.754258171804395,9.20650648620358
1.6600000000000001,5.259688897495835,6.77689015096621,12.224748912896757,-2.3346444195340155,5.921950733627455,2.5329182418972778,19.05398539423186,7.915487449714419
1.6640000000000001,0.7024255878422991,3.703053963097773,7.2104579070746695,-4.990317270523519,1.7185658931830403,-1.6401214436118607,16.041501718988002,2.2512986655692657
1.668,-7.017718985594001,-2.3262647346709855,-1.5565030414982175,-9.317514636913984,-5.890447495450644,-7.464513407059712,9.05386024103791,-6.1373231764446246
1.672,-13.502211336646724,-7.516438476097392,-9.990244743165022,-11.990338001058262,-13.203643448578077,-11.057215949978854,1.3572987241386727,-13.375385352414014
1.676,-13.91451627135757,-7.4153856925913715,-13.117498638841425,-9.368823422328205,-15.519171550618921,-9.383407424607867,-2.495475119254479,-15.266419203508121
1.68,-6.212947168192841,0.12281007934871013,-8.184335835132515,-0.12988430839141074,-10.116547551146141,-2.4333079527168593,0.4533113048564701,-9.921312433818457
1.684,6.588670077961069,12.688314144843389,2.908019396421878,12.874094634807989,1.3174742835763027,6.152810538605991,9.12678860282358,0.43226053265243536
1.688,16.829128028034575,23.42776945309106,13.57822365498032,22.997902124794564,12.550729392933135,10.72580879146335,18.124497648450415,9.818661595143567
1.692,15.614533259486052,23.995182473597197,15.464975762301037,22.723134262767417,15.521845177436262,6.859576069673494,20.178436823265656,11.267703676408928
1.696,-2.2599040891773257,9.107060684791577,3.000856485639815,7.830474283829972,4.772746065746105,-5.612033505714862,10.268201520681032,0.7321302742057014
1.7,-34.45333964126803,-19.645798589088372,-22.682549300461687,-19.37589286417642,-18.727768919407026,-21.597773801629955,-10.806175411888034,-19.959725551800148
1.704,-70.70392346471726,-53.089564964047895,-52.945099928390846,-49.86873417642528,-46.747476297121466,-32.715235325140384,-35.639643800868726,-42.98221994408232
1.708,-96.6421144859869,-77.74607969999124,-74.81747403874397,-71.29364200709279,-66.8500635342989,-31.42628533657262,-53.06320172313826,-57.648678890651354
1.712,-100.23152530445259,-81.83265822916292,-76.92295287890556,-73.56864825706725,-68.14107676060303,-15.230247829214932,-53.42999515914198,-55.44692510126697
1.716,-77.69905046085114,-61.08623563250421,-55.254294370213756,-53.934781741771076,-46.8550971062723,11.419008704480802,-33.679246142804914,-34.419201293905644
1.72,-35.788269025681075,-21.31704796635222,-15.669798463466577,-18.725972214300782,-8.770966143743863,38.74608810348764,0.6141124669738929,-0.5556211636394437
1.724,10.963374452474454,23.787924588877104,28.32426461430441,19.198020980247748,32.96940050417652,56.121307146459,37.42664733945276,34.639994358794866
1.728,46.665463820881996,58.65954837214758,61.536525706236716,46.19154793780581,63.687813650501994,57.11070709942942,63.70353482736027,59.25765692311688
1.732,61.024123551368575,72.68393720576205,73.8179840865414,53.868531159327176,73.72756443063554,42.4684209066927,71.24528066047787,66.17867639632095
1.736,53.321437296660406,64.46406058399498,64.14175611241808,42.422482449619565,62.43081793885358,19.509708782308735,60.04292432785951,55.78419058669897
1.74,31.669929300223885,41.558837894290264,40.20311796607348,19.750472521587653,37.68464750376552,-1.6865220554936968,37.531237629702446,34.96391304649478
1.744,8.242757852765862,16.1090190079085,13.988536007725997,-2.9373143483699096,11.508619404718047,-13.182219101796363,14.396476126206835,13.206846952709384
1.748,-6.793203644171626,-1.1609780205944844,-4.1427215791027265,-16.54883177177726,-5.8143131265787815,-12.594978440547493,-0.6614925240282901,-1.9915882267669076
1.752,-9.50656556278227,-5.475930728513049,-9.789872711002317,-17.818682983397593,-10.033354830044118,-3.4152098565500637,-4.491569232219263,-8.063521453292196
1.756,-2.752698282781239,0.9434910731515629,-5.333159628380599,-9.704606060205151,-3.7207651232711214,7.602606185177137,0.17910732786549488,-7.382120908854631
1.76,6.740744125310812,11.393434008088661,2.7560789311810368,1.3053276618966265,6.400447201142015,14.325243803148624,7.399713819890167,-4.811038703326631
1.764,12.678808639051567,18.920775599906847,8.157086743249238,9.097108231704624,13.687966820432848,14.178400652102937,11.766580827414145,-4.497889282225515
1.768,12.391234788430666,19.817720222175012,8.00677879536488,10.830978137697457,14.92301573288205,8.741909388692875,11.11323062941301,-7.757128127046599
1.772,7.392044148196874,14.70773792890759,3.6487691942493257,7.497813779304124,11.157758497640316,2.0402329103781085,6.872004503791686,-13.00039120927795
1.776,1.4659756327346258,7.10704918799911,-1.1725971964806376,2.274332080862223,6.0594052388205455,-2.1794219956609595,2.3265121229269425,-17.34054475564153
1.78,-2.1280237739401855,0.7951594391806793,-3.1335717955626023,-1.9349053061177983,3.1612219134485713,-2.476643070071077,0.1922439925656363,-18.626333834576144
1.784,-2.553544029599834,-2.3079196769422197,-1.3712050416179409,-4.2114956777659245,3.7657439113445434,-0.045465865081496304,1.0673856011526368,-16.630460580287036
1.788,-1.4430451931957577,-2.6932682708238644,2.34150227281134,-5.731191994453184,6.57393948184199,2.5598446240619523,3.5042675915155996,-12.842652345738315
1.792,-1.3918021742720157,-2.296884300725651,5.079892346719134,-8.510637973505254,8.920416287694025,3.2618403261585627,5.349463074402593,-9.260341576642531
1.796,-4.124517439066949,-2.9827212425680045,4.694598934884198,-13.841636837438273,8.56222473152593,1.6470133811108099,5.249611075802022,-7.103410790512498
1.8,-9.482960154736247,-5.484366873180079,0.995727648758475,-21.396436839557282,4.877934770744105,-1.0711525315764447,3.3594900358057203,-6.300350249137409
1.804,-15.71867172767179,-9.31658341635557,-4.426959889657155,-29.44451440690682,-1.113614939470608,-3.090934542391551,0.9449499061265669,-5.910077683667623
1.808,-20.694875415331808,-13.441488021706391,-9.403474477870986,-35.86711732008189,-7.663050743318308,-3.250744773698898,-0.6709692860385985,-5.025143949940684
1.812,-23.089468896326252,-17.022250993588386,-12.48707685428053,-39.216544867865196,-13.354313616872787,-1.6535644087380206,-1.0023328021270572,-3.462223067876039
1.816,-22.87658211618691,-19.733887494905503,-13.57569783015606,-39.20501914576562,-17.635564406806225,0.6057850885117659,-0.5685701090333168,-1.7802147191068798
1.82,-20.906136781740315,-21.523233456737216,-13.534965592391927,-36.43722393762346,-20.607494970889093,2.296644630974697,-0.3208639037748071,-0.7412884755121922
1.824,-18.050219411695252,-22.192858128684747,-13.283004653885655,-31.750046570652557,-22.433493285949226,2.8481749002130528,-0.8513858772166714,-0.6950765986493934
1.828,-14.57789754159603,-21.258610882731773,-13.035099867029203,-25.67692774904117,-22.90573356926052,2.6112201580363035,-1.9748804518058023,-1.3486587091229012
1.832,-10.145526045125735,-18.243324302954534,-12.204611471935095,-18.362307482059805,-21.49705735709722,2.5010352386525483,-2.9351318784792966,-2.0650671534749563
1.836,-4.3314517508442805,-13.188874374633087,-9.97939252710239,-9.897285634932814,-17.815473654398374,3.3336085818591528,-3.034018440015643,-2.3980641396319697
1.84,2.7812818797506225,-6.912630409500707,-6.0301165373284675,-0.7008103823327474,-12.038314692956192,5.332621829378695,-2.1449116126268564,-2.4451125199520902
1.844,10.38128597879495,-0.7646008542396885,-0.8791699003086251,8.33773304017086,-4.999298015974091,8.046775157941738,-0.7574328047176095,-2.7556545483821537
1.848,17.174837133036817,3.981283327424535,4.2846644891988035,16.04545228981715,2.1179717053546483,10.638067790578134,0.40863855577208597,-3.881717475323967
1.852,21.89515465270688,6.6944184737794785,8.169958677546674,21.33181792506548,8.234351324684212,12.292004876700958,0.8861237424780484,-5.925944567008628
1.856,23.698782450623185,7.5037210777454675,9.892427964517992,23.46209084502334,12.64658644883275,12.494783610829472,0.6477425803277583,-8.412674816469007
1.86,22.30376989289516,6.948729625588385,9.214323327040802,22.167892058296275,15.013644865839524,11.117655423537144,-0.07847672529078409,-10.581169712355404
1.864,17.927734915068413,5.463990523137909,6.461182289294811,17.634094375031054,15.18342585454775,8.379243665525792,-1.157292894069542,-11.85216235599546
1.868,11.198651779882312,3.1126524911678644,2.303568227451251,10.480953995143864,13.120747324994227,4.796377300737731,-2.709622481675069,-12.110035488130961
1.872,3.152102527702482,-0.21455916226113914,-2.3940682416578056,1.7867261464161857,9.065385071271521,1.1341572683431878,-4.9106542522822565,-11.599302521399295
1.8760000000000001,-4.785861747897798,-4.326735604488931,-6.659426883517881,-6.965392742770746,3.7824357496137964,-1.7283262293385633,-7.591268972511898,-10.533328903660731
1.8800000000000001,-10.982980805443276,-8.384198690804624,-9.49123571229029,-14.120975064240156,-1.377816041675942,-3.0542975046028005,-9.982958582029823,-8.786926518389919
1.8840000000000001,-14.08721218300525,-11.08421210659526,-10.127960583175081,-18.356284188434984,-4.880535298289033,-2.608643715921062,-10.969173952564233,-5.994400799745563
1.8880000000000001,-13.677719209307725,-11.384657673249421,-8.477011290097835,-19.277831764010443,-5.783461149047071,-0.9195722364311223,-9.819135375461883,-2.052137660532935
1.8920000000000001,-10.699318300821233,-9.331650864337462,-5.452532653301205,-17.77185392864976,-4.457257065023441,0.7673192018028203,-6.967189259712541,2.308617592677365
1.8960000000000001,-7.322642368192646,-6.408163923942084,-2.932422837595368,-15.821204242916792,-2.7313987681609433,0.9193749894038774,-4.2784556354035885,5.379802837389434
1.9000000000000001,-6.079193112206667,-4.994264258222756,-3.090441291597017,-15.687796066484225,-3.175269799362468,-1.5948708391752007,-4.401605772847688,5.025606743620301
1.9040000000000001,-8.600565190387442,-7.110569547442083,-7.320950490586256,-18.784363541820312,-7.747637910249978,-6.900971491888413,-9.401197631017567,-0.23094217315610877
1.9080000000000001,-14.60705309861305,-13.110602603511325,-15.276169446409767,-24.79124514848627,-16.496175057235632,-13.901240477263855,-19.359436373674725,-10.141825666761179
1.9120000000000001,-21.761050871081352,-21.11940931401068,-24.612189989246872,-31.540273114904267,-27.08997461857416,-20.607962437705282,-31.784366801748547,-22.364633688330287
1.9160000000000001,-26.616434019663302,-27.684348327469706,-31.784251320857948,-35.85204733335104,-35.59178892084128,-24.910284602610773,-42.33844484832116,-33.12916622577086
1.92,-26.22831480658533,-29.36863006885733,-33.5568921149561,-34.9475630377965,-38.1728765421185,-25.391869003215106,-46.631824691573456,-38.74745653467471
1.924,-19.63189272016234,-24.482132231748437,-28.544561711958522,-27.779393788352536,-32.94866757370073,-21.85179968635748,-42.24508003741903,-37.23513397767147
1.928,-8.408348463451148,-14.015735861435132,-17.971650820842115,-15.604398336022314,-20.968472682691754,-15.29504201366126,-29.94743606706743,-29.200486036743314
1.932,3.9895995113852223,-1.2478759613645707,-5.206709514076465,-1.4979253786623303,-5.820254492939057,-7.456194344535106,-13.445349611820347,-17.52942125913887
1.936,13.790389746324308,9.762554970445308,5.68517547222109,10.923147354745197,7.95120425047844,-0.13387803546720534,2.210622560412048,-6.000677637610352
1.94,18.58639572388074,16.045937646918446,11.724398962237501,18.98415415890031,16.83280645781997,5.400300935460109,12.80072297613151,2.4388948745927337
1.944,18.275690694273635,16.962342694213476,12.213055724538208,21.898306660393246,19.710875056021905,8.661574816773282,16.60393756139092,6.837517745091645
1.948,14.820834111535532,14.196937205726044,8.776838157893508,20.777425551180386,17.977540539697657,9.882177220898484,14.772236082651943,8.288296443061881
1.952,11.052140482044251,10.61796587187473,4.321236743523514,17.805427561139823,14.438802674982071,9.74179664969779,10.354606950778361,8.940323167291353
1.956,9.150172683435812,8.64299251007742,1.4449509634769129,15.018926906672277,11.664453642611988,9.01553686086936,6.547415037603059,10.598312783750771
1.96,9.65777186449941,9.062100195334096,1.2328065304309348,13.395900477628857,10.729987042612265,8.309369903592597,5.170046503286358,13.724546918652777
1.964,11.467844966133725,10.890078408911904,2.979070323666747,12.64429268931508,10.953692879023038,7.893978160551342,6.099364961072752,17.356688405257955
1.968,12.656785576110451,12.19994803779855,4.862269575156461,11.684529475671297,10.642268503430387,7.683765071963535,7.787238902279569,19.893203568463832
1.972,11.651261238408551,11.388893515586005,5.121897152818747,9.492147453281177,8.326290847901873,7.352968715642419,8.43182691275615,20.200153277923164
1.976,8.04889668852411,8.10944238257298,3.005190156608478,5.778216623818025,3.728202604074795,6.526165991850576,7.044107227847235,18.35685235406345
1.98,2.7498409117579286,3.410105285824102,-0.9270619459430236,1.197167771392742,-2.0314300932031983,5.024718233689782,3.871787577581017,15.594924060688754
1.984,-2.582569290235824,-0.9126439710407794,-5.223327475257065,-2.9827483814324296,-7.036973420220875,3.0469451161161487,0.06086603002859192,13.52060572478149
1.988,-6.351391972350029,-3.2991000857446124,-8.35354104340604,-5.505087250724955,-9.573850679660609,1.1789315683108725,-3.1200651706612916,13.135360409575696
1.992,-7.680002151189456,-3.162741278240901,-9.408333159316498,-5.683098647200495,-8.938305583298643,0.18609972761169047,-4.958165425459811,14.249983974521456
1.996,-6.655336264815105,-1.0479696351662824,-8.407309255270775,-3.67401381488844,-5.6859765564322515,0.6291011979583345,-5.546673359620399,15.625526372215063
2.0,-4.092742582348819,1.8296316958540046,-6.075853168288631,-0.3324943222078218,-1.2315887619047317,2.5184447708033986,-5.506577203247616,15.733467577994816
2.004,-1.0634357434933008,4.300992761401176,-3.352180479200797,3.2056867574651733,2.8852486921982745,5.194539694085506,-5.4619650036847815,13.649634848202368
2.008,1.5313650149855675,5.77564201617497,-0.9474851304921685,5.980319117682484,5.652362558304958,7.561915688705994,-5.658561851834747,9.550864469617409
2.012,3.188704900405355,6.346452645585032,0.8416740846150788,7.512209348694796,6.861008370137824,8.59747233003145,-5.93333056159463,4.557316137726048
2.016,3.792827353503526,6.477704290618476,2.006403428071735,7.840267512479841,6.938218719723864,7.8711448950489284,-6.0082638320286605,0.08091783170766575
2.02,3.519140906535995,6.586351072319303,2.630186416802644,7.378560775932328,6.551466581422574,5.820246451953608,-5.818689275854922,-2.9118488411868384
2.024,2.752459701126554,6.812461716719554,2.779522178814659,6.688732105245435,6.238159881091633,3.5761945867043323,-5.621954357880895,-4.2897575262095415
2.028,2.0131808390992774,7.081087270135868,2.530342651371029,6.257939454359075,6.23097307372791,2.4090925123146008,-5.816872428720217,-4.612942159779777
2.032,1.8386484350403407,7.338163651024388,2.053909580527943,6.339324572015812,6.481947827415297,3.066158002924567,-6.62245939292734,-4.6299017982109945
2.036,2.553225816520353,7.702122160746512,1.5811447483201846,6.8485767457841575,6.77053593916844,5.341953307849508,-7.886368032549399,-4.76085198394685
2.04,4.043642859347528,8.409707890490608,1.271602764751151,7.380304644431817,6.818676352837429,8.147987267304416,-9.154157977782688,-4.905617255521065
2.044,5.67400849865453,9.575316446399484,1.045420733724768,7.341536713576716,6.360242753486091,10.03284904650809,-9.963375496739445,-4.65526070008309
2.048,6.4730953159205455,10.964239920051114,0.5423061602468806,6.2002966961727,5.206484304641435,9.921436339352113,-10.146761957156741,-3.6937877805339667
2.052,5.584889590643797,11.998584124559784,-0.6882635900137757,3.7761942120732783,3.3389921264342775,7.686785608781975,-9.919623072863487,-2.0940976391316326
2.056,2.746096144396688,12.021607076472264,-2.8920553267598734,0.40889495067904136,0.983908893649641,4.216089804638614,-9.703158729424104,-0.2841884104809651
2.06,-1.4583803191112565,10.695278658291045,-5.843492142422292,-3.08713923513551,-1.3866460223666763,0.9744475713778229,-9.787129099958292,1.2586751377530163
2.064,-5.768811944365325,8.259641893222124,-8.835473510680913,-5.729394683759892,-3.199489525046374,-0.7202351364639981,-10.08787280602337,2.34844159813656
2.068,-8.813335622221302,5.459728196135529,-10.976328381257645,-6.80683593102458,-4.032473863627274,-0.32458447782482835,-10.178144734381021,3.22888256283386
2.072,-9.783588190857017,3.151278388898845,-11.646662173130608,-6.243216700951962,-3.8595463081855996,1.71804006405182,-9.59323230017526,4.370297751564976
2.076,-8.88249827980735,1.7844283736872057,-10.903119812861405,-4.7042668208023315,-3.1484798424571636,4.237172959372856,-8.2524233648287,6.068217962535073
2.08,-7.2140432461878845,1.1429891197294637,-9.483812372026478,-3.2972860846916774,-2.669026599281551,5.957755725526113,-6.651105081080914,8.124457368362073
2.084,-6.162990617379364,0.5059953566153581,-8.41269610332074,-3.0159335385155828,-3.0976936811539417,6.110217434665174,-5.685368819668838,9.83403858015572
2.088,-6.603274795654215,-0.8493489174406932,-8.408658125050351,-4.207394164994639,-4.617537309384261,4.735079708765625,-6.176670341023964,10.32573868261079
2.092,-8.351292814512817,-3.084036447725566,-9.416823086286058,-6.332924449888878,-6.731146034058838,2.5761366539791197,-8.34769410547051,9.06425109506199
2.096,-10.23202899885382,-5.573295002350733,-10.61487251358858,-8.221215505176588,-8.457209473507191,0.6339482294147274,-11.607475771873396,6.214273550838243
2.1,-10.708809880796707,-7.164493704371807,-10.85976960927701,-8.661892171890031,-8.816186462027417,-0.3379876316566879,-14.766548057236378,2.6248283364366216
2.104,-8.756003831432736,-6.807877132647036,-9.362988870549998,-7.0554564156218476,-7.374100781117249,-0.1601953913559555,-16.605263256871694,-0.5891784533660029
2.108,-4.486589292795998,-4.200275914156464,-6.2017350756186715,-3.757176563496614,-4.540022698306984,0.7746503301536904,-16.497401499295393,-2.6175742086470564
2.112,0.8422989348873671,-0.041178268658313755,-2.337848915977247,0.09567316987340746,-1.4281778664476406,1.7937023218582908,-14.728769820927027,-3.3373411923867025
2.116,5.411908213344304,4.230868795626975,0.8140097544646778,3.142985868816595,0.6348858358235248,2.3047891644496303,-12.369376946868215,-3.288447598246421
2.12,7.731537420320365,7.1179268279968255,2.082813123008691,4.474781959628217,0.7247875600160114,2.058588726722519,-10.750331077798364,-3.285181147408821
2.124,7.342457496891484,7.77274932080104,1.0968041223263754,4.044623838865391,-1.2715667762481644,1.1709230529413617,-10.82549866669342,-3.899100951522996
2.128,4.974340154460606,6.354502068527836,-1.5839309486650563,2.620251044782435,-4.641422704831257,-0.0335901533667311,-12.738538771513959,-5.114104089619559
2.132,2.1076386160561924,3.864167414217036,-4.786146840237507,1.330192211131589,-8.212397840178255,-1.2168184225083678,-15.789953700787919,-6.358889685992835
2.136,0.1671086328047977,1.5465522023184803,-7.348916270099835,1.0322593097944264,-10.923835383865026,-2.167941072708345,-18.810596268804602,-6.876062573824129
2.14,-0.18497868828706032,0.22515308939046008,-8.655358210909526,1.8753951666153625,-12.29231981407429,-2.8159715307756414,-20.709960633628725,-6.210849922333182
2.144,0.6940417734626863,-0.06969104587324182,-8.829959079582295,3.257648623789919,-12.562178085842788,-3.1619503499641723,-20.938913617442722,-4.525175362126902
2.148,1.7092888815492415,-0.008934730775990829,-8.542387209749222,4.173979780933905,-12.484104762540255,-3.208022938735212,-19.662327930392394,-2.537593638274757
2.152,1.6842910065531669,-0.4810329776546496,-8.547655858296821,3.763964431982913,-12.85004828920114,-2.9506504920614134,-17.583173386207818,-1.1417495802161284
2.156,-0.021981361903726793,-2.0436496711054133,-9.291716230805378,1.7321730049768576,-14.054641704302412,-2.458546041129921,-15.575416816501274,-0.9106806585327831
2.16,-3.2143969817095694,-4.589928634261014,-10.718157108862442,-1.5189747197505312,-15.871076318921041,-1.9311469815161217,-14.286962744317862,-1.783786453688208
2.164,-6.989388048319029,-7.386372353125807,-12.345762357116655,-5.077038890368385,-17.54389311263435,-1.6781926242674672,-13.889978798600396,-3.108860294161559
2.168,-10.198823191049541,-9.445837257912899,-13.534427632560892,-7.907111550093305,-18.137653986831992,-1.990587404537564,-14.086716707568485,-4.00532220988498
2.172,-11.967486973529162,-10.009319008785496,-13.761546562985131,-9.23393597832137,-16.981953808591925,-2.963313176687734,-14.324449216667745,-3.8624405236982966
2.176,-12.028134479582377,-8.90427528542159,-12.830850731942974,-8.779664566861584,-14.0144445561682,-4.392575915433554,-14.108855434509678,-2.6726430539886223
2.18,-10.725243816332068,-6.593998663918683,-10.898855430560843,-6.7734035033781765,-9.845823021580145,-5.801846893841002,-13.249677897263155,-1.0438239025306757
2.184,-8.739969984774689,-3.9239557675830383,-8.372592618653016,-3.7860522030114225,-5.526373134536016,-6.62903847725147,-11.925779137797917,0.11244060703165815
2.188,-6.711994320317444,-1.711662714914155,-5.748118880899938,-0.4855510419856728,-2.1080031537599098,-6.4744935885214545,-10.54648039702397,0.05774912838387536
2.192,-4.933524079346853,-0.3679122880353134,-3.421524880987363,2.5985988862992144,-0.19219042270970021,-5.275313699698245,-9.468201080769177,-1.3895105332776438
2.196,-3.2969552473650765,0.23573575181842443,-1.600110607915667,5.178983782761861,0.29236830824220306,-3.341200553462386,-8.762382440407691,-3.7620662880453892
2.2,-1.46905699764352,0.6199329298751763,-0.27810337362689097,7.198428254563851,-0.011438393475600606,-1.2175465746827285,-8.152339309425088,-6.186103869640647
2.204,0.823232425197034,1.3611723105852889,0.706943304517381,8.729885571090563,-0.27517197937913807,0.5341827515442219,-7.169199470525655,-7.821278090010765
2.208,3.5482032207239627,2.7412719613571426,1.561271483751625,9.850685627276675,0.05118480118937896,1.5485879890802607,-5.445055318731647,-8.258043629079111
2.212,6.318209739642839,4.5750054072520925,2.438047565142597,10.574269701397725,0.9527140125411506,1.7634611178013984,-2.968549046275257,-7.67733573938267
2.216,8.515467805431172,6.277996939906643,3.3374918897991392,10.837168555114431,1.8791063412453468,1.370505598953514,-0.16393359684229836,-6.6927561244174285
2.22,9.56093025003588,7.170212674102686,4.111038739814148,10.577111142275044,2.1032538271392696,0.6925057476355505,2.2994451201639095,-5.979421661344759
2.224,9.18064478514043,6.847478717481863,4.542155494890494,9.82862931111481,1.1884539554441744,0.029298516672952246,3.86572117038304,-5.899287899935189
2.228,7.525358585604295,5.4099316717948795,4.453742025387328,8.763434689912401,-0.7115788340479412,-0.45199450166865063,4.41342019685726,-6.309396577218195
2.232,5.086124035353123,3.4062605722255057,3.7905103816540304,7.63411375989881,-2.916410480930722,-0.7521485239474259,4.334917132173587,-6.680007558480611
2.236,2.4192594253436255,1.4862896911547523,2.578130934344699,6.6028715245311105,-4.643176918808649,-1.0178857367031924,4.283348945558714,-6.437375880973832
2.24,-0.11797475810453761,-0.000623758827259735,0.8609981882738111,5.610892401222941,-5.498232514019037,-1.4491831837954123,4.760714143637756,-5.317613643509844
2.244,-2.48533436424259,-1.2338586015612236,-1.3432025374715977,4.36858524563911,-5.736817865105877,-2.1968073325435853,5.775438983093181,-3.5652465923868704
2.248,-4.85554065463657,-2.808800536127535,-4.003150916253958,2.5246833761201515,-6.0873023796197,-3.267028353554906,6.808233611345486,-1.847273201379494
2.2520000000000002,-7.331034751490279,-5.301415262603541,-6.926361171972076,-0.03173602364279304,-7.21460449932863,-4.467658858276309,7.136889424564856,-0.9336992425446624
2.2560000000000002,-9.692447418755819,-8.783238509782677,-9.654957565543782,-2.938880005763167,-9.161699395185906,-5.445665639971935,6.307098089297824,-1.3031499112955771
2.2600000000000002,-11.328762408954162,-12.568029318248875,-11.469370126332251,-5.343226865460224,-11.122380237557763,-5.793675628529627,4.487116682245642,-2.8814652791809294
2.2640000000000002,-11.448080687889444,-15.401549530733462,-11.600355912378973,-6.189381764137067,-11.763208914616825,-5.227343329549058,2.4585749842992755,-5.060302828734507
2.2680000000000002,-9.495525296590984,-16.04616309523169,-9.592886958715326,-4.7143720278280625,-9.960043443126096,-3.7404846860451926,1.2124089636589588,-6.971481035620627
2.2720000000000002,-5.526640366137485,-13.931124467456584,-5.599064216895499,-0.8757841263012551,-5.523881925204591,-1.6333730840591443,1.3930858040437215,-7.878935321419931
2.2760000000000002,-0.3482245059286697,-9.536250262816566,-0.47705620089175227,4.4991088416924185,0.4967631692810528,0.5819687461814738,2.88983405496856,-7.496164686737302
2.2800000000000002,4.731364658129792,-4.232271941714373,4.476767817377208,10.007234242857123,6.194644105819862,2.407265426552158,4.870955792944187,-6.081900772149083
2.2840000000000003,8.43748051430532,0.3524436769745307,8.045767005279572,14.26512216101537,9.679516578048947,3.5737489458681466,6.24554782299731,-4.2995467608857325
2.2880000000000003,10.079247866472059,3.0905224066409573,9.6022550562069,16.502560237482044,9.984021687442862,4.135107959804145,6.283117997154022,-2.913483935274371
2.2920000000000003,9.831495339735397,3.8338253769886705,9.356484195416726,16.851988312636763,7.498504686537331,4.389629725240411,5.039312397750962,-2.488431339994918
2.2960000000000003,8.554241420446829,3.3162542370237986,8.137367157111157,16.138160117020448,3.669521166939546,4.645503238764036,3.2958120841191203,-3.2144032158258256
2.3000000000000003,7.288718520090697,2.597074578964367,6.893048503183763,15.333670614294306,0.17891229206566095,5.007524559874071,2.0830808083181864,-4.895051756409316
2.3040000000000003,6.701172834396118,2.386608236390316,6.169444204786316,14.979279623255366,-1.9345205704171917,5.289763902686445,2.0664558019752803,-7.074847237960228
2.308,6.7685806852329335,2.6472192419716976,5.848629158589233,14.892697240397183,-2.7213406744289728,5.125021246939809,3.1583650155187115,-9.211979241213896
2.312,6.89792293949418,2.714794307614227,5.326087985018432,14.343263979852338,-3.0971888809596066,4.21684477514907,4.60812802321982,-10.836443130546854
2.316,6.350202471560124,1.808703763786923,3.9515342864306717,12.541229030296734,-4.145988107254368,2.54759773942817,5.4803679964597904,-11.630155241524676
2.32,4.735351722487792,-0.3873245876266651,1.5068324131722761,9.176445891601475,-6.380759796396433,0.44426868161610855,5.244166942072013,-11.4424147456117
2.324,2.2896513196634487,-3.4379077279041894,-1.5779832048306162,4.691277552171641,-9.406302174178563,-1.555224762519174,4.1196892098945455,-10.280571566400113
2.328,-0.23845592195749532,-6.348691661965688,-4.408618437232292,0.1293956389671962,-12.159286483225856,-2.962202772021783,2.9650236868470756,-8.287961059591112
2.332,-1.968886410907004,-8.080540928353173,-6.051385595494139,-3.3159620150818796,-13.529855027680696,-3.5496275562444453,2.7992644391822523,-5.730615912662529
2.336,-2.3304170810120013,-8.081662921907707,-5.9907564181920065,-4.818676685903313,-12.97301720727836,-3.4170323823673243,4.228179267063297,-2.9583250902164764
2.34,-1.287513012561476,-6.502791990537446,-4.32140453135753,-4.214823702144145,-10.727627202540873,-2.8638212098962867,7.115851655932261,-0.35067096461261826
2.344,0.7402128312072023,-4.005605822803204,-1.617770891615919,-1.9757397761933362,-7.572153018754534,-2.1955267470415265,10.673221331873037,1.7385853510395464
2.348,3.1662864319953314,-1.3257527296535727,1.4051588300012554,1.0806307115618665,-4.303135298053519,-1.5784016546651856,13.876328141327576,3.0639739027045607
2.352,5.5508913372539155,1.1354745399425497,4.258966545845851,4.1704963652911715,-1.2784705237606886,-1.0178120592725008,15.984801191687097,3.5618659505593087
2.356,7.708708178407278,3.4088541072733847,6.812393774413408,6.779954044329202,1.6626075815141803,-0.47033358930798386,16.838202095198767,3.391544380347568
2.36,9.601940250630719,5.736276393735807,9.196912949843977,8.707775624464887,4.908396236145791,0.046408347784336,16.810870424303857,2.9152059254017786
2.364,11.138501951056071,8.209636673522766,11.567590468906019,9.954864667605989,8.620014027516163,0.42737393041511496,16.492922589333602,2.5846963249625787
2.368,12.05619266063809,10.535945618919698,13.888560866209787,10.573547771509993,12.437164979009822,0.5657278892708746,16.31562355843141,2.7925261500719216
2.372,12.032638584811593,12.116339907737824,15.906414417031897,10.599961768616538,15.546077503593096,0.48666427804255363,16.349352503500768,3.71180536226359
2.376,10.916352607034753,12.350020358180302,17.243577564337215,10.045687488563203,17.04355658944519,0.3898127424974973,16.329643614681686,5.1895173308714675
2.38,8.948868122319766,10.998358203091925,17.588190197982613,8.962721499618397,16.40676420486284,0.5680587596363011,15.881742731541749,6.775475475707481
2.384,6.8012233938447935,8.380571604532463,16.84778787520986,7.5056410080001115,13.78331427449632,1.2208703114316677,14.783463003121255,7.890856076288287
2.388,5.328345176345238,5.261739873729653,15.175472890146352,5.934962559872815,9.940759290760184,2.2793729992669114,13.095450434287045,8.085368220256896
2.392,5.180058734093393,2.52529856215898,12.922320264670134,4.587930921091811,5.945462140484096,3.390156187959178,11.131451023014392,7.264916297896093
2.396,6.461734995249458,0.7940205220207872,10.511425128469796,3.799937803881903,2.7407308048250343,4.073393887910697,9.294013856590709,5.78295864437996
2.4,8.663884283547304,0.2045367551076538,8.33484512829682,3.8161607400134017,0.8503030769810493,4.000308609000626,7.904315352945446,4.3240697824528525
2.404,10.894793652960686,0.41330838641079026,6.669151848117622,4.682208362855022,0.29359181762106346,3.201511323997238,7.091102252769247,3.5937235402429906
2.408,12.283931486274014,0.7851013414883141,5.597817811936466,6.139857582320587,0.6924215837698284,2.0705238257060046,6.767892819382155,3.979810771566463
2.412,12.373659245508009,0.6800207784457939,5.000471351670626,7.62085775485059,1.4848678605005716,1.170029090858634,6.700727228231813,5.356222030974891
2.416,11.267022625424204,-0.3151075933141101,4.566887083738038,8.356148609964976,2.121297076007977,0.9234678584139147,6.588097980551197,7.151279931741328
2.42,9.504578886758338,-2.255354825930226,3.9072896537842325,7.632957163090168,2.2077896535945456,1.3934300684745722,6.147380222375091,8.644061924623088
2.424,7.768422554926985,-4.8130704342817126,2.736968769711666,5.119444813823861,1.5986841620787118,2.2564913784849523,5.20282990870021,9.328398631526284
2.428,6.5828050303680925,-7.351932783958546,1.066392842617347,1.1102418442707176,0.4584040027253877,2.995284238662407,3.766734376595309,9.169865361055258
2.432,6.17635332394849,-9.071157892484393,-0.6721495297676938,-3.4375127956732285,-0.7210133104404122,3.193837205270029,2.099495859297008,8.593230849280872
2.436,6.500241880982344,-9.247577515708144,-1.7250020152108618,-7.189228086992216,-1.2263468293965616,2.7444897976179163,0.6694992706470657,8.218673978177776
2.44,7.352887526027757,-7.518149930444565,-1.3004813308265284,-8.931286069708676,-0.3599601563988699,1.8818563210923003,0.008787497102616726,8.507680491802375
2.444,8.48859851339688,-4.115008872564204,1.0492631116380835,-8.093305056508257,2.2279653971037305,1.019430620450521,0.4850715809442363,9.502547962759309
2.448,9.649535369821422,0.07956131255696164,5.130678270584212,-5.038766688217038,6.261946260543937,0.5103135664348883,2.0912185645169075,10.829010770783043
2.452,10.579979767200882,3.7762651359857955,10.10803036974039,-0.9371874102358788,10.808147828594088,0.49365015666217005,4.386898906929218,11.94242103062038
2.456,11.046702716516108,5.749371404300064,14.774781351413822,2.70922024055983,14.544254162768539,0.8645236413155999,6.624042930832161,12.471255650439616
2.46,10.92006430874602,5.359689788600008,18.02241859996343,4.69097628363329,16.267059351563717,1.3875769231667618,8.04234198094241,12.438825576312865
2.464,10.279379489742269,2.8745322353570373,19.270677068344867,4.561083224099548,15.406907097804833,1.848605546179897,8.187577446501564,12.210897064583833
2.468,9.449848960157965,-0.6073760576123277,18.645572468377168,2.737361856507505,12.299768167477396,2.143918061312206,7.084642306434489,12.224181567039977
2.472,8.910580104129735,-3.621087821665128,16.851511945389234,0.22513514359900455,8.05949431972806,2.2710840237330103,5.185527990439823,12.638937370451231
2.476,9.034943721735544,-5.020460151180714,14.752877665401911,-1.9203265576387594,4.059122323894712,2.232998330407554,3.083918492772682,13.147232550878698
2.48,9.824958882107921,-4.5184327603911925,12.938312016829627,-3.070389219202866,1.2976240282630442,1.966751513304871,1.1914056973216702,13.086155256859456
2.484,10.819838368782257,-2.798279640346209,11.483896062560802,-3.214594317967226,-0.025932706564731234,1.3603246365812538,-0.43963744123857396,11.81884681879933
2.488,11.249774612289684,-1.14992579095167,9.998949032609062,-2.823798508384698,-0.5259711705700738,0.3441460221872603,-2.0603633810840165,9.186066134044495
2.492,10.44159940785994,-0.7834999875026369,7.960382135460122,-2.467591152256091,-1.2062528289638976,-0.9824890128836614,-3.9497734556039177,5.758424364271605
2.496,8.243169565049811,-2.2012348495752576,5.090622502641736,-2.448202048989515,-2.842340080173585,-2.300433429543773,-6.11721617770263,2.724824883950305
2.5,5.2354237040621,-4.935374980702022,1.6077201433311075,-2.63381224727641,-5.491972566758136,-3.1289141092634054,-8.163251675227002,1.4162768042306197
2.504,2.5814726226312814,-7.780712476955273,-1.7908740155819487,-2.573327650580154,-8.396396575305857,-3.0001073971341157,-9.39613218794375,2.6758425835728303
2.508,1.5128936317527177,-9.414947933324356,-4.228727559646359,-1.831454887556447,-10.337888605121861,-1.6943729684749087,-9.18021002672549,6.385829812861175
2.512,2.7342115799026487,-9.04578767685473,-5.024837234372853,-0.3061180429591559,-10.238072646994397,0.6041218899865726,-7.287939273588563,11.39808875007634
2.516,6.032929140439933,-6.773379503521824,-3.992469900306105,1.635407450696107,-7.688402202526277,3.306655090837694,-4.061033874939312,15.95393762945082
2.52,10.326159933121744,-3.4881464514489835,-1.4927553596332928,3.299870407037247,-3.1347043974276403,5.6021333980379495,-0.2728193661084788,18.411257032043522
2.524,14.134226024129248,-0.39423446631815295,1.7527925405215683,4.00031107712141,2.3426465795926106,6.740297493986645,3.2236911912141295,17.933117656412605
2.528,16.23414461844436,1.5578511757984188,4.957614216130196,3.396099630210074,7.508562891096517,6.306914804860753,5.8644067440372964,14.836242832393054
2.532,16.19050764770043,2.0609672112734643,7.5585646595884555,1.6815668671514459,11.457129922407375,4.389660665647625,7.567510049325847,10.413541700872202
2.536,14.453431643855879,1.4540418492292702,9.305123360508333,-0.5255774890545126,13.831185315601033,1.5319323740395703,8.626124935590497,6.318916009677196
2.54,12.01296076166193,0.3997243812908664,10.179632811517195,-2.508070150848198,14.729258359999221,-1.4879623047215773,9.40393271730818,3.820118451277267
2.544,9.826137640559978,-0.5325745142690721,10.234720555577951,-3.805229019704484,14.422233301552069,-3.9565744899928177,10.043606044004264,3.280793287575989
2.548,8.325606489240158,-1.1405523069357741,9.46250225532981,-4.4071164426954965,13.104044332030526,-5.469529165361109,10.36512384076218,4.124981407004043
2.552,7.314786529576622,-1.5574270551827567,7.840510725643753,-4.641257095725223,10.861740494128071,-5.987753597195251,10.045481916206882,5.267648110908567
2.556,6.252113129115969,-2.003198783994776,5.469704038691589,-4.855442506146346,7.845579745774785,-5.7253088582820055,8.931365446104337,5.7716687641845965
2.56,4.738627341832284,-2.5005379601512914,2.723172629809369,-5.077375500175776,4.490985904979198,-4.926644434563514,7.28003120748599,5.358582996292853
2.564,2.879415408780801,-2.783065875812781,0.2281701076585705,-4.9063173828926665,1.5434343485583213,-3.710824863658445,5.714244266798914,4.46554323710825
2.568,1.245280091878044,-2.504500223483774,-1.4088521433995993,-3.769874099548133,-0.23063588828244974,-2.105563134499789,4.853348101139545,3.8388111445538016
2.572,0.4699727656131927,-1.6038989935719883,-1.9763269514060084,-1.4034376077399884,-0.5208232950592446,-0.23774123525618052,4.842492912607213,3.8916032977292616
2.576,0.7031346696703622,-0.6054429134383099,-1.9704186543240212,1.698857169646999,0.12649882994764994,1.4362149951853098,5.040978086731457,4.234817619007572
2.58,1.3051237078556142,-0.5842792629077849,-2.5595595298980243,4.215695894591818,0.3242706804530826,2.0774005934085835,4.134746231921326,3.703916868507804
2.584,1.040986178017306,-2.723417434238854,-5.120586786258173,4.457776663416553,-1.619824899722289,0.7063864846300021,0.7117826137832708,0.9257871889833496
2.588,-1.2860935791438806,-7.651248563395711,-10.523741174970382,1.1896417216062218,-6.83865500882257,-3.306276900225839,-5.961448539887897,-4.830511780588722
2.592,-6.0457163777125515,-14.871032975631806,-18.45405002250277,-5.55657934299461,-15.111741478420754,-9.710523231180105,-15.317337555819222,-12.992334552244074
2.596,-12.325887715106546,-22.66028348294185,-27.217097653120163,-14.175657265983773,-24.625524851706587,-17.159571687463085,-25.39499804448974,-21.604761866378112
2.6,-18.116019757030813,-28.561914369973238,-34.187309393810665,-21.92301295727475,-32.49286703427447,-23.489222283135405,-33.39294007630497,-27.954561377082882
2.604,-21.116056683580496,-30.316051214924073,-36.792381147878814,-25.976712996374317,-35.87752009974133,-26.479910751890657,-36.670454941116986,-29.657859229547967
2.608,-19.82179874669032,-26.844451570018464,-33.63654164442005,-24.669540792105636,-33.23043789785197,-24.80171567460002,-33.78974031646521,-25.692033376358722
2.612,-14.302094470745487,-18.78418672940893,-25.176520089823953,-18.255893037786336,-25.012028763028184,-18.667941045761836,-25.112525712346724,-16.883826142096495
2.616,-6.279173515521393,-8.332507424753203,-13.65999105551623,-8.852738693391075,-13.561065131464375,-9.871141029048886,-12.715290423060878,-5.61967273802702
2.62,1.5890633249927077,1.5690304674974414,-2.27648576575848,0.4716092943149306,-2.1367746797516247,-1.1066265736940295,0.35998444107940486,5.0887583167423145
2.624,6.898151551903879,8.37354138186447,6.106541676562756,7.025116520062284,6.418465849695849,5.117959871527546,11.201991462924298,12.735446842676993
2.628,8.544581577173972,10.86226964971911,10.011019663663092,9.566803562671794,10.752603028979593,7.477773911521581,17.98740642201892,16.14872330282924
2.632,7.148528423979769,9.496396576282905,9.784452988284329,8.658136822165716,11.344158984334172,6.28164380130238,20.44535334000193,15.673305603912013
2.636,4.6203705738955705,6.044538891212142,7.19376846339037,6.13590888865042,9.9858976022781,3.1539768765851477,19.663411837216927,12.723418459365348
2.64,3.1308025205648846,2.708904420597719,4.457478572736136,4.056427072944416,8.752435544263108,0.15917380555220006,17.406903755512303,9.006557201995292
2.644,4.02831122757641,1.1699430987503092,3.212277195011211,3.683187955759877,8.994355633980149,-1.184881689370286,15.29869792311547,5.806122579489056
2.648,7.223681344748002,1.9547410191364634,3.8757578978058973,4.997589385696301,10.82791129530392,-0.53218434134169,14.200378293249287,3.640808850800113
2.652,11.35682225039659,4.40138975851778,5.712311505536036,6.959378564417648,13.322584599334732,1.3284514240285716,14.060671870241094,2.3613188458439254
2.656,14.595343139659462,7.1469108192993644,7.440764316999321,8.276432154024405,15.184610755044332,3.058393485617671,14.203133589717709,1.5384130811085015
2.66,15.614672720325416,8.854830720315022,8.02308978036308,8.216604436431453,15.516737270912017,3.5501287594856876,13.85199194876077,0.8636022765140297
2.664,14.247159575131036,8.832439396907603,7.205318502556111,7.007308822401228,14.241685902141853,2.4705595338987223,12.605369976642123,0.3401457800700882
2.668,11.469007407752088,7.2537026520642485,5.533508884245293,5.627979240666491,12.014068500797748,0.3117182674586729,10.61349765369232,0.22068102407865808
2.672,8.805419723734303,4.967396786414156,3.950762767661672,5.182320438044826,9.765229375082981,-1.998854947773907,8.438415969756988,0.7629148965033892
2.676,7.475351522597066,3.0060798651268215,3.193334998146838,6.197392522638893,8.164568959456119,-3.6807574250087782,6.678701168403677,1.987355055298849
2.68,7.765609833392546,2.0770850838953265,3.3804113744135975,8.273196058875783,7.333403352425876,-4.492185464851445,5.6097394745534075,3.5834262594898973
2.684,8.969517909919432,2.290631512561049,4.015592288175412,10.273050792331105,6.938589518359095,-4.744307507427038,5.045320447553422,5.012406143923727
2.688,9.854373365131096,3.1961534394563387,4.328432833688112,10.914418007382437,6.539232586462958,-4.9903402614472725,4.467151861301318,5.748103493641793
2.692,9.405169835449215,4.08852290749428,3.7816449085580643,9.455728300253213,5.949013463578467,-5.594924299749891,3.3667217685747346,5.498280155966768
2.696,7.404364334432785,4.390454011982683,2.4011107791279755,6.098029361721046,5.3682090540216905,-6.485405990619711,1.5743500520889029,4.3212479493317915
2.7,4.555419522805096,3.9252670978812603,0.7782191033743402,1.9250819740118459,5.232779617584129,-7.201165240571299,-0.5956339169742932,2.5973051141554606
2.704,2.111865215752914,2.9662288885842827,-0.23771822900835105,-1.575890566052749,5.895264092528123,-7.1967052460404375,-2.461156394982936,0.8687973722885545
2.708,1.197144656715409,2.035321733724004,-0.02239369747803721,-3.1904297731828137,7.340354067640874,-6.2017626536558055,-3.3042705571810984,-0.3649297090132677
2.712,2.2331621948351312,1.617448585150214,1.4995794542878684,-2.4823748910093855,9.150222787267921,-4.386902111725703,-2.7024034261607994,-0.8157420922216261
2.716,4.739936417615127,1.9155737629557734,3.8021158402220863,0.05978932189373154,10.714239691473722,-2.275137644154711,-0.725080720850201,-0.4768046562703603
2.72,7.5929348729791855,2.76489844599746,6.008980685560346,3.2865177372300423,11.555429710674616,-0.45751891958116175,2.0896972261198243,0.40565835430379593
2.724,9.577989567117129,3.7403493085946593,7.3046386701876145,5.9037551169162725,11.568379186472612,0.6875062268150032,4.9621220619924316,1.4264421956831939
2.728,9.936532516219813,4.375928101504542,7.267090288159125,6.985599826552061,11.02809463094627,1.0998278025958825,7.154782959868044,2.1585180292995574
2.732,8.66492207233614,4.397264245724273,6.017372593061282,6.291761498844153,10.38998895325858,0.9413841234622851,8.208830819657578,2.2709817361665046
2.736,6.415424785347,3.8281845782660184,4.089585446046613,4.247914239970669,9.992546223425279,0.3755535045211218,8.032278904386203,1.6077852374228314
2.74,4.101349828743537,2.9329844392484574,2.1412613330460317,1.6615698841135327,9.863510354851542,-0.5909246917858582,6.857053114997825,0.22017073216647987
2.744,2.451763784725358,2.0544945013421057,0.6712202916580736,-0.658018189835957,9.74389782805656,-2.082557930283656,5.129150117684958,-1.6591436735147909
2.748,1.700557800292927,1.4106730539742784,-0.16748418616293748,-2.222908372847087,9.28582154621131,-4.178075050361258,3.3652422928735177,-3.6731020816578166
2.7520000000000002,1.5760906790229683,0.9944148640609001,-0.5435309132685688,-2.9655924547323593,8.310732280471484,-6.691879800415791,2.044323604785859,-5.424091029662122
2.7560000000000002,1.5292820456400023,0.6029282757135661,-0.8055267697418458,-3.1402501000204666,6.94068742924901,-9.108958021169656,1.505930709742188,-6.569681127365584
2.7600000000000002,1.044699275641392,-0.025078982095919855,-1.2949202368577062,-3.104506523967757,5.533873930794243,-10.75551453564458,1.8522084275555244,-6.910021022705678
2.7640000000000002,-0.1168449354177028,-1.0337947439847994,-2.1972009111423176,-3.1045533693463767,4.474986230927698,-11.127464766004323,2.878372348463472,-6.455365144448024
2.7680000000000002,-1.8515684807248363,-2.33654057845456,-3.4974610021079116,-3.179387317765759,3.957106089664876,-10.183384053708778,4.081570224220286,-5.425874820519766
2.7720000000000002,-3.789198624211167,-3.594958645103816,-4.975563721583967,-3.179250905578101,3.918178843510759,-8.39698316449494,4.818706792860212,-4.182869651613601
2.7760000000000002,-5.4709959538568,-4.333320081786951,-6.283188705589737,-2.8975361296438678,4.1356751921634896,-6.542360994550108,4.559414371869025,-3.107455560099879
2.7800000000000002,-6.513952220411738,-4.125407678428246,-7.038216798063104,-2.204604050247781,4.421275925662712,-5.287288523496045,3.1451471719901747,-2.459646244704345
2.7840000000000003,-6.700622000570547,-2.7750631213914403,-6.919265477917634,-1.1180085438288643,4.76543449057931,-4.840625131054821,0.9197321577512412,-2.28894943539035
2.7880000000000003,-6.027940894221615,-0.4518223074373964,-5.8021347871736,0.1794732052846939,5.3012139769336954,-4.893122697946183,-1.3979815274071825,-2.444319078703302
2.7920000000000003,-4.68266161061365,2.313637137630394,-3.831760920440047,1.4119586769152193,6.136191524881042,-4.8606986728955235,-3.036142456980542,-2.6789972085502995
2.7960000000000003,-3.005912397020438,4.7539042524974775,-1.44764710202071,2.2838632465925457,7.149878560424668,-4.316203973545726,-3.5693318206167532,-2.8006575396038897
2.8000000000000003,-1.43262733396557,6.092354592450192,0.7119071703684767,2.5440323601233104,7.932038326737484,-3.323178419668693,-3.170240803515071,-2.7793195727131206
2.8040000000000003,-0.3881575567335176,5.814718630791958,2.0193484525541407,2.0362570212898845,7.939956861739574,-2.452879125122763,-2.5571057369320442,-2.7624867712434025
2.8080000000000003,-0.18201549606408207,3.867462693500329,2.0750843843911753,0.7158668178976768,6.793197423547781,-2.4583250057121404,-2.6518438128050548,-2.983282818619955
2.8120000000000003,-0.894680204201336,0.7324962861405311,0.8895684012190941,-1.317501784488968,4.555574159899379,-3.7689813217252777,-4.0892344570422665,-3.622997414868223
2.816,-2.321424035014843,-2.688298190618525,-1.1090012105876212,-3.80468543166171,1.8026050217529246,-6.129167652081833,-6.850061338415344,-4.699521867873045
2.82,-4.011823931412891,-5.365344439907631,-3.2436891606187146,-6.341354406461505,-0.5951348418161615,-8.60621369952014,-10.21450393404939,-6.055258213688376
2.824,-5.410679208099964,-6.516940119345463,-4.866097247760763,-8.451724546286414,-1.8871377552975446,-10.019849025851727,-13.076900817657588,-7.463163940152981
2.828,-6.0684337909973465,-5.937334124414065,-5.648108199730359,-9.73791247260965,-1.85207018205233,-9.568746392422327,-14.483083814185193,-8.763142743403705
2.832,-5.79760512112216,-4.094886032368095,-5.690187090663585,-10.022716615857917,-0.9476612492358072,-7.292351676075214,-14.086816783593576,-9.956164383241685
2.836,-4.7414893969422565,-1.959607079801799,-5.4464173736616885,-9.450117707080835,-0.12238474296896129,-4.111954034662176,-12.30676181462377,-11.17993363057235
2.84,-3.310201301423149,-0.597622828336398,-5.478009181567359,-8.457579920698208,-0.3599274514033368,-1.381752615842288,-10.09463778527811,-12.563374761845807
2.844,-2.012100735124534,-0.7059310017768325,-6.164684885911754,-7.613799733709129,-2.1992054231754423,-0.20080459357075142,-8.449367839463662,-14.07490621605541
2.848,-1.2862021190383075,-2.3221395861415317,-7.5534899138243645,-7.405101985593433,-5.474172441242217,-0.8535777931538178,-7.950002552504316,-15.449037129772023
2.852,-1.3613227451189687,-4.819307041105958,-9.350677276894885,-8.025972489519063,-9.37642630470009,-2.6603457493138194,-8.528381358700017,-16.26743967161474
2.856,-2.2115935835232676,-7.218826999405337,-11.089824973171744,-9.299570800345236,-12.81904478024262,-4.346325177729568,-9.604558526782512,-16.162359790026358
2.86,-3.6039243925220035,-8.661948194406591,-12.35172987534861,-10.754473903621147,-14.896588459784198,-4.71636943534827,-10.480651858427336,-15.02759236414613
2.864,-5.2072066744777885,-8.803038253971181,-12.92483479532757,-11.832430616307647,-15.228551946510379,-3.2814139286497266,-10.753821980923703,-13.127731564327405
2.868,-6.734934434156685,-7.9451146170686116,-12.873935470983952,-12.152858296795557,-14.051979794093768,-0.5081621659508073,-10.52603213137536,-11.019966281450024
2.872,-8.033579156448468,-6.8232226121530175,-12.442782639455118,-11.674758233313014,-12.030000883010644,2.4421567365800456,-10.267445659462282,-9.320063496224975
2.876,-9.115973668751622,-6.180360178978731,-11.911181759645615,-10.715137681438819,-9.92565883876523,4.298994555862691,-10.457120037551931,-8.429384861477047
2.88,-10.108714590773161,-6.346027429856008,-11.450917009028217,-9.785791097918718,-8.277226556745063,4.312954657049659,-11.205348705447932,-8.349789847685543
2.884,-11.114389505685267,-7.032865043515926,-11.026425131052065,-9.315008589006311,-7.204560555455828,2.605752957064851,-12.075906307714149,-8.688642380522651
2.888,-12.091793966554974,-7.497092344584416,-10.429989650127254,-9.426531193562482,-6.429835246378616,0.07170034853152174,-12.259039943895687,-8.851597449710198
2.892,-12.77558386288922,-6.938096407480998,-9.36436528998206,-9.838142265237138,-5.4470183996768355,-2.046943522690981,-10.975392035084951,-8.338894587594723
2.896,-12.727785473401923,-4.945786641710697,-7.590743682947959,-9.970475508053823,-3.7821857684323277,-2.7089837366224856,-7.918022275234989,-6.9909348256273915
2.9,-11.517310336289711,-1.7496256355271953,-5.065645165930391,-9.209729400413494,-1.2273169580372496,-1.4725024737660988,-3.4843543230945215,-5.054666345041824
2.904,-8.952330268493597,1.869349917268437,-2.0036828363095083,-7.20331844064026,2.0363438019900286,1.411011994937553,1.3467690788625077,-3.0608997429744704
2.908,-5.275249644100427,4.9323208545334865,1.129425374263974,-4.071845798735808,5.466721745693349,5.17980140836039,5.419519150573478,-1.5560378898628642
2.912,-1.1497299378556818,6.734679026537606,3.7736229289439507,-0.3806360546284395,8.369062912595723,8.916100447024974,7.912376695756393,-0.8143045510264528
2.916,2.556068470354944,7.165068862208159,5.481367892426533,3.086054133587254,10.181529669786187,11.859456384641817,8.670082160277389,-0.6777016321379961
2.92,5.111240297653239,6.713139452794735,6.103809451400139,5.657432043157428,10.727304920840652,13.590797000012344,8.197998931713528,-0.6097609570551867
2.924,6.235552000798123,6.184454895882027,5.867205488166519,7.064273169889702,10.307978078547194,14.065640174418604,7.351150646226529,0.04633073899617557
2.928,6.176675217097227,6.250765857206602,5.240463916468798,7.504660988089881,9.55692129145882,13.520877243855466,6.861884587199825,1.7257855791867769
2.932,5.515829350364754,7.090026029952924,4.686234809349571,7.4783370170517856,9.116630792965452,12.345289701334877,6.986623760020166,4.357417662747594
2.936,4.794003583144502,8.294395501972417,4.384420604252114,7.462261918005879,9.278258012369406,10.937154759617442,7.431601212768328,7.292651460686102
2.94,4.180314786229417,9.098592132807653,4.10988240918573,7.6128294489057,9.793007313930957,9.59874119647884,7.5799722280579545,9.518364244546092
2.944,3.4079886665978165,8.823697917677123,3.378085408968218,7.6770655492493916,9.986373258823278,8.47692945103563,6.890742371019087,10.078794772825859
2.948,2.0108149965032567,7.279500389831583,1.7690871719316874,7.149948558071969,9.136797763351183,7.546740979300466,5.226530946161347,8.54770876272869
2.952,-0.23614528582447747,4.943442812687408,-0.6816322761520723,5.637138657871446,6.953402061840507,6.6781485415358475,2.9639509262576667,5.316390441619774
2.956,-2.9919333557663776,2.775578094188745,-3.3316656760142678,3.174148925682175,3.8489559094226706,5.735131055673264,0.8066556583335114,1.5282080541192045
2.96,-5.3828221511122365,1.7432423717532401,-5.140006244425081,0.3121305779443446,0.839707709346385,4.691718847142056,-0.5760002462264993,-1.3480068388689688
2.964,-6.409345123252024,2.3132689779233715,-5.149045799817372,-2.0888114030068436,-0.9003909604209639,3.696865135886924,-0.8576496743509097,-2.138784301090368
2.968,-5.537816246398052,4.164059012536484,-3.034628900617008,-3.2826231833629436,-0.614722249540705,3.031643751234242,-0.17871296164025807,-0.4812816325217
2.972,-3.0934267443856243,6.30771177977465,0.6443637842478438,-3.0170093998953007,1.6573427079920293,2.9836499682484146,0.9946910564739255,3.003408543756791
2.976,-0.18235916589679846,7.585471915893436,4.645276455278577,-1.6530112915214659,5.10797456318096,3.688958668749592,2.171130944845345,6.991974347165865
2.98,1.8622029894222578,7.29537325040809,7.632055650112534,0.05910915760307489,8.59159716900865,5.042037517360313,3.1042952175959044,10.075143019407392
2.984,2.2308192272363954,5.622956959031342,8.862315344148897,1.4278301258402735,11.207765970290893,6.71212238538601,3.8835614581269056,11.387069271085124
2.988,1.1134001520557035,3.5963079171777963,8.53993808435041,2.201339181803178,12.690505070545896,8.254507501276748,4.7814493802787865,10.952932560792192
2.992,-0.3831004645545022,2.577440098512625,7.6657614927554505,2.6843306182991,13.403265940546362,9.280109811846387,5.981580075810143,9.578870398213212
2.996,-0.8863792874067258,3.511575760193921,7.413658717557155,3.484437807202653,13.944933782893145,9.566132643390233,7.35537418621891,8.352987055879225
3.0,0.3753651592825804,6.325173625559501,8.397775071792807,5.044150461077152,14.63674959670658,9.07067796634999,8.445014291769667,8.049996592293382
3.004,3.034531990775065,9.844721773511708,10.279236960123512,7.263900256252214,15.231851850408248,7.881015165040708,8.704291978682477,8.74966114119195
