Timestamp,O1,Oz,O2,PO3,PO4,TP7,TP8,Fz
0.0,-2.0463630789890885e-12,-9.947598300641403e-14,-2.1316282072803006e-12,-3.424815986363683e-12,-8.952838470577262e-13,-6.764366844436154e-12,-1.2647660696529783e-12,2.0463630789890885e-12
0.004,-19.377577761835248,-38.08534529473144,-29.50605136396332,-19.79232744856688,-36.821184406148035,-4.070085304846671,-3.742362259029406,3.767440513419025
0.008,-33.98992870478838,-66.08628841081398,-51.194996811667444,-35.26651446615759,-63.484616422106136,-7.604431858204279,-6.08317792866859,6.5694739024481095
0.012,-41.126631134076874,-78.31866933098522,-60.71296434363526,-43.92598960181567,-74.39128336543371,-10.293422920063591,-6.3380433667752385,7.787862639773124
0.016,-41.1556658413823,-75.6598638900865,-58.85008954792596,-45.99550548914277,-70.70850686632367,-12.159362572651204,-4.870115884286335,7.350531872057893
0.02,-37.021913651768564,-64.44457256136624,-50.641405684671305,-43.981908055311095,-59.17284641074142,-13.479851970065269,-2.8552228013175522,5.709270300505423
0.024,-32.549393069144614,-52.813650298476745,-42.46164782356341,-41.177095607306825,-48.25830225190249,-14.577100007416263,-1.6258977167407807,3.6075314236817917
0.028,-30.51312363661888,-46.618181367749756,-38.80013326257919,-39.9661424580742,-43.92267607003761,-15.594104551902035,-1.987404757157151,1.7472913727345727
0.032,-31.49674935093165,-47.07429337782816,-40.45442955612147,-40.84318529297971,-47.21995365367669,-16.394548808595303,-3.8738292731060113,0.5088368067610816
0.036000000000000004,-34.075526539482425,-51.22829923763627,-44.96478881315735,-42.602212084245764,-54.84620646053594,-16.65972395779859,-6.508958161760091,-0.16561328258845265
0.04,-36.03641657564653,-54.59069619585311,-48.76337582060451,-43.45051704260547,-61.92451877680333,-16.12508167148448,-8.931740845119606,-0.6773415527249611
0.044,-35.813304702090804,-54.11739053250412,-49.55421782197923,-42.27914707907502,-65.105235063164,-14.817195611990272,-10.550222730911443,-1.5310880991859435
0.048,-33.31795342441606,-49.81001341652484,-47.53044457324626,-39.35532231988138,-64.18533152417842,-13.139856582577096,-11.406618239283873,-3.057464206167161
0.052000000000000005,-29.792581864065497,-44.23356622123234,-44.881674522377836,-36.09716086942114,-61.55582336117986,-11.75401642685587,-12.038820421136847,-5.224670332873025
0.056,-26.938278404065755,-40.56804343139267,-44.11779672410441,-34.17797227198557,-60.15970434383248,-11.293783755713648,-13.088806983102103,-7.622647528462991
0.06,-25.930243319879757,-40.56849731533114,-46.376289694863715,-34.544532439219424,-61.42932274195418,-12.053621236577385,-14.902096628839288,-9.615198102949655
0.064,-26.883698057660645,-43.62785225725379,-50.710937133091306,-36.89064875163794,-64.42733888916464,-13.814485245496172,-17.324410656570052,-10.598160713097826
0.068,-29.008709319157703,-47.37008616503369,-54.71499341913501,-39.851512481729365,-66.58693321109715,-15.899073541206008,-19.771491656865052,-10.24347872437302
0.07200000000000001,-31.22099516350044,-49.23346956822252,-55.99309129237088,-41.73696123168394,-65.42258518862927,-17.444818090983162,-21.494768522308995,-8.624712930420813
0.076,-32.75864218113458,-47.98295451497184,-53.53472710639127,-41.36462433795602,-60.06532656221795,-17.763943615164422,-21.89238178637663,-6.178604971727204
0.08,-33.41429133799881,-44.25215782289832,-48.187586760656956,-38.540124115544195,-51.70147214501309,-16.61059012795998,-20.716901869776514,-3.5219977542022676
0.084,-33.293495857844505,-39.869946870667576,-42.001923765418084,-33.964499814044174,-42.719649240664786,-14.242795580205666,-18.109172065949046,-1.2209568445484464
0.088,-32.41269309480063,-36.566608023335974,-36.97093926046469,-28.755767963919844,-35.25731048552832,-11.272240896899035,-14.503680522690956,0.3962916607554092
0.092,-30.524605554803095,-34.96939254317293,-33.99433478269529,-23.938442386655943,-30.134168874987402,-8.400054164651095,-10.485813916022572,1.3063692322192537
0.096,-27.361745571317403,-34.48919832487803,-32.65415793647095,-20.180465778366468,-26.783743170014237,-6.180612224393684,-6.650137900669343,1.717843969502404
0.1,-23.107629742750387,-34.01349898192852,-31.815163736031693,-17.825907773432803,-24.066958413119526,-4.906404260236485,-3.4821517118507472,1.917086126874466
0.10400000000000001,-18.683929581397802,-32.77959708656784,-30.511683440336554,-17.02932550366092,-21.2641489688318,-4.634117745257171,-1.260829485624491,2.103395519199985
0.108,-15.561345213853851,-30.84682731768208,-28.540578440858237,-17.80832961762811,-18.584203400159403,-5.276032473914071,-0.0011204859915281418,2.3045985708447603
0.112,-15.100305353329972,-28.947958696900635,-26.46991242377677,-19.947865443491075,-16.955967660711057,-6.675896449490708,0.5172688850421281,2.409939233706517
0.116,-17.775087455651942,-27.937496465839995,-25.157815778599055,-22.85937020282263,-17.350876631136394,-8.618346583860742,0.6135120158341749,2.2811401222939907
0.12,-22.756299291601763,-28.26540296279692,-25.16473880858522,-25.580544936973382,-20.129358020811008,-10.780309690215404,0.5199189685375458,1.8763158465273264
0.124,-28.120869763829177,-29.75786952317584,-26.39763827783158,-26.997535266051223,-24.76418661137925,-12.705183543667971,0.2599869575563645,1.3004256762979267
0.128,-31.643762669774617,-31.787774658406352,-28.18335404849411,-26.260907580036836,-30.07512103358241,-13.867744126690184,-0.34187033127825117,0.7476457399539242
0.132,-31.791544047080276,-33.67701806782334,-29.687829548630802,-23.205096952396666,-34.79701464406493,-13.840169926834577,-1.5175695927699238,0.3767454889601005
0.136,-28.406183566233537,-35.045377724032896,-30.40088813393535,-18.53500352940231,-38.1432185691407,-12.493517221652354,-3.3660234575767944,0.1989310397146653
0.14,-22.745341005533888,-35.906044054762404,-30.397794028322735,-13.64028480025135,-40.071507423953854,-10.118725788534114,-5.734013191906357,0.06157020143599112
0.14400000000000002,-16.87442308979534,-36.4804235401092,-30.218050064519623,-10.059470628107881,-41.13094976481066,-7.378198934643031,-8.239946968876076,-0.25870685790166803
0.148,-12.767759171944377,-36.94711623124748,-30.498443773642112,-8.859557063241539,-42.07111579268121,-5.0799201871020045,-10.441051326598767,-0.8972476172912849
0.152,-11.581743399812488,-37.342752307668064,-31.606557550205626,-10.235268480963398,-43.47098910791549,-3.86371537004775,-12.030772673670867,-1.7695626670787483
0.156,-13.407458048147227,-37.647581944882305,-33.461712190496456,-13.510911770424478,-45.54636301960285,-3.934227399323902,-12.936149754953988,-2.5522680471112906
0.16,-17.4985327112923,-37.910144704646605,-35.584200763524635,-17.511482203501366,-48.125661243586435,-4.9791597753947485,-13.253132628650242,-2.804264951160924
0.164,-22.701831640429848,-38.19542711199509,-37.24230790173304,-21.03688391977427,-50.66051925290094,-6.319480653923833,-13.045469690807607,-2.1758586045312818
0.168,-27.820629372459173,-38.38080604397978,-37.63138234421069,-23.22209455051871,-52.27712447344622,-7.213533620504201,-12.163808963377974,-0.5823654724068241
0.17200000000000001,-31.801647369021186,-38.01037376172543,-36.07737095616023,-23.676067064296696,-51.957770220622415,-7.186777711528016,-10.245319038093967,1.750951451424882
0.176,-33.790401387473764,-36.40590485572706,-32.26293795440743,-22.418191335116305,-48.87821900652284,-6.232200818861813,-6.938916422665329,4.39574186270664
0.18,-33.192621530918956,-33.04828671414302,-26.41869279297967,-19.728879677747983,-42.78954517673253,-4.7782985151574024,-2.227188623634767,6.918039683920242
0.184,-29.80921474748087,-27.974581547221295,-19.34742685006291,-16.010948132094057,-34.20527430592362,-3.4691552092297115,3.363394606939295,9.03399909713912
0.188,-23.994516697447036,-21.934397773528172,-12.241056556033948,-11.733538264045201,-24.285736247408373,-2.862989896183599,8.820194558320594,10.65316021538029
0.192,-16.728909237638803,-16.18970071808617,-6.338457869767511,-7.442082271601045,-14.488727391447181,-3.1856043428457923,12.984694592525088,11.803676130983806
0.196,-9.465470554213077,-12.020993059493815,-2.5479000779777223,-3.7503880606353412,-6.161070365047573,-4.252692180457046,15.009668397286092,12.501873372473522
0.2,-3.714527006169444,-10.176534779676206,-1.1821431547384442,-1.243516972211566,-0.24678769332391148,-5.578546683810693,14.697010945501948,12.67586319029736
0.20400000000000001,-0.4908190908053278,-10.508947503203512,-1.8736443196864077,-0.2624935531294632,2.841567239163169,-6.602664939879986,12.548869863839222,12.200640023602936
0.20800000000000002,0.07460130555368849,-12.045320459970238,-3.7553717240328677,-0.7123889828813539,3.154136748547568,-6.916334442002324,9.51482988945893,11.021295912000028
0.212,-1.2615458370451726,-13.50291130654886,-5.867156207969536,-2.04604630249014,1.0110109673852463,-6.395634786586051,6.565209584652926,9.27274961244455
0.216,-3.253928758798093,-13.976868945879637,-7.607361420897831,-3.4823308104740995,-3.175227627158936,-5.21462068011224,4.308404693188798,7.293714309363029
0.22,-4.768641158044243,-13.398534969437792,-8.99061383008208,-4.367094466853175,-8.951989195741858,-3.7556857008619886,2.84650943339323,5.515711987755337
0.224,-5.234611021275416,-12.451745761345942,-10.524871012858387,-4.449774338397383,-15.71498807866928,-2.4588625952089487,1.9217701215265137,4.285545062756649
0.228,-4.75150590803316,-12.064307694232895,-12.817276635716746,-3.9526149111044937,-22.63073792003472,-1.6761115610690922,1.2123912559880523,3.736032678450762
0.232,-3.8685500371448143,-12.820249920690264,-16.144946404296313,-3.404896242481467,-28.74355705961083,-1.5808587987472507,0.5806600244725502,3.793884873163732
0.23600000000000002,-3.1640176851081883,-14.58837128687304,-20.19270417663087,-3.3082055795792087,-33.21313124907125,-2.132545189500995,0.15043224153007273,4.307876153932071
0.24,-2.905253477603628,-16.606299809132363,-24.133324568263358,-3.8439729872835926,-35.5911349179551,-3.101397026863669,0.18300736571721643,5.200806185455065
0.244,-3.0007273282101252,-17.97604062192815,-27.028270005020858,-4.808550742365345,-35.98601856655271,-4.144272786072502,0.8533720279837915,6.528163225189919
0.248,-3.200675003476027,-18.21486151167056,-28.30875246197185,-5.789576094280164,-34.96631785077498,-4.9071861145988045,2.0886602712765665,8.376634296436407
0.252,-3.3579783185173966,-17.480784162974288,-28.033974404492,-6.437410598259643,-33.20496646032113,-5.138519770546743,3.5773966116864138,10.660482859823079
0.256,-3.5469897383673317,-16.343892296267583,-26.785088565116435,-6.651651497830644,-31.075029902814823,-4.7839708632884665,4.945260212126655,12.973355316866005
0.26,-3.9763098747655743,-15.31753267531232,-25.298517773522065,-6.5913850018888755,-28.485834967637395,-4.023921772534624,5.966286511866187,14.631774595336852
0.264,-4.7698629488308,-14.471585568910047,-24.049220147702492,-6.516159851396061,-25.058829899961193,-3.213697303820016,6.672187466001009,14.933510344712056
0.268,-5.779000658629187,-13.367589425446084,-23.00196139966794,-6.566396881988652,-20.497378183381745,-2.7289513182546585,7.302477481346788,13.51396826703359
0.272,-6.55943583006858,-11.340591766393354,-21.648603330317634,-6.630954049422694,-14.886592112173247,-2.7751253399919413,8.130749511053779,10.593292965304592
0.276,-6.559760218215612,-7.975158701742965,-19.331844722897614,-6.407075192893961,-8.766965180700938,-3.2556415293021033,9.262179544698931,6.9443407989616315
0.28,-5.448552057050302,-3.5410639459155213,-15.72283743499954,-5.6471393344079726,-3.004539900737571,-3.77706745405872,10.522833633636605,3.5753153555211803
0.28400000000000003,-3.364062547129693,0.8990664933939403,-11.180977178487092,-4.418185147802365,1.4550792400190335,-3.817486746041208,11.505835413139735,1.2869667274564716
0.28800000000000003,-0.9047339096162172,3.8516401197347783,-6.757742367881624,-3.1732839354991427,3.8498711704188526,-2.9937248271911443,11.753695420785753,0.3432574634678165
0.292,1.1518933043846342,4.088610709083335,-3.789297565847086,-2.5529887814433856,3.8123256250987927,-1.3001481343665162,10.983411131624177,0.4199793153824336
0.296,2.2424978789676633,1.2971899826896838,-3.285677335795027,-3.0247545327234473,1.4614100134726784,0.8131310648846082,9.233791499376292,0.8515315557506238
0.3,2.256871013921982,-3.7303150438705917,-5.4668139542610685,-4.612304701706103,-2.669989342082574,2.577948581346355,6.8481618735288095,1.0241652103424466
0.304,1.4882292636795826,-9.474010878100586,-9.684136497875931,-6.891228435334407,-7.816637165722893,3.213125444154981,4.306651239253309,0.6721061203841936
0.308,0.3573605475185211,-14.39670969877337,-14.732450187626164,-9.241906768717376,-13.17421345476705,2.27170490367536,2.0225067922292563,-0.07990734369843722
0.312,-0.8820421796350315,-17.584149596196266,-19.36043320323804,-11.189318887834773,-18.035083198419272,-0.14049530297571522,0.2131570476841116,-0.9200464725979915
0.316,-2.257553162496353,-18.997131256863206,-22.72977083654837,-12.617010593863776,-21.892146901302524,-3.38406052643602,-1.1106647395281382,-1.6417942520959365
0.32,-3.940599732548627,-19.276466616460546,-24.64596083479009,-13.726431212546569,-24.544880940084575,-6.5297989726950405,-2.0513409532245035,-2.3072849950978047
0.324,-5.963455532920055,-19.260786933386843,-25.493358829459122,-14.77715588051425,-26.161019970137254,-8.7195412933015,-2.6981212010975693,-3.171811646526627
0.328,-8.003220902794087,-19.491901426069198,-25.9393489168906,-15.787947417109184,-27.204117279781713,-9.472704248714459,-3.0527754625389774,-4.436707315063322
0.332,-9.393967028519667,-19.931925211728718,-26.544335672287566,-16.394484683312378,-28.170074072742388,-8.811541279570108,-3.0336037126236945,-6.006472193520106
0.336,-9.410809368520153,-20.02772136199672,-27.470221803363053,-15.993444157455665,-29.250052752449456,-7.1631510819534565,-2.5361955907936133,-7.428325421198457
0.34,-7.711432982699072,-19.102628574078544,-28.43694461223817,-14.136480481729162,-30.157187071712656,-5.119954590991415,-1.5004080529623938,-8.074996098469667
0.34400000000000003,-4.651226487776757,-16.825635154311122,-28.900973547774402,-10.928372782773033,-30.24987483036057,-3.191027512250468,0.048208581207712875,-7.478461899690456
0.34800000000000003,-1.2393740429962286,-13.460237040833682,-28.31467333906587,-7.156071334413938,-28.885518187468847,-1.6525725560020215,2.0165257278511657,-5.613194389560951
0.352,1.3060719637489004,-9.726220605251568,-26.310398383551135,-4.004714982653381,-25.78036813900804,-0.5392571853703458,4.3020668662363,-2.9522525844661223
0.356,2.175364695123436,-6.384280642020701,-22.767944234868025,-2.489548501256067,-21.17877099529883,0.2627030113692639,6.831170047442123,-0.2579819015495657
0.36,1.3791788099721973,-3.8552217634158743,-17.82680867879144,-2.9310508994497297,-15.777915358760755,0.8922336355580667,9.531027000440254,1.773927964130169
0.364,-0.2936224793713542,-2.1007500069409115,-11.888836979242292,-4.77150112134694,-10.451622698095509,1.4251639753054306,12.251938422268188,2.8183196644131456
0.368,-1.7557883316452862,-0.8003712432418713,-5.600559042424921,-6.846049059098586,-5.921504992991654,1.8534300643042592,14.70667240406409,3.0064212096660663
0.372,-2.2616596007501153,0.3361081994412558,0.2395521157863989,-7.95894611253935,-2.532679720611587,2.1126379320303705,16.493609153309855,2.7698739748897676
0.376,-1.8360680787230388,1.3169670546844534,4.851123669329991,-7.467771741588704,-0.25450336298879606,2.1121146869001857,17.21969361689421,2.549119529640011
0.38,-1.2367448783317663,1.8063210081424783,7.657576872236941,-5.583311670648304,1.0947188708762465,1.7585529660645038,16.661818428505498,2.557255714154172
0.384,-1.4644783733728959,1.2918808976892784,8.41747166647551,-3.2312649498708925,1.5761602616994215,0.9682754954873114,14.875309847890753,2.7286609285137366
0.388,-3.1032545891076273,-0.5941759106914299,7.260918549822407,-1.5494608928079394,1.0330593835050625,-0.30794164200988816,12.18690197556403,2.8531097943552552
0.392,-5.857062956431057,-3.7522859444822183,4.6431842563403105,-1.2667550611901346,-0.7241051072241955,-2.0262710177347225,9.087644771664314,2.7881731168491273
0.396,-8.598571280638543,-7.49757285612257,1.2271302666581914,-2.304813782947906,-3.602555570555367,-3.9919647512333727,6.080368228044932,2.604432808355152
0.4,-9.936583623629803,-10.77752752233387,-2.2937956759118263,-3.8225417717271153,-7.076243328923991,-5.862785905173022,3.5398360609681863,2.5721268191097515
0.404,-8.986264659992106,-12.627613915635223,-5.361907927660569,-4.661935582488248,-10.352700177212746,-7.247386353805303,1.6557973445584118,3.001914939503163
0.40800000000000003,-5.89006180488111,-12.610066251354144,-7.6468798408905325,-3.951636419145297,-12.774376471962377,-7.864685385413413,0.46826926427577575,4.047252598528979
0.41200000000000003,-1.7592848353141148,-10.981000810879646,-9.03391124959594,-1.5393925717658639,-14.172694601010917,-7.6938563660004835,-0.05223604807206783,5.58671666254251
0.41600000000000004,1.9229156015902018,-8.520413936636558,-9.551665487691743,1.943614502210087,-14.922779433947884,-7.020413364870671,0.04574498592528098,7.258719646974898
0.42,4.074521435088055,-6.169147669700354,-9.333391726838334,5.373786523670368,-15.659222578788185,-6.326505406598724,0.6680432500557778,8.63152972766624
0.424,4.519568661574816,-4.669762116700513,-8.61562649316118,7.618480392936108,-16.797652908038643,-6.060499653660225,1.620856594868819,9.412685421385564
0.428,3.9499754778816225,-4.356062638043427,-7.715274170164681,7.980788224773958,-18.14182488455973,-6.392824179283913,2.593837956126195,9.588997606348583
0.432,3.4189470125564174,-5.116540953493631,-6.921088105333833,6.441095880940821,-18.810960024592923,-7.091389776521995,3.230492091131337,9.424920304338213
0.436,3.6989790271164757,-6.507212155368385,-6.326760184069119,3.62075805201963,-17.58681663693531,-7.607362148691669,3.27572087351383,9.32862582489885
0.44,4.864154937310959,-7.978729170798293,-5.737470739170309,0.49068944897416955,-13.564719501885921,-7.35241094624204,2.7061048448912453,9.654175752978656
0.444,6.332405702561529,-9.098553689790517,-4.730151149563323,-2.0212403427592136,-6.750525111664135,-6.034684471612784,1.7648602506684195,10.537600630952221
0.448,7.31386622931012,-9.666717257581025,-2.8596761115082745,-3.346773029678452,1.7681401403999986,-3.8551005605754614,0.8614321384348127,11.840334641969331
0.452,7.356941288457705,-9.678201532017725,0.09707397986889976,-3.3897881059628974,10.224225965415693,-1.4444338567365582,0.39637805098301016,13.216869661140521
0.456,6.628086254390466,-9.201998387909295,3.980423694395748,-2.4378258235423615,16.930163373511142,0.4328976153801638,0.5984479769021593,14.267128828881797
0.46,5.7378924054668445,-8.305498844207428,8.23427484036508,-0.9731592708836594,20.943329843596928,1.257897981962477,1.4361875484906275,14.698267660617997
0.464,5.249442267545926,-7.0682522433966,12.05909551604308,0.5174184750796842,22.282965889205972,1.0119337384936298,2.6388256662465297,14.418520085737585
0.468,5.2195044243685285,-5.644582748382797,14.67264927181739,1.6713462924018003,21.635671902189138,0.16065746338594078,3.7907217284762913,13.52738668629752
0.47200000000000003,5.09801399373003,-4.284019476230267,15.575654523545492,2.3030683127760767,19.800197245896605,-0.6211656840373099,4.440501267347628,12.21806238249184
0.47600000000000003,4.0815467723833345,-3.270125648717073,14.716338903855085,2.399712683000274,17.236373895633594,-0.8261442667521819,4.201109109333952,10.660897427519167
0.48,1.6982605543540745,-2.835698551070144,12.466269752015778,2.0763515115762736,13.9601749918384,-0.3743879162923758,2.836970901737555,8.94238507963135
0.484,-1.7477433229634949,-3.091808415202342,9.452368057551496,1.520305448275323,9.812990860861062,0.3837339571036926,0.3548656497735374,7.0912786688928
0.488,-5.179015288135864,-3.982738430248626,6.356161014965902,0.9487300288776388,4.894276577226076,0.9249115359081355,-2.9081154086402172,5.170123919018572
0.492,-7.22320947079157,-5.266287371173973,3.7634077965435377,0.5807250861394229,-0.15968527072048033,0.9007907601807918,-6.272558348007104,3.350357014336371
0.496,-6.927998960126523,-6.549388541394358,2.0612754230568076,0.5989747828622316,-4.296663665588028,0.3476392157595729,-8.872139040319285,1.8884600833584884
0.5,-4.360457507843968,-7.435258874707213,1.3177549433163502,1.0571891987761697,-6.586128540865566,-0.3839598645214455,-10.021053171549068,0.9797516210532837
0.504,-0.7624554444593414,-7.74070023557776,1.1555969471369467,1.7603073598204628,-6.873273507070852,-0.9357176622834409,-9.674347599340564,0.5517638809067273
0.508,1.8823686086416807,-7.658467779115022,0.7310713155323236,2.2129306507772757,-6.091765722248589,-1.2771120003776513,-8.718327868263989,0.1350625495286808
0.512,1.6912808008845222,-7.74086929338274,-1.0586066711836741,1.7246371996851764,-5.946667391642725,-1.8332828442628606,-8.82380408260145,-1.0597842210257138
0.516,-2.2691439147846832,-8.672398816703375,-5.116276581742282,-0.3221242485575182,-8.058225443096763,-3.285390173710084,-11.783910049992858,-3.8285877571893163
0.52,-9.520199252021769,-10.928647810775336,-11.600206247871332,-4.143072741780609,-13.017348318973399,-6.125727510834334,-18.55985425410708,-8.52711370807318
0.524,-18.29358597046816,-14.47152844794085,-19.572390828937223,-9.317156813751897,-19.88413002437376,-10.229248322228337,-28.491228116078904,-14.71484814906173
0.528,-26.156580123638065,-18.61686620880541,-27.075098342191986,-14.779517121421327,-26.42988026702603,-14.715637995122345,-39.13645409952869,-21.110514991396265
0.532,-30.86564620440317,-22.158136616941906,-31.693763976398593,-19.095131168721874,-30.0287231228061,-18.224793796665665,-46.96740839488043,-25.94803421823427
0.536,-31.109194735809346,-23.743295650063963,-31.434298047371534,-20.93165625685578,-28.78015028690899,-19.4960774789956,-48.7123467606566,-27.61293230118796
0.54,-26.8685692912293,-22.390709589762935,-25.562961914278873,-19.54291131399796,-22.34349147440611,-17.947807334015852,-42.76487271268233,-25.269810549675107
0.544,-19.314094919986836,-17.934627064449636,-15.012533106185344,-15.05507465048499,-12.089418907646618,-13.950638067355209,-29.993864621266397,-19.19368902167629
0.548,-10.320608911883685,-11.172886931017578,-2.1264811955329392,-8.413182448700756,-0.5078333059191777,-8.647225808311749,-13.529055474348322,-10.649506208988463
0.552,-1.8132473564070821,-3.599426654283068,10.18545542977013,-0.9977322487398403,9.834337619360461,-3.421768101712301,2.4298177157004197,-1.385068899149168
0.556,4.8089996391415735,3.162188126782164,19.475602178114933,5.896882879545879,17.248689460160005,0.6863436878856968,14.22946226860122,6.993811240102139
0.56,8.975367319632422,7.940001439385647,24.481386754687122,11.453032299218282,21.31877763606595,3.3147408561870617,20.03803037646012,13.458033860690769
0.5640000000000001,10.899424604968385,10.35163948273462,25.278693314601185,15.434985736318268,22.638862257207816,4.714535507341443,20.25133404851126,17.641144340080753
0.5680000000000001,11.277085635705665,10.782877736239051,22.893265987173947,18.015402149230546,22.15944126505457,5.38679456903816,16.940577457883307,19.626424936143952
0.5720000000000001,10.898939923439254,10.082236873276926,18.68158909459667,19.485102939477343,20.58526562628617,5.66788164125607,12.713385446869369,19.633158189895116
0.5760000000000001,10.354091521627112,9.1587298712805,13.839775175698207,20.057335913391583,18.170511188440422,5.534304744674131,9.617365618279079,17.847496263692445
0.58,9.91602864379087,8.646423001466847,9.198739844795186,19.848982458340444,14.911852671195073,4.723051493330605,8.549782581240681,14.492714904666318
0.584,9.61720203840202,8.768435666290765,5.278728072414408,19.010596107191205,10.918309539594404,3.042677374162625,9.320306349068115,10.042320800062711
0.588,9.402316902423832,9.39883404936932,2.4224344778749183,17.85868268261349,6.646231637853485,0.6488138323307653,11.151007254269816,5.360088240521433
0.592,9.264775416632977,10.257421867103034,0.8495967021223638,16.883333991502916,2.828887521202552,-1.910496349879415,13.229532396186706,1.586487390987351
0.596,9.292064971971492,11.10704173029718,0.5926573819816944,16.581810858511258,0.14658418587680178,-3.925609319804243,15.011113363771152,-0.24090168474343088
0.6,9.591678188313484,11.824181312281567,1.3836699299292743,17.193772413441756,-1.1607348490922238,-4.872862763128053,16.207096808473466,0.3573486997653834
0.604,10.159873506229001,12.33496432803446,2.6392613392797344,18.506023587289192,-1.4695540254848627,-4.663710549509483,16.61912127360249,3.031252149813197
0.608,10.810760309567218,12.519408160796946,3.6485987294192315,19.89284657245625,-1.5757047535537598,-3.6411778202967584,16.048693569243163,6.705463417591993
0.612,11.240313812022153,12.193501380288616,3.9098788739300687,20.614332248931706,-2.204642452875486,-2.337679601358912,14.39497545231241,10.029970294076458
0.616,11.205344963445656,11.191968727299765,3.407396128190223,20.209827502638333,-3.529153342091523,-1.1670958844025079,11.837836876310698,11.943955390307263
0.62,10.712649611702673,9.482070994334993,2.61883807798053,18.752343239554147,-5.0211040531615945,-0.24140854873875317,8.909911360458892,12.064075619503132
0.624,10.109247107058811,7.230913366960944,2.22787675477416,16.819295390529334,-5.736146719236032,0.5925665800317188,6.340804459639204,10.711315005798813
0.628,9.979216446395046,4.772398075919207,2.7011687766999364,15.1726763333856,-4.869540945302724,1.5391784293522992,4.724788250029236,8.5989961233402
0.632,10.887623173758257,2.5030050373768864,3.993189796786692,14.341902184978053,-2.243108995247624,2.628210705643316,4.204601927914846,6.39183394403331
0.636,13.086379136029052,0.7570776367606564,5.5598557386096195,14.351334470611302,1.5508849682583765,3.6346242082998117,4.393091586035506,4.395075401284311
0.64,16.31667457032084,-0.3115933737490728,6.643114148895054,14.731660594474139,5.392879961988221,4.193420882619071,4.606534810068061,2.5278667055087247
0.644,19.816728467051206,-0.8001951931259538,6.646714004680748,14.800254234327337,8.11166067148788,4.017616338540757,4.274077133015867,0.5415528642163903
0.648,22.568593607277457,-1.0288097069261783,5.394148378231139,14.055346303099663,8.935589636993761,3.0725188102055534,3.270137588208383,-1.689644814018724
0.652,23.68782247007102,-1.4010603524754432,3.1574706184753185,12.465075326608439,7.72281067354072,1.5931511333597395,1.9667953675098215,-4.003005080447296
0.656,22.782033311392468,-2.216212115235093,0.469756878923564,10.493380991673064,4.902669541938524,-0.058456018883290106,0.9697206593012044,-6.000974278388616
0.66,20.12415874600716,-3.5288768823172356,-2.1559576107754292,8.8522791633317,1.2030313280553298,-1.5844377492844717,0.6959553557183545,-7.261481123122618
0.664,16.560315845233024,-5.118892870800623,-4.430535159986346,8.134393920595539,-2.6588631691145306,-2.865615508915094,1.0672249885564096,-7.553032290709485
0.668,13.182099402487875,-6.591246003830243,-6.326928213299767,8.52444777700186,-6.174797266773281,-3.925249452638924,1.52015513220905,-6.917712917939577
0.672,10.913460808605468,-7.551109268532983,-7.969811417330398,9.737153119719972,-9.082161320165065,-4.797118911084888,1.3256366473343693,-5.599448785422834
0.676,10.191365694501723,-7.783721326329063,-9.48419122680789,11.193780307330675,-11.301237464321765,-5.417342838983446,0.013658007772543668,-3.896408484532916
0.68,10.860905557650025,-7.36520731305024,-10.921570416515152,12.3072088815669,-12.88884457182164,-5.625501603098197,-2.3426521390887496,-2.046525822693223
0.684,12.30066512736352,-6.6502567379806194,-12.284898337159731,12.701403781978506,-14.042171473760614,-5.301736502659535,-5.170404394274622,-0.21882020312319028
0.6880000000000001,13.713330786064304,-6.1305401250049165,-13.582637459878992,12.275898894282719,-15.088667207488715,-4.528776330249718,-7.726074547164214,1.4167000051939258
0.6920000000000001,14.453461499161113,-6.2128624036312345,-14.82449855627334,11.129653330331752,-16.374698594285313,-3.6453247517083263,-9.483286869856412,2.6295720209291265
0.6960000000000001,14.266751911279762,-7.018265533972466,-15.940688905930333,9.441951209084877,-18.052049179394057,-3.128734146688844,-10.362223409827264,3.154579454582482
0.7000000000000001,13.32797473220673,-8.334462375895964,-16.71272597964606,7.39270267057308,-19.892442865888505,-3.354590809703999,-10.678911272027491,2.809435256134277
0.704,12.086527512045043,-9.750214665187585,-16.797352221778496,5.169459296002216,-21.267110907885325,-4.372816477439042,-10.861858412368916,1.6324377732764805
0.708,11.016807730137606,-10.889615943228158,-15.871680203131366,3.019525583357429,-21.358676076485807,-5.841981857273631,-11.140172708633623,-0.07073779460962903
0.712,10.40479552333617,-11.591619265608955,-13.825708912922567,1.2649719567312387,-19.529899481126993,-7.180312999959703,-11.39410589068612,-1.8288022781471724
0.716,10.281277457641151,-11.928111594672549,-10.880755318910378,0.23246013819352696,-15.667871718634958,-7.862906947532627,-11.249447172407706,-3.212268378161646
0.72,10.486658646283287,-12.082701782353105,-7.566909488295142,0.08878958735329112,-10.336236529281113,-7.691827156734275,-10.361876068864502,-4.033485360841281
0.724,10.811337681251224,-12.190017894387658,-4.5574504962604365,0.6824365868903155,-4.641011302251164,-6.88807368127714,-8.709594861720005,-4.43065267656638
0.728,11.131128757032583,-12.240856302980543,-2.4308166956673536,1.516968917505503,0.1482106366782876,-5.949723102469038,-6.712430068044386,-4.788588512235087
0.732,11.493118765645844,-12.092161227163356,-1.470233071854473,1.9403870051581373,3.060846483256162,-5.355862570445936,-5.097507090640605,-5.545566896522166
0.736,12.078027473062548,-11.57700217578249,-1.598901010283456,1.4725887636880985,3.7512763337630037,-5.290517785896214,-4.585268659686211,-6.993277991682861
0.74,13.05808626571256,-10.64310106435767,-2.4773753136341936,0.09569157406813833,2.5352740023712306,-5.539799183532656,-5.567087009064629,-9.15956333755162
0.744,14.438059795297187,-9.414775683430133,-3.6887850017945563,-1.6731832025362392,0.1525354990168104,-5.625854955796712,-7.943278944643133,-11.808697395354693
0.748,15.949390456305682,-8.139993377179689,-4.901604341361968,-3.0080135710967486,-2.589144356631575,-5.1028816936251795,-11.187169485172912,-14.532544116525184
0.752,17.07252335970241,-7.04751371235332,-5.922573679211798,-3.2025683825708935,-5.087826052304816,-3.848415866838596,-14.582369437083774,-16.878187474304703
0.756,17.197946846572705,-6.221528265556358,-6.655646900591437,-2.078632957770587,-7.039657997678805,-2.184274689971212,-17.502881144842966,-18.46430759098249
0.76,15.868344789400059,-5.599634619328979,-7.047698692573994,-0.14333999480415383,-8.396458403398794,-0.7471078833934819,-19.61133155852903,-19.070104513891778
0.764,13.005680741705914,-5.092754945047847,-7.075520963631517,1.6252631599231337,-9.268756170204975,-0.17893967595590143,-20.89092145581145,-18.694856783946804
0.768,9.011068708310171,-4.732252451114338,-6.777330973901279,2.2781373824736226,-9.84765291109092,-0.7976135207867254,-21.498653498728096,-17.573662228622936
0.772,4.667875802750372,-4.7161847216123665,-6.2782934481568695,1.4141485206199889,-10.358420823868268,-2.413679708917416,-21.56101626331938,-16.13299328571025
0.776,0.879636121261691,-5.286052038062171,-5.746368578101212,-0.5688935782804156,-11.000979824244277,-4.399900967019399,-21.031857542853963,-14.864168399508152
0.78,-1.6810337466634957,-6.527402416915114,-5.2938259236281295,-2.6706162448292208,-11.862564610983283,-5.979830988162103,-19.676031375784213,-14.120271352000351
0.784,-2.869894837887889,-8.239486396779153,-4.883847786579538,-3.839727008608408,-12.821229592881313,-6.597460311328588,-17.19936844823923,-13.922085439470253
0.788,-3.149910737636099,-9.975500021341126,-4.320684346164226,-3.5723242107651743,-13.507113353018708,-6.180911130296522,-13.473229382176868,-13.892406642752364
0.792,-3.394682888309549,-11.254082483508169,-3.348591486295388,-2.20614652371831,-13.380276306045529,-5.161476691103322,-8.721093586973767,-13.393914227052418
0.796,-4.4841630324349735,-11.820109048357853,-1.8209780328041647,-0.7230594715517111,-11.933205569386878,-4.23933547831685,-3.567860491783633,-11.845020653298446
0.8,-6.868573816078872,-11.791363624603438,0.14581946782459543,-0.16176509034251296,-8.963543924386556,-4.0064821857127795,1.0890043184101583,-9.072558192217468
0.804,-10.326630301626054,-11.587307753510968,2.149561812047857,-0.9813577092766113,-4.773550351700974,-4.630549715672069,4.3652610094544295,-5.5127468338394845
0.808,-14.033296870226204,-11.653903456684994,3.656579848864488,-2.7514744338229176,-0.15328750595497675,-5.75942067749131,5.718126732850169,-2.1116940404456233
0.812,-16.91676663446557,-12.136957910986506,4.273795393980193,-4.365720565267339,3.895343835527521,-6.703500646998488,5.1760202561818325,0.05652759173029631
0.8160000000000001,-18.134250715501942,-12.708046528021768,3.993273427791422,-4.658911816170512,6.585653524220132,-6.797323672608117,3.3640612612862117,0.28869899420008993
0.8200000000000001,-17.45535250224773,-12.694150992241523,3.2467913325350057,-3.092894006826132,7.689114120492679,-5.756055413808136,1.2877878226846686,-1.3853183219429077
0.8240000000000001,-15.363477059707265,-11.453393808995376,2.725100343522552,-0.09596134928490496,7.615319469888147,-3.834953547611594,-0.045743107480444856,-4.171687550422904
0.8280000000000001,-12.832904668255143,-8.787799830051624,3.034540982999297,3.1510240651240826,7.174741314146087,-1.708334571186394,-0.01749382937517785,-6.833395144828099
0.8320000000000001,-10.891800434519071,-5.1340050503751975,4.375035723408075,5.371942550404377,7.158956621476526,-0.13498975074904296,1.3702909162547057,-8.213432996553063
0.836,-10.176965770015217,-1.3927309592726012,6.422746565371976,5.919251847290749,7.962645427257774,0.4117510550286072,3.531453268339428,-7.71058460985249
0.84,-10.69560185762763,1.5101542514387987,8.472077177482197,5.1253935784709554,9.429758628795174,-0.051232167703566756,5.58305528357568,-5.480480994384172
0.844,-11.87318473494241,3.0945607022985016,9.768720288948382,4.083398781320797,10.9980151072835,-1.0796656131167994,6.743652973153285,-2.286613412257685
0.848,-12.84094709140462,3.5509936785821568,9.857321325884088,3.9941951048329334,12.039620577710034,-2.0668656893811788,6.658351543887807,0.9016010933847571
0.852,-12.817354604140515,3.594867435865863,8.774383083363427,5.466081921039839,12.207281293905995,-2.5494414939468077,5.5137370248492354,3.3460276971896774
0.856,-11.407594323500483,4.03003863335328,6.998394907157582,8.18714710396915,11.60338259349874,-2.378076271345159,3.896905246935921,4.803225088427265
0.86,-8.73019850884598,5.245514692364676,5.188897456205994,11.143184856512384,10.68502677053017,-1.6707690275344818,2.484412023010062,5.524817185840869
0.864,-5.358777904135703,6.937063754356628,3.861465048897463,13.225421458238653,9.98359154391376,-0.6221255406830756,1.7246688208192795,6.033115046131451
0.868,-2.1382058031485407,8.217174391340956,3.160097770840796,13.841547670311728,9.806447112052878,0.6745409825071356,1.6711963405086725,6.811544417870144
0.872,0.0540335363981459,8.082686090429704,2.8536295647744296,13.168747725479028,10.106506134556245,2.2582178629042913,2.05506693221415,8.068328872560985
0.876,0.539705294173932,6.005040755438958,2.5409370175680763,11.917618746706932,10.587227929878733,4.158420815238128,2.5291363890019576,9.659048861572826
0.88,-0.968610743052873,2.3133621715493273,1.9293387372090223,10.788031381127473,10.956471185691878,6.205399928861814,2.929240886447546,11.178685549271908
0.884,-4.272164095987474,-1.8588653902040884,1.0326637432852923,9.981136783317094,11.161122695295028,7.951784460135597,3.4056388658487466,12.157978644293213
0.888,-8.707903630107035,-5.056990585292768,0.16971699622749536,9.085141050274181,11.445324871380153,8.809321838359478,4.333959727731008,12.266612847466698
0.892,-13.296468058493128,-6.185131197528214,-0.2312355902677563,7.407039271545056,12.203977252750569,8.36361421367859,6.055622749803729,11.443312217107161
0.896,-17.011528623273257,-5.04098896570346,0.09938004336898487,4.528156194509153,13.722370305981997,6.682110507959272,8.604137489844105,9.916494355776432
0.9,-19.082128950685245,-2.4311927973188645,1.07010734330321,0.7189549917571741,15.942342125932768,4.406284611254634,11.568030661758257,8.117460128565593
0.904,-19.21357930210862,0.20211824729260108,2.2090359442807515,-3.072902203123733,18.388314083118523,2.5196598723685066,14.174165279987278,6.516502212685552
0.908,-17.626551631544906,1.4727311923707322,2.8621430375508745,-5.664510371976738,20.304139303274276,1.898686144177443,15.577503610217919,5.453645309693863
0.912,-14.891185537198307,0.7257170820506287,2.5229739723939635,-6.233854032362356,20.94871587980995,2.878663144858619,15.21388632001895,5.031456807371537
0.916,-11.623279599222522,-1.6251051931651823,1.1367752335125192,-4.697962555812102,19.924950707119617,5.092366539248231,13.046183568064288,5.114463774947691
0.92,-8.220797655759931,-4.284418060501455,-0.7933511931228612,-1.6760536616266961,17.37335772062087,7.691121627545108,9.589126554832315,5.436360722804437
0.924,-4.784531003150001,-5.714252894476019,-2.3894954289512462,1.9135527460611024,13.942422304596601,9.817592265604526,5.697288070452016,5.757357584707256
0.928,-1.2645934692303529,-4.917911846670698,-2.814373619724531,5.34447225586791,10.544111406130348,11.053943631463348,2.218319297123924,5.986022016381216
0.932,2.260663780192263,-1.9729223186742075,-1.7282994882311744,8.335965304396384,8.001266512569913,11.578510517870432,-0.3206473387052422,6.190295016097189
0.936,5.367086892354489,1.9728598851537833,0.448901175927765,10.936676251608485,6.743213636580008,11.940940910622775,-1.8543449880230058,6.493031135252033
0.9400000000000001,7.300290115399157,5.242130078983648,2.621718216548403,13.154237228436946,6.6582652295318105,12.613318204996762,-2.6944800818071237,6.921757604436585
0.9440000000000001,7.2587581807849695,6.440084425402037,3.446682122062273,14.642268467321905,7.152088509041069,13.609495726222592,-3.288666647880694,7.31308243529424
0.9480000000000001,4.801077565616598,5.117303824344483,1.9278444130561612,14.704957198152549,7.3788266216005685,14.424801753918352,-3.9542175795443546,7.354382421456255
0.9520000000000001,0.18103216150282053,1.972248754208314,-2.0846053146878747,12.680523740594706,6.574799562277792,14.358755935209693,-4.718921693736079,6.762878090155748
0.9560000000000001,-5.602745987003916,-1.5032583251762377,-7.737715801712401,8.480408868683755,4.377965951996234,13.017938131704764,-5.334791161646947,5.501267665473507
0.96,-11.142525060363536,-3.766254277552445,-13.46797223247957,2.912298950116809,0.9990162473635138,10.681257204911107,-5.440168548396066,3.8937526697412297
0.964,-15.19720022259197,-3.9694597924871693,-17.616826319114708,-2.477931494932033,-2.823448747629338,8.25841972256687,-4.771040788899295,2.5432281454116694
0.968,-17.21336757439689,-2.344209244505922,-19.106584136626473,-6.0319553655848885,-6.088272952412223,6.836735619738131,-3.3140108050134813,2.064797423694591
0.972,-17.519475301572406,-0.03636108958569051,-17.850149979577328,-6.769806374690509,-7.917323321414658,7.069256054397821,-1.3170245676666923,2.7658602139123833
0.976,-17.07625097263606,1.5118184215123158,-14.698554468862145,-4.896190207040307,-7.895973619124975,8.764584181629878,0.8247519401723298,4.435810866860043
0.98,-16.916502997807594,1.2835648279686316,-10.983882343958994,-1.728641464175154,-6.233928209170232,10.937132456585683,2.73187661367023,6.3728159140468845
0.984,-17.572422449861516,-0.8503916281507959,-7.88894772628985,0.9452196770289651,-3.666350276493211,12.310455133460273,4.169778414049145,7.657201534665693
0.988,-18.788355300659738,-4.143580746031149,-5.968887441753305,1.746086421656235,-1.1405934041325931,11.998545020399552,5.073611808327192,7.538610481719487
0.992,-19.690064411689946,-7.416916258547845,-5.042019300346844,0.3558849342405779,0.5776151032751011,9.978582688163229,5.478427069203845,5.748955612352231
0.996,-19.318000771588128,-9.653203598290448,-4.455151843889948,-2.371674606071349,1.210727443548464,7.080658739224073,5.435618249197187,2.6002999495175896
1.0,-17.227966357066748,-10.433832542809604,-3.558631268761994,-4.893132339814139,1.0290934193618568,4.504748041610556,4.975171635474173,-1.1612603248303763
1.004,-13.821426168348207,-10.010229332041643,-2.11374013264013,-5.772304740322767,0.6409270242456042,3.1520181714765836,4.14375713973552,-4.6620047939982
1.008,-10.24677092046631,-9.04200384710786,-0.429838869929406,-4.392711440525933,0.6133167082105544,3.1465933418053194,3.0727008046100543,-7.215236817991988
1.012,-7.912000046438308,-8.185747295486873,0.818615964848167,-1.2401763445199532,1.135690733443191,3.8165323302939838,2.0089409790876944,-8.505833442414232
1.016,-7.846800155871126,-7.762625378915741,0.9782543541624165,2.352649307071573,1.9133417983874539,4.133205914105358,1.2569142611810138,-8.59560827986118
1.02,-10.240043473980363,-7.677803428359127,-0.21770417212357085,4.830567291125775,2.347105502512977,3.34012128748173,1.0542834558898493,-7.7875979870174135
1.024,-14.365544749930166,-7.5924377591026655,-2.4944724926228714,5.094934954942423,1.9001030152576188,1.3984889393867528,1.4472926501416676,-6.453204532351635
1.028,-18.879594551381953,-7.201204479208567,-5.1622382726153395,2.9467953318907316,0.4368502834624053,-0.9890740385903576,2.2419617539961467,-4.906412972578241
1.032,-22.340377611421392,-6.435364461876551,-7.428248545173243,-0.8665945956415229,-1.6496469544726526,-2.7722462768859275,3.080370396950126,-3.3622920716706224
1.036,-23.706712181528804,-5.474948752023005,-8.720753070757446,-4.976558471422415,-3.5904637919997775,-3.124057144778651,3.6231655654688786,-1.962328187979895
1.04,-22.616843801776124,-4.589474823313984,-8.877581055396991,-7.927226058255041,-4.595244331469375,-1.863805045433951,3.730994356084696,-0.8137031029429922
1.044,-19.404810106058044,-3.936243521733358,-8.132087124280213,-8.709219461241679,-4.210211637211749,0.4901073718869937,3.5437423802361154,-0.0011827811183229286
1.048,-14.938988934864371,-3.473511017512011,-6.955908312927493,-7.129892119363971,-2.5080293188765523,3.031754757673769,3.399227165413077,0.4368078485555609
1.052,-10.360171775967942,-3.021211760910677,-5.839544630953,-3.8779933177378823,-0.006533652605285489,4.944601280973815,3.650997668545537,0.5590700465161866
1.056,-6.792510906987506,-2.4142611425999463,-5.101318424980105,-0.25488466574361546,2.6267570302743,5.871062549548301,4.49151939927966,0.5486660829134546
1.06,-5.076031080097509,-1.6443880603073928,-4.801909376405503,2.3237213618290316,4.89224513586711,5.986889640917292,5.868401391985143,0.6767373956221805
1.064,-5.540589454071052,-0.8876365199385372,-4.767939572532284,2.8899744793406095,6.632843616350117,5.78137912829564,7.523366033146832,1.2066791035470192
1.068,-7.866694208228075,-0.4060590784585978,-4.696088787165336,1.3208165344868794,7.983440006235599,5.709679395133479,9.115844157869429,2.2703637356881483
1.072,-11.110437140009036,-0.3811403345513913,-4.287486029768718,-1.605886235597267,9.166619135871912,5.926781372212416,10.353965260816803,3.76514859377899
1.076,-13.963562924065592,-0.7823968883064794,-3.3658509210420116,-4.543626139512188,10.287501068808455,6.2384170252073865,11.056049628424923,5.331052864130369
1.08,-15.21615697168956,-1.3587351948906137,-1.9563572180614281,-6.172759899758381,11.249868103236764,6.2622775387962335,11.137300011474057,6.435230799129268
1.084,-14.262201091565133,-1.758859267208496,-0.2920344108456585,-5.783936750348474,11.832936534613143,5.676226037729529,10.579019531328363,6.546630690612195
1.088,-11.405571262504639,-1.726396279866432,1.2471059239262232,-3.5697114208229843,11.841356952298126,4.416112672610419,9.430831354582066,5.345988297760808
1.092,-7.776532729012102,-1.2542650619746682,2.2504193496985083,-0.47943052788470464,11.214715012408462,2.728803624851456,7.865636003481888,2.8822098927812996
1.096,-4.839714326344719,-0.5958244040683729,2.430104218995141,2.297998241032717,10.04152291158822,1.080138985320556,6.241516088521659,-0.39943834053342986
1.1,-3.7324189465320963,-0.15752996693597776,1.7269980389279453,3.92413640888711,8.472098869008667,-0.024413071681080645,5.077492100630664,-3.7896231808419447
1.104,-4.729291548990545,-0.31200914607617714,0.32406330575795117,4.263467409485708,6.618114205582499,-0.21629627594319034,4.88566762295765,-6.57222859818074
1.108,-7.12277992517149,-1.2320136029473439,-1.4491976448498676,3.8098342229722224,4.510556332596844,0.6203527999899634,5.910213976769869,-8.300711781366486
1.112,-9.604653133665048,-2.8270933070086626,-3.280438352994951,3.2480800502543845,2.1422198261644514,2.3081289421616638,7.900811745260331,-8.975125388680452
1.116,-10.943515860672719,-4.785862092687937,-5.01761639412754,2.933356604091639,-0.44958966654458976,4.402819993112193,10.077521691567975,-9.04350088553615
1.12,-10.59490168919185,-6.699412168210098,-6.7160615902032745,2.620517246086214,-3.1371361313828743,6.294461180728785,11.369429430322278,-9.204412446157566
1.124,-8.90717083111059,-8.201244356275623,-8.554583009112836,1.6231616401779139,-5.7349849173707685,7.380655194134979,10.864467699982004,-10.082661108380705
1.1280000000000001,-6.826323497687748,-9.06628275728309,-10.66095389074276,-0.6977602441150417,-8.08096912421716,7.276704134378283,8.282149688895466,-11.905789497577983
1.1320000000000001,-5.2932409431922505,-9.246393783184953,-12.93726338459418,-4.418925802499601,-10.08663062161545,5.995685433192019,4.2174714696749485,-14.327428242449246
1.1360000000000001,-4.675481598443456,-8.83695085022138,-14.981356403623614,-8.83732621216415,-11.686313854095609,4.002080755422657,0.012651481249478458,-16.490794744896803
1.1400000000000001,-4.563265418511783,-7.9984583027487215,-16.171475720069424,-12.713266455803973,-12.716201646016206,2.0758974920136755,-2.735801768586093,-17.329143840995858
1.1440000000000001,-4.03354219582877,-6.870608625085577,-15.90770586870636,-14.85322116100251,-12.844136631720847,0.9968624050181041,-2.851105278044918,-16.01248585225119
1.1480000000000001,-2.251465650736842,-5.544803678578301,-13.922450591250122,-14.728916755238558,-11.671131444877183,1.175221380641985,-0.12275286089862547,-12.349111225972122
1.1520000000000001,0.9760354903227046,-4.075370598505955,-10.494475590041036,-12.763603928132298,-8.989732204239795,2.428121837582726,4.547923948968826,-6.956800935696368
1.156,5.0242381784478845,-2.501561944632087,-6.426877321675601,-10.111698323054862,-5.053105601347209,4.041001363084572,9.499382600061296,-1.1170877835388975
1.16,8.759269004087884,-0.8554929800560416,-2.76128704823288,-8.043243425963192,-0.6516503150181769,5.124044951674994,13.0285994244147,3.6713908825221324
1.164,11.172616244893163,0.8575793266894713,-0.3268597470753445,-7.256840728813824,3.1432832793270506,5.1038482066249635,14.158499450049966,6.272843776129321
1.168,11.960313466256366,2.6701061008724167,0.6461375296063352,-7.521332515568819,5.469251790846267,4.081201950755226,13.07939566251558,6.3607775271889615
1.172,11.711373128904839,4.64112437498302,0.6441762287514017,-7.8410992609422,6.135419451455412,2.829615188535013,11.027584988427986,4.509571505194123
1.176,11.598705647332151,6.815820235923989,0.6255210196083363,-7.048435062380875,5.763673196004687,2.3937069870526724,9.63285690410786,1.866382275920154
1.18,12.713750585782215,9.14174172218582,1.4818828434256996,-4.519716841143249,5.436382465898298,3.4678217646809997,10.02470097438148,-0.46121966391489977
1.184,15.386173148807906,11.378874395138922,3.464270121242296,-0.6408810893889596,5.991326753066907,5.8862261059909695,12.128059661906057,-2.0023946333491214
1.188,18.862701470075887,13.058815319348712,5.867196384656113,3.2241274187046365,7.339887804068582,8.531063763784289,14.513282688279517,-3.187562879027219
1.192,21.536485087218043,13.56029987300564,7.188898633460248,5.263168954378607,8.258979007406499,9.755426793400206,14.931431192208969,-5.110622219164194
1.196,21.650044393007907,12.326935879149179,5.772079545718961,4.005885452466415,6.889105374664036,8.146244020707648,11.340546766432444,-8.88528870853462
1.2,18.14153696008008,9.152057126372135,0.6382200153019428,-0.9972500677426837,1.740121930219086,3.2591087491503234,2.962545999662625,-14.916302560041125
1.204,11.231273142030407,4.40135923820897,-7.878801180625038,-8.910384281714345,-7.318894500290714,-4.046291515232369,-9.134323115492133,-22.47739415546605
1.208,2.472185958583426,-0.9676208896676712,-18.041821784207457,-17.873320941068428,-18.66586721315166,-11.845975665252585,-22.23358680604399,-29.837524744877342
1.212,-5.8007693990566365,-5.66551471030573,-27.266678570471253,-25.676157219696783,-29.41656407481523,-17.872737931101085,-32.88646609575203,-34.9058426943357
1.216,-11.369347356863958,-8.518008892875974,-33.08450400574171,-30.541364259152495,-36.58413068033988,-20.379456229778384,-38.16407862175984,-36.081674820133145
1.22,-12.969665036825502,-8.912446337561516,-34.07411417396647,-31.68912197120729,-38.33518754681859,-18.75850840086506,-36.71008131795034,-32.89020130606397
1.224,-10.717199895971643,-7.0385027346598745,-30.333971227227103,-29.477923389486335,-34.68964937859555,-13.663530194325451,-29.133103171714357,-26.094911405783755
1.228,-5.9479946518704265,-3.8040813544485537,-23.311076379319807,-25.106390372212232,-27.32749156363873,-6.635918238123401,-17.630064640313545,-17.264149707158634
1.232,-0.5593250628599336,-0.4417563994220908,-15.108060442159806,-20.03582756389517,-18.645944550127197,0.5410007548199509,-5.072124031608849,-8.057383939744065
1.236,3.832045489402727,2.020760958301689,-7.620666631578452,-15.402206315159045,-10.602059034249514,6.458346095561945,6.013103643373644,0.37943702622564945
1.24,6.502159211645184,3.1585149174007228,-1.9302026189060761,-11.687980055922356,-3.980510625461594,10.42287600016543,14.126980781252549,7.61489129203181
1.244,7.752112263440903,3.2267240132926824,1.8113610102421251,-8.758073977463212,1.5662524362076136,12.44459402451093,18.929803146941268,13.688936918411606
1.248,8.535858736384139,2.8912014118286384,4.0465068972674505,-6.193344952272847,6.82190798610325,12.969847203215517,20.902835679391757,18.651960215678365
1.252,9.8121595498191,2.7868494087686644,5.306415228232055,-3.7028000646236396,12.153210736256204,12.54249693511153,20.81498462450321,22.217898714332968
1.256,11.982131464572227,3.1727988430412752,5.86759630319742,-1.3724248311444212,17.06336588437076,11.55934897516118,19.313673569100914,23.76176427026936
1.26,14.698487862857702,3.8718158456239706,5.738609624681192,0.3734795138803829,20.41641231288618,10.191438682844602,16.797776389827646,22.65974842303076
1.264,17.120418423030802,4.504583104710777,4.904826267185477,1.057882116682504,21.155094633424056,8.443840540762265,13.523569270716296,18.73908678817906
1.268,18.41004341855795,4.830601518513184,3.5942010113602203,0.4892897536750263,19.0239421976491,6.2794318486425045,9.785396942650001,12.555428841691908
1.272,18.1824984343358,4.965351963912289,2.3338024304933094,-1.0583817070009904,14.835719205262011,3.7271963034529874,5.995437585038637,5.315977942883549
1.276,16.663441407764914,5.332061106494722,1.7407150026280838,-2.929735298768354,10.125010606353712,0.9358272202021158,2.6105008872446547,-1.5157537500930112
1.28,14.493418084712156,6.363869756654011,2.168790044173176,-4.3855762067470865,6.392322295172197,-1.823828991160489,-0.02212167351091976,-6.7168587065516245
1.284,12.334718554607747,8.156848869119038,3.45499659464829,-4.933788297228142,4.398833272342603,-4.205139957478636,-1.7723134661598512,-9.653149142145935
1.288,10.533661211558304,10.297609178605338,4.944745015192963,-4.509352516231478,3.903728808514071,-5.8624332339775425,-2.714795002073995,-10.328069061017555
1.292,9.033846818008062,11.997780788936765,5.806786582716319,-3.4031622468839453,3.9590711386346955,-6.536408705566432,-3.0180868379543653,-9.164048293871058
1.296,7.553882905536594,12.479944812867782,5.464952975008717,-2.0163948529382267,3.545416747124957,-6.142944621755477,-2.823311234774253,-6.701950387584316
1.3,5.855502901242995,11.388992180011092,3.8807316561765584,-0.6342022160712046,2.1319435727226153,-4.833175108718558,-2.210233639361487,-3.4056445718059356
1.304,3.924257515598624,8.999120912751469,1.5412067334821584,0.6507251300234215,-0.14215014959687888,-2.9798704575855455,-1.25589522332963,0.36390488518990427
1.308,1.9323635879433247,6.074414893233129,-0.8370260064983794,1.8197136382982615,-2.7186851512172026,-1.07910237327998,-0.11419855071159812,4.268185510521894
1.312,0.05220256244896326,3.471094497686657,-2.698526208099806,2.741484953389364,-5.077114738487542,0.4101157869434514,0.9629625244292637,7.931626841289932
1.316,-1.7082874852140364,1.7257172470479736,-3.883622666479185,3.0959647577973186,-7.049359498872646,1.2201266091608987,1.7158704789311088,10.986460143064964
1.32,-3.514710695151539,0.8514884479683753,-4.5884889380139455,2.5022754578705646,-8.79736076816959,1.3521399369180962,2.030036898641211,13.200930480739776
1.324,-5.533789840335089,0.43750284116803084,-5.11056921609639,0.7950869329520645,-10.506095084326255,1.0344893542950153,2.0292219968700342,14.574510497446628
1.328,-7.714879406022901,-0.04434380894600998,-5.575416562140821,-1.7466539824185054,-12.055898868560536,0.5841201296645981,2.0170648582120485,15.300124755914759
1.332,-9.70433517590484,-0.9093474124837944,-5.821307087497376,-4.402261897116408,-12.931489868941107,0.23421731708180982,2.2899555459644794,15.583965319656638
1.336,-10.982598525633016,-2.0874109764490147,-5.5115034018517886,-6.297518888501374,-12.44908852940397,0.015416454914668698,2.92283262547015,15.42637127249029
1.34,-11.1675897559682,-3.1846552306047293,-4.37963793802054,-6.849820244858389,-10.166624814241471,-0.2431084337199061,3.6717349375908865,14.52794152849744
1.344,-10.271613885659391,-3.69177865705373,-2.4225710188841534,-6.091309543970613,-6.201382371960554,-0.7962281160697544,4.084775412403873,12.42331577031565
1.348,-8.720280301815313,-3.216328064534732,0.07191778284805839,-4.66055427720463,-1.2610987787440138,-1.8103407691308637,3.7701123485640595,8.80147422531589
1.352,-7.111613872598459,-1.6321158562758535,2.6772933199117963,-3.449371303160767,3.634743003199079,-3.2354174492191965,2.665382521463245,3.832272063652616
1.356,-5.840358850056527,0.9056421397464938,5.047864013396529,-3.089576346152665,7.582358086879098,-4.794764801549079,1.1283571260494405,-1.7176219639835981
1.36,-4.847213973996823,4.036074481321969,7.043435481085344,-3.596336040372349,10.120328678831248,-6.10126094876125,-0.23112989087491265,-6.684905147845843
1.364,-3.6797103366445096,7.29264930591993,8.680913243514095,-4.3966713169237135,11.289006756756645,-6.843014343019028,-0.8829079719414334,-9.968058164473057
1.368,-1.857528558780139,10.17293593481441,9.955054676508949,-4.743397006216529,11.425473712225383,-6.944512910977993,-0.6893882859202485,-11.011319191346242
1.372,0.6949718383045518,12.208636953784588,10.683785264979733,-4.254428860462289,10.870898864220454,-6.616934030043381,-0.012067468686785432,-10.05278374842973
1.3760000000000001,3.455918543899408,13.072955108911387,10.528118251563594,-3.218415524499922,9.804384373192537,-6.264029049027107,0.45900514731022213,-8.000927683508499
1.3800000000000001,5.48900643723448,12.692848120738862,9.189244523456006,-2.46504278832402,8.279648355107181,-6.286188421649733,0.05930933832395979,-5.995516576295053
1.3840000000000001,5.923237237897853,11.305474610396828,6.66497189312418,-2.857467248187133,6.39226768344388,-6.879828295246538,-1.508310368026189,-4.886983431615064
1.3880000000000001,4.4365916025828565,9.378283196431223,3.368970734987613,-4.722355800876585,4.3928003886813425,-7.930828754651428,-4.033861742181961,-4.8991688992412605
1.3920000000000001,1.4418860019260966,7.386322269040729,-0.0015123002738204327,-7.589799365405069,2.6302130572550064,-9.057589847231187,-6.924388044918103,-5.625730293949889
1.3960000000000001,-2.142243789895435,5.559901740576237,-2.7904058714541273,-10.420272246690086,1.35522636897139,-9.789893777107796,-9.485526623785374,-6.32565198840561
1.4000000000000001,-5.381610378498088,3.768914838770207,-4.713732904813386,-12.205008509083733,0.5246794339333949,-9.785798988712473,-11.19813722268801,-6.32370133815912
1.4040000000000001,-7.781468610035002,1.6475538039662192,-5.981672315333713,-12.583694546491877,-0.2206753423149328,-8.985074746509175,-11.856700571459852,-5.306853369255145
1.408,-9.42193740747752,-1.082853667071924,-7.125816560981839,-12.087187756275199,-1.3581497414738193,-7.627383210621165,-11.525746153235687,-3.3807479395882973
1.412,-10.702702473088056,-4.277646913973788,-8.621045924801676,-11.833366154951786,-3.1655922223298845,-6.1309864790581035,-10.393925450706648,-0.9167481152408437
1.416,-11.89563452952057,-7.246471154075454,-10.520321030773387,-12.836667477097778,-5.480614392471279,-4.894896770247745,-8.644972339187621,1.6625293490434931
1.42,-12.823009669461555,-8.97405990016173,-12.34331973617657,-15.339078821571679,-7.711423893950608,-4.13123062823991,-6.446854591937049,4.0064005498871165
1.424,-12.893318813192762,-8.607278309423572,-13.296994916370814,-18.563226690759166,-9.109056880074247,-3.8114875853679955,-4.037415566945133,5.81865801006808
1.428,-11.496511460015578,-5.973571383146829,-12.726905171573366,-21.066645587909832,-9.168097303399534,-3.745456526831095,-1.8015325596573675,6.768849982351119
1.432,-8.508307010989885,-1.818053714117683,-10.53718964018951,-21.512436345388885,-7.919601722452686,-3.735330157396279,-0.24882241795265259,6.456443441354654
1.436,-4.55353216321091,2.4274992386905323,-7.313394596456628,-19.418853772786125,-5.926769616278222,-3.7018062309704685,0.14012902187814724,4.524271825481904
1.44,-0.8389746134128784,5.259334813362649,-4.068154739678403,-15.470848136361335,-3.992815413048235,-3.7100515257532707,-0.8643652994926923,0.8856822082068558
1.444,1.3940740360376727,5.79489660151955,-1.7457759887228423,-11.20540939994744,-2.7566058200535437,-3.8894459151213043,-3.091321396485996,-4.0756503286276065
1.448,1.4919058815047186,4.164492912816072,-0.7670127117795111,-8.253967089358667,-2.417039872154273,-4.303615689094379,-5.9887167491960085,-9.483597772415946
1.452,-0.2690904148436857,1.4005423130098786,-0.8707239014321573,-7.555075408919764,-2.73310364275036,-4.863881446247888,-8.819318756319063,-14.19206059822397
1.456,-2.8169200563963988,-1.1054398507622918,-1.3287135606811882,-8.950606961035415,-3.2598852156429974,-5.348323370679196,-10.948755973833121,-17.179989741096847
1.46,-4.775087821133722,-2.2441430981004022,-1.379817834401826,-11.33025939116252,-3.6330933997477013,-5.499815578844329,-12.05826209795596,-17.910006478563282
1.464,-5.0507460243283475,-1.5898557061569036,-0.625857953474589,-13.206865859003027,-3.717173817769634,-5.1419672840881185,-12.169914641066995,-16.467954994885563
1.468,-3.263568263329233,0.5818473236174002,0.8066271518064814,-13.4294581465901,-3.5687013795212055,-4.2522946208943395,-11.492421242983372,-13.426881470214049
1.472,0.18248214414569564,3.608387831212482,2.397983339324659,-11.665585912502307,-3.2840330163413434,-2.948759992039241,-10.205260984275432,-9.533989772152188
1.476,4.345853360378266,6.841652569038452,3.5467697431532876,-8.462143689581737,-2.8817018433694406,-1.4155426140030496,-8.339070785297803,-5.412303760809526
1.48,8.121703428737694,9.87253466228108,3.8493559189881923,-4.936878366762812,-2.336665070338774,0.16548914202373854,-5.82479335600121,-1.435200791572625
1.484,10.580923859004178,12.507777197324238,3.2060903319451324,-2.28357547723186,-1.7321998339707427,1.6305451528546584,-2.674944159312891,2.2005567777280652
1.488,11.175000517598113,14.589969493989713,1.723426277821332,-1.3299152328293031,-1.4044069425318846,2.8043276216032202,0.8231463329105668,5.308916617933552
1.492,9.81077536045747,15.867562535123461,-0.4666022425707957,-2.2956725281602184,-1.9144482395213287,3.4776708528796725,4.054765666411904,7.62644051273817
1.496,6.849815103279964,16.075462161671755,-3.29528904342634,-4.77746579858098,-3.7794142613573496,3.453892749157599,6.2513150290971,8.898527145045936
1.5,3.0398039080290484,15.173627134219739,-6.685365402579981,-7.920988208953362,-7.091696009236314,2.663112691623499,6.8249009816806705,9.08926696379348
1.504,-0.665375697047347,13.538589203444179,-10.38016941442896,-10.711212366422318,-11.271418048537043,1.2694804173323955,5.681229094050341,8.538610486938214
1.508,-3.4175651750927205,11.893963693018595,-13.843608405507315,-12.307944934441885,-15.169636270547807,-0.3188518475121702,3.3220478776712348,7.909376690082933
1.512,-4.838870512107241,10.934917045782715,-16.353343652261827,-12.34495886787534,-17.532481393724048,-1.5867914493258974,0.6613852055634697,7.891370906231878
1.516,-5.262744094875485,10.858197255733199,-17.27523056271298,-11.085338725865746,-17.599967712769825,-2.1514805691597205,-1.368987770903117,8.801037689864387
1.52,-5.641296300970135,11.132245331436973,-16.374956950391645,-9.331861931423434,-15.506434787827699,-1.9664712992222089,-2.235007180084021,10.328197956996
1.524,-7.099454641563966,10.711349522646085,-13.972499797645218,-8.084208004590808,-12.24192897833488,-1.3623859890460301,-2.0207075047377776,11.609792752636624
1.528,-10.298262364975509,8.641251871522122,-10.830349007770144,-8.0548557826922,-9.174808814005834,-0.8718274705247753,-1.3306849478450578,11.641278533511404
1.532,-14.928152165699958,4.731899960400705,-7.825200283426236,-9.26705817533382,-7.393142778767774,-0.9271778847936921,-0.9457912642608148,9.816281819562315
1.536,-19.654666166723413,-0.11637952933724705,-5.568885067133319,-10.966144203634505,-7.218280869011204,-1.6039597421146108,-1.4120382477216131,6.283177912028734
1.54,-22.624062883296048,-4.18444637751265,-4.189034655705671,-11.939090433797594,-8.146656880162611,-2.56842276225778,-2.7656439110577247,1.9136819130833826
1.544,-22.32459688815452,-5.724324013466874,-3.3859562023510863,-11.119130661558298,-9.229055949774274,-3.280317426266138,-4.537834285726058,-2.1172832266773844
1.548,-18.366530831351227,-3.8657447043328337,-2.7228636931241317,-8.17873481294934,-9.64908136553186,-3.322125948469233,-6.024695455867478,-4.90622328443254
1.552,-11.745211567850369,0.8746338895984418,-1.9452454150511382,-3.76745756675357,-9.144435841803748,-2.6497936597097222,-6.655829084864758,-6.219833407329295
1.556,-4.418320994997233,6.796855838602493,-1.127732125275124,0.7701437639368849,-8.038497155967638,-1.6034324113953295,-6.2607891289666675,-6.4995333237906765
1.56,1.5984247792153887,11.838862181974768,-0.5749885015314624,4.065835868598835,-6.9050074980691125,-0.6666092625811737,-5.100630278168298,-6.484837389574375
1.564,5.122682466121851,14.555991164438165,-0.5698097948351455,5.4219168574303085,-6.126520833569995,-0.1343146349517429,-3.6787184296888356,-6.698847552674987
1.568,6.22218236309967,14.71688527570998,-1.1640554138630366,5.125681063665654,-5.6699552792326475,0.0911366612930129,-2.4702879991231,-7.106196580343626
1.572,5.9558364334531735,13.206194538762084,-2.164309888343447,4.19642301290208,-5.225301072902656,0.4277214488421235,-1.7236839863376134,-7.147547328162126
1.576,5.619236408641706,11.337335317233435,-3.315839104872012,3.712332827672326,-4.593727251487715,1.2977727448614753,-1.4346144045911577,-6.125024072619669
1.58,5.971372327122358,10.014442281385964,-4.543657828833229,4.126749692455729,-4.025584534797137,2.7719161629853035,-1.4849532930296254,-3.6949023937690706
1.584,6.884179218152524,9.254234886392414,-6.047542327583563,4.9971524489745365,-4.215094771526461,4.422513845152257,-1.8174934207525542,-0.17370892977548014
1.588,7.581800305277133,8.331982847284182,-8.152652408405146,5.289794285269928,-5.895626218103885,5.507181532826898,-2.506458739412788,3.5283566183346418
1.592,7.275118480127701,6.411667493924898,-10.983425619370786,4.077126753615199,-9.250557521989517,5.393743341650746,-3.670309413565117,6.314545303702398
1.596,5.782144069956219,3.2456151254489205,-14.161474008030364,1.211575844247394,-13.505857081194609,3.975046198508819,-5.27880640042036,7.420058129526606
1.6,3.752550164310036,-0.510042479864742,-16.76141593716595,-2.4519694270692196,-17.025985929486247,1.8138041540349217,-6.994342215960078,6.752207132959239
1.604,2.34219981029806,-3.569090143592881,-17.61551450657359,-5.436797004532341,-17.94808556466358,-0.10841209776125971,-8.186313551481097,4.880299002814573
1.608,2.564328168089337,-4.716388928070763,-15.850896981556932,-6.406464836203305,-15.063233906294952,-0.9031976320516936,-8.163070438190642,2.7122864866127556
1.612,4.7039144560162685,-3.513595199335171,-11.380498739677062,-4.873119083052502,-8.493514380806154,-0.26666243396108946,-6.527463373172675,1.0383473337674078
1.616,8.172136799612954,-0.5485568052928498,-5.0406678675016545,-1.4203280359527377,0.24437202812658887,1.338191240789436,-3.462057358881797,0.1954742242863836
1.62,11.87579440004654,2.9161754617283693,1.7312209707466764,2.6789731856977084,8.862653763729579,2.9313326876558126,0.24237528463226532,0.026707087762115833
1.624,14.848808590602463,5.669828685717778,7.528871497219577,6.198695604738551,15.303930467124903,3.5610574664194723,3.475510545568837,0.11440029870148205
1.6280000000000001,16.75530509858064,7.197259495004539,11.575381405602133,8.591549102332205,18.595343546737748,2.8322497569713887,5.289354325386755,0.12549345139906265
1.6320000000000001,17.971102555539474,7.852692392268613,13.961560370135672,10.142224809799057,19.11923495852281,1.1253985639202813,5.325428370563416,0.06394720098828266
1.6360000000000001,19.209163205118536,8.482996184445408,15.405030777939263,11.573196381635686,18.195177556130297,-0.6232922905715054,3.9563087213488757,0.2762675576754674
1.6400000000000001,20.95739268201487,9.761633288639526,16.688197234288168,13.391856567681895,17.242402635444062,-1.443044978940231,2.0635427565377285,1.2218778228384304
1.6440000000000001,23.095621085449004,11.666233871258918,18.107920095268057,15.415899576745716,17.008261429792107,-0.8603898145679474,0.5607819668719327,3.141057843534565
1.6480000000000001,24.928528125413962,13.42256188831814,19.25429844522861,16.785031329591256,17.25961848704036,0.8507005777638663,-0.08018639326044763,5.8202709609585295
1.6520000000000001,25.604415243122062,13.958169697538349,19.260242888475194,16.469209581905233,17.075438429053072,2.8288054899443127,-0.03799310523988009,8.608836203475526
1.6560000000000001,24.662063747522637,12.59702210639385,17.379167431547845,13.968914740154284,15.540649763326034,4.100458844721685,0.028875209535341284,10.694022915685904
1.6600000000000001,22.324949695462156,9.535771153192535,13.524542425048896,9.74417139370182,12.386453550166802,4.093787255259345,-0.5772916557211643,11.504047770597648
1.6640000000000001,19.35734207378704,5.8118338914325784,8.45607893581959,5.09457069831229,8.20344168688198,2.9148462437746065,-2.136575913004658,11.029555770998948
1.668,16.59076753299044,2.7778417436299288,3.493038047367492,1.5466770705652642,4.12228648605392,1.2587741889035546,-4.3077041882885325,9.871248713098465
1.672,14.40241357816433,1.3651892732987831,-0.10677136037016544,0.08694612016026282,1.1555398771829144,0.020097760612245663,-6.30515760164014,8.966335805751017
1.676,12.516836068161513,1.587580821317164,-1.751353974104487,0.6973090470610153,-0.38368002664086154,-0.16709489166854352,-7.3519883169787805,9.115036615875265
1.68,10.26900466092585,2.568561253627923,-1.7602719129817312,2.452644815341808,-1.0229240559752455,0.7829008696142703,-7.130957221668281,10.537791142562153
1.684,7.174583522985913,3.078892643539478,-1.1085250836920215,4.113090755385539,-1.7325249726572165,2.4253068059105525,-5.957089408143099,12.707792934114522
1.688,3.450800081133713,2.2679060817527232,-0.8249904349831945,4.854593907186435,-3.2258545305384634,4.061098326293171,-4.564772629108857,14.566447662669985
1.692,0.12038035665004321,0.14672865373330868,-1.3996397499796471,4.6989807300904,-5.393015110030415,5.099366596106162,-3.636814664791937,15.03949689173678
1.696,-1.428381531464607,-2.4467361808628185,-2.5291553441420986,4.406227802839227,-7.22448349884611,5.307053992422963,-3.361849875131427,13.596982184048368
1.7,-0.19780916981314034,-4.348128851085158,-3.310626482541358,4.934807021617701,-7.27866139624652,4.841502479899793,-3.284561093876932,10.573657561331018
1.704,3.797769898647264,-4.711513777474034,-2.7512253555764863,6.820009650257203,-4.4538899493569515,4.086946886261226,-2.542164368520213,7.0661359575008795
1.708,9.416395742293291,-3.431664526451643,-0.30310248815140195,9.843386775001047,1.3497100770541888,3.41449470325696,-0.38137415713712386,4.436718546800991
1.712,14.861280892583673,-1.1333378388403998,3.857010637413269,13.163067487368481,9.034731899622981,3.006497629234797,3.343320105274841,3.6620171359385854
1.716,18.51236936959242,1.2262994320858223,8.920046391384535,15.797313462253502,16.693738851364174,2.826308596369538,7.975588825465172,4.864479613573892
1.72,19.66407473523949,2.8937085544646983,13.833903830865738,17.15333686113264,22.402613357204995,2.7198721162103334,12.285281671921254,7.270178503510959
1.724,18.762337659092193,3.6768072586044114,17.754051988882733,17.279839299442905,25.024337734773617,2.5610726338789633,15.008727922151586,9.61015797660203
1.728,17.027710494426923,3.9332102778464915,20.308965469212417,16.71840637850859,24.622722012851654,2.3354719643588613,15.416583805610546,10.754168406416337
1.732,15.698209600727896,4.2374414507017875,21.583227129395745,16.084758274257638,22.300154940873842,2.1289239243901394,13.617745357184768,10.25018123711294
1.736,15.315876884490994,4.956206130866642,21.886014238232047,15.653523083115624,19.563256773958845,2.036660608711191,10.450128481865892,8.489346266486582
1.74,15.47147612863578,6.003205537909265,21.479874162164684,15.217850108385171,17.565832227783066,2.0699394278945156,7.055556082704425,6.428853125715534
1.744,15.123161786508978,6.909898983604296,20.436349177792902,14.28034025769125,16.60852535720992,2.118069460559167,4.3644866946716006,5.035446817742132
1.748,13.286002846734075,7.149365394625276,18.682785851006678,12.437314149410323,16.118740800671766,2.0002522430883407,2.762961564024592,4.764027193021304
1.752,9.675125665385805,6.48597885564226,16.167990765156603,9.702452446281958,15.07235895954491,1.5749763270979131,2.0898594937803416,5.357748975683027
1.756,4.941747546020186,5.129538856746844,13.009080501249729,6.573261130345405,12.599324137115474,0.8424929954359628,1.8886860783183899,6.0536454153289325
1.76,0.4043084355650226,3.627570727338898,9.53593576200231,3.8246608236100785,8.465676534769209,-0.02422332998342769,1.744321290796396,6.054915644540495
1.764,-2.5813719789816076,2.5682115910642995,6.2100082859308365,2.154609013342863,3.2056409256489387,-0.743814318214326,1.4942476139465874,4.9881209480417725
1.768,-3.2537121999214076,2.2802102539639257,3.4650080271387402,1.8825205539409717,-2.135259885942631,-1.0489141823033137,1.2137939692924409,3.0856773246137883
1.772,-1.7557282850842473,2.6906925186736785,1.5540403402913983,2.836209215102069,-6.4880140832976165,-0.8130213584539643,1.0246881418052665,1.009417474638449
1.776,0.9890009780432729,3.402257591870047,0.47792736116477963,4.445954688121589,-9.21012088153121,-0.11474419970819949,0.9006062035338185,-0.5521759249772789
1.78,3.7390136636665545,3.9401617990978,0.030858692285871125,5.974032791809723,-10.259529821580461,0.7930879057368638,0.6304934208061401,-1.2540616538501288
1.784,5.497607064000436,4.029421540212078,-0.0676821213213733,6.769617247101288,-10.023271076554646,1.5972061229081713,-0.029793127834406796,-1.2125497086979522
1.788,5.905799021528473,3.748342070160623,-0.013400597050473029,6.4707305430864235,-8.934121895663353,2.0639500634293415,-1.1079288088042627,-0.8269671863607091
1.792,5.309404967044902,3.477137128869687,0.1942140529290518,5.114638263517142,-7.130614440978673,2.138296989728692,-2.2442228576891017,-0.44354106357809653
1.796,4.510834697812358,3.6742393051409286,0.7583086197054407,3.144510695607128,-4.381703508046388,1.9489292836645224,-2.756761549294316,-0.10588004225983161
1.8,4.355850258856494,4.611053831074187,1.9813476145242503,1.3082387820664216,-0.3301432477269164,1.7198872038727502,-1.9614947189976002,0.4305778871827062
1.804,5.333817822619094,6.202813400484258,4.081341820231883,0.43139094056923355,5.087819439963296,1.6316766832555827,0.40816505659950075,1.4256297818384431
1.808,7.339492885062163,8.011158466324074,7.000343971448512,1.0947210084235195,11.304559274064598,1.7039014385503486,3.927509299265626,2.8161479626584183
1.812,9.684016717529595,9.411236857709262,10.303849681954956,3.334871229449941,17.10318125243119,1.777135285039677,7.5472322516601045,4.069826324403613
1.816,11.352023323236097,9.856262025705345,13.259100815159574,6.530037136072783,21.003611818234482,1.6106636100946892,10.023549488409184,4.3879832815922954
1.82,11.43599183474286,9.137905750951465,15.103912556659882,9.59897466592947,21.91130194583475,1.0550841528643362,10.511058951376032,3.1796752066388745
1.824,9.568787023306323,7.515373712979317,15.40203887530582,11.478460977955045,19.70194825797614,0.19563800345634164,9.011717471484545,0.5260607804862687
1.828,6.1573015957372395,5.633973076800384,14.292877397221785,11.653825516738635,15.396250268895937,-0.6357070434603855,6.411137764509029,-2.688980720547498
1.832,2.284272421427458,4.242519021791857,12.463256228253396,10.439938093855314,10.765105965041318,-1.0185308346105089,4.038765333254371,-5.132058456085701
1.836,-0.7465619648170847,3.809509483773219,10.803322087488771,8.79475531635621,7.5167726169836975,-0.7051338812958381,2.9618578442361567,-5.711156046254992
1.84,-2.026303526361743,4.238257797194435,9.90741661172341,7.73202582658868,6.4721189818739475,0.16483004167586301,3.4137338245123523,-4.22144453892237
1.844,-1.5009421446612294,4.871107877947372,9.707189755486187,7.66819930608228,7.17853922229607,1.0540284786194487,4.695612772537622,-1.540967176855844
1.848,-0.021274490549123115,4.810993067452068,9.476344496118113,8.104480993699116,8.188249756891715,1.2710486378270218,5.615057713776218,0.7897227358922452
1.852,1.0903666444041313,3.409489733054138,8.250921617081108,7.885245893664916,7.869370790590462,0.36791840632856543,5.236856718102555,1.4117360295460548
1.856,0.7693683359477381,0.6707084795800959,5.46646134918376,5.932921839041941,5.319999583199428,-1.5253707984528093,3.5183243025550714,-0.05096290779532531
1.86,-1.180995303830664,-2.697160094069048,1.4213416570900188,2.0146134171395564,0.8628092391464044,-3.656340550740948,1.4127267889550135,-2.7414581402388745
1.864,-3.9619563314882242,-5.665540206859479,-2.7562850365518567,-2.962215922409352,-4.174112243374822,-4.981668198105266,0.31867823991093047,-5.072547195104268
1.868,-6.252828269437579,-7.540019604573715,-5.687796435011661,-7.3780236549646165,-8.278465022219226,-4.743653864941635,1.1414579255464226,-5.742011939379529
1.872,-7.044922088201083,-8.525206280751977,-6.588541178253766,-9.859791874880308,-10.713030119311824,-2.9847693484675384,3.5168492282006802,-4.680217524529865
1.8760000000000001,-6.353483915918709,-9.82565096519827,-5.873477257050325,-10.20067130752054,-12.034555296790025,-0.6810570945753494,5.698786785241501,-3.331233507906295
1.8800000000000001,-5.32982694098966,-13.108824956784822,-5.086198907841789,-9.618360661992014,-13.803553288070283,0.6528188462724698,5.279177866793023,-4.006260013225398
1.8840000000000001,-5.641689015135542,-19.532348974900096,-6.097228263061568,-10.112566226843908,-17.605534799809625,-0.26751233806162,0.4448541146767484,-8.589977635298128
1.8880000000000001,-8.425718879899259,-28.83115194084705,-9.953667798665744,-13.222639311280716,-23.920701371636248,-3.741932331144058,-8.860055548304299,-17.284854819630137
1.8920000000000001,-13.42559506685738,-39.01912475686255,-16.036506693085116,-18.90319212230261,-31.51193371686267,-8.767436946908168,-20.519816648647755,-28.114158015647007
1.8960000000000001,-18.858124078343316,-46.97761386525586,-22.070252186767316,-25.238323941718868,-37.75774361705896,-13.386490087414455,-30.88496388473836,-37.54280528864716
1.9000000000000001,-22.172813357711547,-49.739328425691355,-25.07338747621257,-29.253347023345228,-39.81763468860369,-15.563427179801112,-36.22215159976573,-41.971533705728056
1.9040000000000001,-21.32491676513687,-45.8522994837254,-22.800934505281358,-28.42500706770346,-36.03235230174046,-14.151714278706457,-34.304861224140794,-39.36482739314918
1.9080000000000001,-15.878078401660941,-36.125872709180946,-14.920455695611267,-22.06114483992632,-26.80774180298463,-9.444654720536764,-25.373246857791017,-30.17836317621964
1.9120000000000001,-7.338065594062487,-23.369433680027758,-3.294946970534768,-11.783799736998521,-14.507655518237048,-3.024562625912312,-12.009179287317634,-17.12133566704162
1.9160000000000001,1.4998429844479597,-11.213779215998327,8.802869843622883,-0.8162261400700128,-2.4041645672045555,3.0063304381537304,1.9906002688656423,-3.8978884608050826
1.92,7.848824586977027,-2.5882375336349006,18.13672305607934,7.548908661347343,6.758147023152695,7.012196591144072,13.170588097769624,6.393681164116707
1.924,10.16795534714621,1.3861101392995132,22.857934678458854,11.445426271417844,11.822162456011666,8.504692210544995,19.666522814006534,12.386705421315686
1.928,8.706910923398496,1.580608213582418,23.089733639812827,11.097832606284063,13.393146451703313,8.181592049032231,21.6114468109502,14.591617545325514
1.932,5.126701125115345,0.09742435017594175,20.501478814052536,8.362575768575406,13.105182790404545,7.3652841192592255,20.6110246453199,14.617432914543876
1.936,1.4673173730307811,-0.9771375322821043,17.19163957143039,5.499324577293952,12.467902281101377,7.19299120461405,18.667376394446798,14.010936544102938
1.94,-0.9089955401717016,-0.6153373573264624,14.563708368799437,3.9408472662669687,11.999231460042372,8.026048898043177,17.162566320639606,13.41537938567151
1.944,-1.8292600035144844,0.8317368711661266,12.803708316710011,3.7528575038596705,11.114123082541832,9.37980754734983,16.388262191310567,12.476821211880356
1.948,-2.0873941051084395,2.1036726994980572,11.164619506011942,4.0033333132652755,8.764171338453671,10.35111173207856,15.753588807368585,10.438497030864887
1.952,-2.711899992206843,1.9303315788225004,8.770628582520782,3.7040377993695874,4.360745862433768,10.242027716179734,14.428237870942263,6.957070706454772
1.956,-4.213591861614184,-0.18166318920624747,5.383118803013947,2.6638196319680887,-1.616774209738355,8.989264093639108,11.99255309384489,2.5783878707913415
1.96,-6.2591020112403415,-3.690109320485526,1.6556407646042728,1.703804947240852,-7.693130465957634,7.165909312040281,8.742766570287554,-1.425051991895602
1.964,-7.913141670686658,-7.359996980149677,-1.234866261859204,2.1224799095674802,-12.089426238151592,5.593068137843304,5.526851999501246,-3.7359100123746476
1.968,-8.225794922834764,-9.93920629892962,-2.296838970488892,4.791299260745475,-13.603097133005313,4.827060747467931,3.277803136112983,-3.750700562964445
1.972,-6.792311368440296,-10.77019962965652,-1.313510323228467,9.467151831688799,-12.162818752084227,4.843487370624439,2.5481955554430744,-1.9342499812068734
1.976,-3.965282710698636,-10.03312616908038,1.0392371308708341,14.750223219375913,-8.772452853602903,5.090226870346844,3.2834688309802162,0.4351786648776699
1.98,-0.64856023587251,-8.561851662605916,3.587165070096499,18.71347582670869,-4.936952091972158,4.851676002876371,4.903177929336664,1.9520496792396465
1.984,2.160739176219247,-7.385319210126646,5.304755859008683,19.846395739441654,-1.9302589980718685,3.699326208530928,6.606991279721085,1.7943505962551356
1.988,3.79263055920874,-7.27064312584721,5.8055569508370475,17.771950349181527,-0.33507646625272947,1.756358564232836,7.700926610841844,0.05232716361373413
1.992,4.087100352097622,-8.471325195660981,5.413283018830173,13.363386319101986,-0.05553336193052694,-0.36187336330107733,7.789290832538927,-2.4699585165598474
1.996,3.3349826580889026,-10.707907673662994,4.838940456374698,8.267798830480967,-0.6624793589781601,-1.8619730900462836,6.8170503306545704,-4.7777315499432085
2.0,2.0721659325902992,-13.32343427400195,4.705905636059788,4.123990732047551,-1.7761865308715312,-2.168492610882458,4.998981779054599,-6.193165771944365
2.004,0.8625754164164441,-15.51099780263808,5.2232966054024565,1.89439548953285,-3.2169736443216927,-1.198251141187984,2.725183020863528,-6.568734573727944
2.008,0.1278464719723882,-16.561348613891493,6.157436659428743,1.6022406401204496,-4.884757239232174,0.6068224074241897,0.46128303865836084,-6.153679880204805
2.012,0.03868404380055246,-16.093347344560925,7.060647959601884,2.5150640773032795,-6.546815609155827,2.4783714217547836,-1.3550483264313424,-5.283361152406211
2.016,0.44767453183331885,-14.224409734375717,7.565755054606853,3.5976318080889347,-7.769542536522786,3.636924627340057,-2.4238843833366923,-4.144923359689546
2.02,0.8733059935198435,-11.610653491097734,7.544002897129249,3.981238141691403,-8.110935570512117,3.5764211047921552,-2.686789517566596,-2.7760294448404252
2.024,0.616101696754531,-9.268363417394237,7.06764151467116,3.26822091563878,-7.452009283615279,2.225962772274822,-2.3742426715996316,-1.2405894957517347
2.028,-0.9709127252106633,-8.186624784284666,6.254097286259669,1.599831922399051,-6.209788961078097,-0.058773964548210156,-1.9427125548500328,0.2083251538880475
2.032,-4.147431070850621,-8.876490122117193,5.125186277955461,-0.48178841279929985,-5.236348188015693,-2.6470862316925077,-1.8918983751385028,1.1536468585372859
2.036,-8.548393716018955,-11.075426997813363,3.5909157079904013,-2.2806286646510694,-5.397866250510348,-4.862995842525313,-2.534513236180251,1.2499871686272463
2.04,-13.204592367456321,-13.790672195644891,1.563134055305305,-3.2022882351360518,-7.055592939543519,-6.2104550132412,-3.8357729246552044,0.509875804593932
2.044,-16.89171475763994,-15.721921071622951,-0.9018279943197323,-2.9601918002191248,-9.786222811591005,-6.525931490974827,-5.423485574967666,-0.5963480112730561
2.048,-18.686747991079027,-15.870844099773397,-3.5426825206440213,-1.6774870684294996,-12.540798649072006,-6.013452360546814,-6.776939320778768,-1.346355785561924
2.052,-18.43876353006339,-14.0240935544799,-5.965094905142577,0.16329755861283368,-14.175195595005821,-5.138816618220215,-7.501202789258153,-1.1896577255852385
2.056,-16.88220173246433,-10.845464098287842,-7.798064616491881,1.916496251106779,-14.050880311141576,-4.432390949938763,-7.530014795143808,-0.13224559030965466
2.06,-15.280937727366462,-7.509051042761074,-8.838413097819878,3.052128725810481,-12.341602699462285,-4.284886709213963,-7.1456845599239305,1.1805571861156388
2.064,-14.749968900660317,-5.060556777291046,-9.098958985239692,3.404713622713113,-9.85555651255459,-4.8182909987981235,-6.801592458598314,1.7870229356625877
2.068,-15.628598420665456,-3.8768954665987003,-8.752951832697317,3.2471427783481435,-7.4992956352277105,-5.885725678717698,-6.857508680834603,0.963491821002119
2.072,-17.267996739497026,-3.5365930381737445,-8.036212950240344,3.124158284362361,-5.732695873676914,-7.19021332926848,-7.392244829236592,-1.319139292576331
2.076,-18.35552271015449,-3.1606629780848974,-7.173021246521945,3.528889715378085,-4.358980646922337,-8.446218825724754,-8.202651993858174,-4.319280099800359
2.08,-17.627228239796615,-2.0046001784339245,-6.350458769476326,4.586784641683034,-2.7748642609291814,-9.49593546773125,-8.975255724349168,-6.898054166922545
2.084,-14.595237908002906,0.06155532065751568,-5.726874077080529,5.928216654162227,-0.5079129642066507,-10.33755143947414,-9.518206592840821,-8.144808984609396
2.088,-9.888263018218884,2.4758128549296203,-5.42807048465652,6.839997049285255,2.328945944166145,-11.069725687821004,-9.891106681179698,-7.886179162513123
2.092,-5.010202993730254,4.341097167826869,-5.51354058418534,6.622276766930069,4.9756966184674205,-11.800820507210037,-10.356095649642892,-6.7734693155421155
2.096,-1.6696680030546602,4.968596250102035,-5.935633210769593,4.944709763290637,6.414036076718301,-12.599917482327776,-11.189583326872944,-5.89522012167248
2.1,-1.0185649009672089,4.290362237298517,-6.51460427378537,2.0158818488783377,6.002707739057371,-13.492296470811194,-12.47511449598583,-6.1281821146404845
2.104,-3.1516331913406535,2.9031838900920004,-6.970293755800224,-1.5220671742474234,3.9653860052344916,-14.477172481119588,-14.020464613628608,-7.608492502886698
2.108,-7.091721402428448,1.7397461967369334,-7.0088021452208835,-4.896067168564482,1.418459329066363,-15.518432246281645,-15.447767237748776,-9.623350006880864
2.112,-11.249336130868189,1.5685968969806414,-6.44206479086422,-7.540921606506862,-0.13283097513100062,-16.50521132163298,-16.397004622300177,-10.987778499746291
2.116,-14.112483542501579,2.611368541874469,-5.287308330249438,-9.286216025038428,0.4215653193628679,-17.225201144693976,-16.722092506171084,-10.692441480404863
2.12,-14.841823631849014,4.478277946397164,-3.78937535937141,-10.311606866699625,3.1630432748176,-17.395398330065536,-16.547143380968155,-8.454908645930615
2.124,-13.522913083669833,6.420529474354611,-2.3595806047163697,-10.93344955326441,7.015166580467167,-16.773143805688214,-16.158986747965585,-4.879536866943763
2.128,-11.01267729342802,7.724629869156233,-1.4455706340548897,-11.363681298679275,10.213297991833668,-15.303818547657258,-15.812303349354957,-1.1552975363984217
2.132,-8.496189612319483,8.02547719663784,-1.3805366024633434,-11.579334781166372,11.14997662122473,-13.211151358681544,-15.581890602508206,1.5328054016123005
2.136,-6.969668688754078,7.394045474948999,-2.268425299391083,-11.360091732751565,9.167144314592086,-10.947120893631803,-15.356202041533766,2.546203636170734
2.14,-6.862163335561005,6.211571987350311,-3.935161205914549,-10.446436247435201,4.9067553540892686,-8.998032349542775,-14.965118217763335,2.0109364611935274
2.144,-7.930609469469531,4.950701044553279,-5.957289095601633,-8.706165480479074,0.05772242959890983,-7.641900190295875,-14.330052846562428,0.6390389996628159
2.148,-9.439486019081503,3.990952408447316,-7.768933898715051,-6.224904791626539,-3.379785980906047,-6.805126756896023,-13.52019954472498,-0.7101451684564188
2.152,-10.535859111141223,3.5197102891043737,-8.833323721849037,-3.2963003416801104,-3.973549258074217,-6.124615935433637,-12.667936808749918,-1.470260578479554
2.156,-10.6636599530949,3.50072904013712,-8.823433349956662,-0.35130532162245,-1.4771999749677711,-5.203735656948386,-11.807761687205847,-1.5814480221555522
2.16,-9.814755439830552,3.689055890387178,-7.739103664083866,2.1372442598587154,3.080744405783445,-3.911446723877023,-10.776238917292833,-1.4062738717981085
2.164,-8.510343231639283,3.687250396448553,-5.898636954732584,3.745006790306189,7.865020035785843,-2.5278487992800023,-9.271836267555813,-1.4367112935405788
2.168,-7.523556735529245,3.0686676372020605,-3.7913132412000152,4.1846824903684094,11.0371490123896,-1.6230145558228593,-7.065637009113238,-1.9830345139391148
2.172,-7.472166239259655,1.5671707873044038,-1.8633995836695496,3.392106175615137,11.52597344068834,-1.7223724822394686,-4.234336358018546,-3.010876401597259
2.176,-8.488242569095323,-0.7226736170390744,-0.33645169571560496,1.5889621916365373,9.43386875282127,-2.9522578882052457,-1.2599870170959342,-4.182457102528877
2.18,-10.150951537908831,-3.2527130439164114,0.8552306315293734,-0.7287560720573434,5.91963810921174,-4.892833596830741,1.115206700016686,-5.045519998473063
2.184,-11.72045674018323,-5.143572852266207,1.9679701238291705,-2.909248491377453,2.6358694784556165,-6.751074912769145,2.23418334849928,-5.244644139272638
2.188,-12.53467891040345,-5.531625271434526,3.250484998726245,-4.355379487476524,0.9911376586651781,-7.769919365797078,1.881004922870284,-4.645413308536754
2.192,-12.33242668284658,-4.010974124411093,4.765055307113368,-4.75183936608733,1.568039071910353,-7.627672927429702,0.44618467139471907,-3.3278556557809678
2.196,-11.323189442383221,-0.9374244036895385,6.333992849121046,-4.1941874666004555,3.94888367085127,-6.585473092420104,-1.2009589416505986,-1.4838549922424416
2.2,-9.983268969806735,2.5983368413056303,7.632134390631009,-3.1491416503266483,6.995670193629184,-5.292159684418999,-2.099914155018374,0.6938609625458962
2.204,-8.711356013034656,5.178273329884965,8.365182017253836,-2.242658612988291,9.424369658227246,-4.360685561550252,-1.6373376633056873,3.066186939361206
2.208,-7.569822626226964,5.687245995409439,8.418826572125518,-1.9641331598887963,10.39218907468374,-3.9742173384712096,0.19022741790272923,5.536971591564022
2.212,-6.285422576989216,3.8482888996770566,7.878553132329192,-2.437274872618242,9.8089240154032,-3.771645177911709,2.8156944636209693,8.0095427368657
2.216,-4.512949350165143,0.3792542342326737,6.921018470741466,-3.3751835095270106,8.253449493816689,-3.0969047030590477,5.400093127506299,10.346800559643992
2.22,-2.16380024235838,-3.31327329157083,5.669117533354461,-4.228615016254183,6.5841744046985475,-1.4568423025288817,7.21496079221744,12.37059222139385
2.224,0.42701357389244565,-5.768307568025023,4.1234376184201835,-4.447878839576189,5.466657023095136,1.0910818313999606,7.911060666522612,13.901261626157433
2.228,2.649936267297787,-6.102731144396074,2.237581196974471,-3.7154268404986124,5.075058026991639,3.874792643860106,7.565558413835782,14.812034986056156
2.232,3.988308726411785,-4.347520895132715,0.07990737875852094,-2.0569440436038597,5.086790726854891,5.914125157936067,6.528550679792161,15.05592558197978
2.236,4.329921998784952,-1.368955831043805,-2.0425737841000604,0.1859970823127095,4.9307149347895445,6.420965548149334,5.201688522481807,14.651969728588238
2.24,4.023507159886002,1.566645764405358,-3.605623436518189,2.491022309811724,4.13798876226692,5.211220216372414,3.8810806998513545,13.647715935958601
2.244,3.6248055757255946,3.355199331101937,-4.060292389216749,4.32976407770701,2.6040231058459162,2.7943335553322104,2.732704336146158,12.09594090442028
2.248,3.4783787058859152,3.4672680034011734,-3.101198168291411,5.308111148653888,0.644853167073657,0.08995612702337841,1.8577950058499049,10.069442138388457
2.2520000000000002,3.4404164990766297,2.051140078055801,-0.851231889533786,5.243131185242429,-1.1560083570148731,-2.0576086609793753,1.35590692865388,7.70746656595052
2.2560000000000002,2.9699053511161857,-0.24944927219251056,2.159934221038003,4.1921509342224175,-2.2027950340052618,-3.2775875944254285,1.3226396816362929,5.262863646615415
2.2600000000000002,1.5482739532747827,-2.6238712855993196,5.221815326744567,2.4389930533821222,-2.109354546551412,-3.77557409129613,1.7899293396670224,3.104665678535862
2.2640000000000002,-0.8444143382526282,-4.404703941449805,7.751656213457817,0.43201269461965497,-0.8076126580031615,-4.104410607835433,2.6720037991572534,1.6459514977922043
2.2680000000000002,-3.532858372230083,-5.24748628340671,9.50735407030087,-1.3285944522008712,1.4648331959279943,-4.759093406239247,3.7876595002500513,1.2037099802656512
2.2720000000000002,-5.403459425636982,-5.1453125856502435,10.59412219040285,-2.430125190897962,4.2598128192333435,-5.844792958379081,4.968708664992436,1.8519820697341558
2.2760000000000002,-5.489605863785572,-4.317799736012653,11.283323053907058,-2.662862074865571,7.0459298407177595,-7.003809341874315,6.173580240058069,3.346724694873096
2.2800000000000002,-3.556411931955985,-3.0582042808622925,11.78099863231711,-2.074441228132425,9.331639702125955,-7.633295864214132,7.5217734816760835,5.175639475058805
2.2840000000000003,-0.3080033788864056,-1.601467748097087,12.10811946927765,-0.9330854100438923,10.77237908244072,-7.249557273076521,9.204848391818672,6.73292575161999
2.2880000000000003,2.946250641027149,-0.042054216861541205,12.164229643953202,0.40143475081038993,11.254635739947158,-5.784513811075124,11.313041247259038,7.551560942464916
2.2920000000000003,4.966088561580219,1.6614133097110806,11.89772560310411,1.625085089798593,10.918668342487859,-3.6552615674214457,13.688389566698202,7.486721499072724
2.2960000000000003,5.178217575649243,3.5909406017757357,11.434761450407565,2.564751002770347,10.093535104565909,-1.5858371029650928,15.920309677776741,6.749134132487926
2.3000000000000003,3.8534152705713485,5.729186541641845,11.050907359342428,3.159146246766136,9.158371515434226,-0.2850570694538115,17.514420142940278,5.764456012914047
2.3040000000000003,1.7834184195777474,7.850287507354753,10.9800532231168,3.3838914272497007,8.38016326501589,-0.1441572970476166,18.148656240345073,4.92902180210166
2.308,-0.3032856544584619,9.518629999185189,11.186771385549697,3.190243246046463,7.808594171602193,-1.0949710222519444,17.855213271426734,4.389959880679822
2.312,-2.180904075750077,10.22827273050483,11.282687340426651,2.5202243363314913,7.293138855003608,-2.678266217555667,17.007973922034267,3.9710647187305925
2.316,-4.1397713789834025,9.632184636140122,10.676434301686193,1.3906440853623305,6.620136575449874,-4.268716285786348,16.109776944372182,3.2848594356743286
2.32,-6.5772911685797135,7.758128728282266,8.899506337625338,-0.012422843877536671,5.691514600161785,-5.327334433538926,15.50496514817478,1.977789708290353
2.324,-9.485112136656667,5.074072239464881,5.928145350825959,-1.3252904297476342,4.63610027761367,-5.577907215747103,15.195029516861503,-0.022301818373129834
2.328,-12.21776774566543,2.3414027535549424,2.29952848533767,-2.1239055640024604,3.7788369610136883,-5.050737683932567,14.88475299686459,-2.395198808300322
2.332,-13.744792732645708,0.29748086827069176,-1.0815592940946592,-2.130208080538994,3.466750687505626,-4.004199190049096,14.233420153492759,-4.520316417326587
2.336,-13.253749245024299,-0.6739345559012522,-3.3489553963079164,-1.3856763237476855,3.8606953925525618,-2.7776127380596094,13.157750003595005,-5.735233604335305
2.34,-10.705354473373799,-0.6919904998970254,-4.068737431982496,-0.2726329825750522,4.8249224403681215,-1.6517975890169927,11.9742571659535,-5.636169689548819
2.344,-6.9495820506785915,-0.274574574719313,-3.4115960088229538,0.6530898371327698,5.988939467261458,-0.7802316687194093,11.261179105183972,-4.274866182065165
2.348,-3.307409132271302,-0.035231533030327666,-2.0044043554570647,0.9374754102771647,6.951976398441917,-0.19398036817158992,11.504377600500707,-2.154794006135012
2.352,-0.8561892515111826,-0.3468742985317004,-0.5653981890307416,0.4538969548873826,7.501593237300356,0.14237720979408408,12.746780218199907,-0.031061961064323684
2.356,0.139592168836689,-1.1672251632397437,0.4506654372716732,-0.5499836788989496,7.707232571404723,0.2673063037473362,14.466703396377717,1.396559116684169
2.36,0.2784282628656678,-2.115286888904654,0.9950817089136426,-1.6193932437631147,7.829047074409046,0.19069458188944965,15.786804145620081,1.7604556664721527
2.364,0.5328857386245973,-2.723958984654547,1.3005415288249509,-2.3607420949157456,8.100997600711358,-0.08374124867215293,15.918866992635746,1.154358982113854
2.368,1.519878041009063,-2.706089369102818,1.6068524499519063,-2.6597120235475353,8.532333998030115,-0.5099415888231476,14.599623240138468,0.06197547328903763
2.372,3.00875784918486,-2.0770035890795584,1.9344059165122323,-2.7260560432174716,8.8576028969468,-0.9663741247831628,12.243131459295952,-0.883583520679752
2.376,3.99031047191108,-1.077708810645418,2.061638878476626,-2.9439213390835555,8.671934779885998,-1.2795279448305088,9.704788267846235,-1.2037267556137965
2.38,3.288543438364273,0.02733683867211978,1.7165689533228239,-3.619017131922807,7.67685150951845,-1.3023216571185778,7.7878711920941015,-0.8086859820155521
2.384,0.3521122197042428,1.1207728566769064,0.8411334996270363,-4.782336601471232,5.887698154358862,-1.0085507957035718,6.779995038036553,-0.058685345902901975
2.388,-4.263396508594862,2.255273491474625,-0.2717321317955057,-6.160553194102606,3.6677911509946894,-0.5385153428368259,6.306317790693865,0.3856327021478223
2.392,-9.032834239401678,3.521900376288824,-1.0872282730943348,-7.323719262641891,1.5589080801647217,-0.14591433918756058,5.591709243658528,-0.13686186980137505
2.396,-12.166005117682998,4.869037786646995,-1.1363456341696283,-7.906779225712476,-0.0007670706688296391,-0.06370537058870296,3.9776805135223174,-1.9660821806038993
2.4,-12.47474131063549,6.033216138270072,-0.32822699595188976,-7.768144343989906,-0.9047967920362421,-0.3576413342076923,1.3797281682622295,-4.9184667914317926
2.404,-9.927563613195439,6.648455722420824,0.9421509562769326,-7.0036999552267885,-1.4172059133328965,-0.8595532665797527,-1.5949631550281889,-8.30462862236207
2.408,-5.615327788308454,6.464584625360434,1.98184645056286,-5.843395031040261,-1.9964685633859212,-1.2337986010039454,-3.9599054998792456,-11.180372051095675
2.412,-1.1745966542634607,5.537054128170913,2.199819507660227,-4.511830472630276,-3.004293049303414,-1.1583354915175073,-4.9105903442826015,-12.72249389516131
2.416,2.0098775691797153,4.26944875503752,1.4872795810793673,-3.132326682718203,-4.460599583064603,-0.5218043105608547,-4.298074230512115,-12.558116481658187
2.42,3.38772575076932,3.261654907837748,0.3315914651615932,-1.726466531420436,-5.98846974988828,0.483338266839886,-2.729550944893267,-10.89814651259471
2.424,3.3460185588566023,3.044257907761765,-0.42751351008525873,-0.2814447372083624,-6.990036966901622,1.4367980301543186,-1.244569304470316,-8.414902057919235
2.428,2.8487838483560015,3.8588362969232737,-0.07667500021929552,1.1829979410823679,-6.951051177333934,1.9063681681359155,-0.744037930167555,-5.923067502216924
2.432,2.8361725684481955,5.58286326208566,1.5102921400653244,2.5832983951534603,-5.729405789625323,1.6864371409931795,-1.5123935099028625,-4.026191777615002
2.436,3.7167974492457287,7.809040144106847,3.702147098609119,3.7756968435781912,-3.6864420685368016,0.9116806581468166,-3.1300981991342924,-2.9123078014232577
2.44,5.215683399085835,10.033244676499569,5.378936444224669,4.597051872824838,-1.5613567234821057,-0.012058250133740511,-4.790199733489497,-2.365784286768159
2.444,6.600366170281102,11.821310487255456,5.501820904291603,4.905812862779806,-0.1561196011706394,-0.6195655546938477,-5.82445386317939,-1.9665495459067843
2.448,7.11195432832658,12.882751115367517,3.6862114043936782,4.604196067404532,0.01692043285002587,-0.6281314726232239,-6.109898572493858,-1.3607042462488383
2.452,6.349060077560905,13.056299773381886,0.4568864913968054,3.6506734095282893,-1.0449315164301982,-0.07497787947250534,-6.114467442700402,-0.4624042305942897
2.456,4.43378374867072,12.271325366875658,-2.9765535160138654,2.076181230066932,-2.854963112293353,0.7268622642769331,-6.558952516544457,0.5043950155304384
2.46,1.9146839109123541,10.550756482788756,-5.317473932704461,0.006128522564578631,-4.674670053638124,1.376624318569304,-7.904527461400564,1.1339727459915192
2.464,-0.5181103985163236,8.053086979244998,-5.84305421194616,-2.3375286777932898,-5.854469554527464,1.6039615977753328,-9.981513510616615,1.0570297436841711
2.468,-2.3307531310429814,5.115923654674808,-4.764366645081789,-4.668680547012295,-6.106175253212938,1.398006531308972,-11.99082002703398,0.14069185067620182
2.472,-3.329061420231878,2.227965661433829,-3.09626298978095,-6.715323522782708,-5.591140293466549,0.9757040833687047,-12.899623717863534,-1.4204915890628804
2.476,-3.6624020210882406,-0.09972322047697091,-2.10614243719803,-8.305978574422909,-4.7960494630064625,0.6222613490988298,-12.015402425061378,-3.153980961217819
2.48,-3.6663489681113344,-1.5057560086569453,-2.6398412105149722,-9.405395437933018,-4.266508950700565,0.5093770524318981,-9.426655452282391,-4.472637547296868
2.484,-3.650166501092529,-1.9070278339424451,-4.681987168161853,-10.072859079477645,-4.328764741156412,0.6068359466988018,-6.052438290520678,-4.8872170744865056
2.488,-3.7306703214200967,-1.5107333800348268,-7.379025084270537,-10.365163798264648,-4.933958456543854,0.727454087238061,-3.251549960611409,-4.199731921517701
2.492,-3.795529129853092,-0.7017875827236963,-9.503422624961967,-10.246942537800884,-5.6862281015925324,0.6729059932208128,-2.1889768808329055,-2.603304323962199
2.496,-3.6007791155218642,0.1411041501090029,-10.086026706057503,-9.572003265143142,-6.014223559551694,0.3977665209770205,-3.2671715932073577,-0.6399571105718369
2.5,-2.9205477682124212,0.8146471149705956,-8.867579787190065,-8.153405358094314,-5.387010128629192,0.09506771288512561,-5.897109397588516,0.9861868248973451
2.504,-1.6751683069085368,1.3554766694756677,-6.342485049480098,-5.891893319649156,-3.4894634192789815,0.1424168961590453,-8.727571724995673,1.690352907057156
2.508,0.015030807870906937,1.9718470085336506,-3.4234201971011227,-2.893379712266988,-0.32189896787997085,0.926394788754231,-10.25035044063384,1.267236367918169
2.512,1.8583122644488128,2.880697604379419,-0.9606571290779975,0.4836450993687329,3.7674616799354608,2.6158856228714855,-9.504977158920394,0.0007528037665416321
2.516,3.5031038864930286,4.151903282042732,0.6163466274762595,3.69276030940288,8.12174995695093,5.002574256887475,-6.543797839015173,-1.4408620183568042
2.52,4.668036094032204,5.637702436460697,1.3641327387856457,6.153925006222057,11.891009144064398,7.500680550620004,-2.423963573959753,-2.2945231222842724
2.524,5.251625765039605,7.023227859194139,1.6262844822630136,7.444853861039891,14.233141782471915,9.339514711951473,1.2994566085127417,-2.0422181153016314
2.528,5.3929751954832765,7.975665505298353,1.7625247217280462,7.456888042250783,14.591052208684111,9.883761681696857,3.3592299290545196,-0.6269415669042306
2.532,5.453194427492985,8.307270669469041,1.9909947458495005,6.452020975550376,12.96513151590798,8.94096119442938,3.4597287319728247,1.5627509192097762
2.536,5.915331895811541,8.063772939725606,2.410289562227919,4.986328933880234,10.02802823201971,6.908124936507973,2.4862624598910728,3.9103440890323693
2.54,7.188486237677944,7.468570144455883,3.1051468503201347,3.702177276396637,6.9452848402173295,4.644280428560169,2.0714241939897615,5.8455774969286445
2.544,9.336709104978796,6.7291643719455125,4.161495566442429,3.0338389804410903,4.885224735026966,3.0750290981189234,3.6621041879461043,6.9924392684454535
2.548,11.873915044801478,5.837002540314978,5.526940386858321,2.958156042521835,4.410863749178025,2.703868944680724,7.546282245050355,7.115403315516026
2.552,13.767141646350783,4.4787808797011825,6.7975331058426445,2.9212539331344516,5.059088005067899,3.278869831636607,12.377315075396677,5.936421090516948
2.556,13.725887761426854,2.148344059133627,7.133472538027131,2.0198551948412287,5.388017966650788,3.8158890900768636,15.541370496581447,3.005316908275743
2.56,10.727633698372061,-1.546991196590744,5.492346803147802,-0.5818337051587212,3.58055077583189,3.0262844143562218,14.302969833219844,-2.187804199638169
2.564,4.57450155235394,-6.536648258948615,1.1635548840230658,-5.157532093304416,-1.6235084135013267,-0.019301444538132984,7.233450596081729,-9.845120905726468
2.568,-3.7935655554898853,-12.088297442912713,-5.647816372591255,-11.088118585517098,-10.115709451353528,-5.31059225119732,-4.78672068431559,-19.426635391550743
2.572,-12.442856596009426,-16.913495096464253,-13.55367709993611,-16.900290669448204,-20.190270349754282,-11.723579850417284,-18.57394765433623,-29.446107296070192
2.576,-19.095519291115572,-19.604597460987847,-20.293303927557588,-20.74245736671465,-29.093004382849877,-17.39113333318927,-29.75038696752621,-37.724107015786664
2.58,-22.04506877519252,-19.23781346328688,-23.57993270005074,-21.130309855031445,-34.13904490644366,-20.480870295497887,-34.49991143657378,-42.08428221837749
2.584,-20.887303254123374,-15.842669767551575,-22.107389234629466,-17.616052658828337,-33.87405794511066,-20.005457909469307,-31.1594651657511,-41.21019633545989
2.588,-16.679652003468796,-10.468547719465263,-16.194988826803467,-11.032769729159314,-28.69169790002742,-16.253364652764,-20.87999964741806,-35.24494174146609
2.592,-11.416849573091401,-4.772145803574098,-7.699139170341719,-3.1606648759229063,-20.59173934586784,-10.614994102660592,-7.0489013358750645,-25.805529887897286
2.596,-7.074549085894036,-0.30444669009949576,0.7994592679084875,4.031529959783024,-12.216594665333407,-4.903032140269178,6.214856812030094,-15.379564406343452
2.6,-4.709876043296299,2.1503022182259404,7.126103701064297,9.194524210546962,-5.682235622129661,-0.5247781267581391,15.734976482755414,-6.380679495773877
2.604,-4.095311598003389,2.844730060837355,10.384445739402151,12.042503140281056,-1.7998207689734311,2.06010477863358,20.33260356364986,-0.3129867046019754
2.608,-4.0597648134315465,2.809183456072562,11.129931892947269,13.222463497573079,-0.04087808352298339,3.3286308491557546,20.837557994782436,2.5808373874972164
2.612,-3.310033279730024,3.214956465035608,10.806507810925616,13.72623465207785,0.8318414122242199,4.192255999225113,19.21175026228085,3.0992503262510054
2.616,-1.2331859999230443,4.713875743467116,10.804235937608368,14.214919988583025,1.8964292464762718,5.330362860582715,17.368819559917885,2.4846628772796953
2.62,1.7837766519700202,7.118440116336811,11.68849851508009,14.650430954128897,3.4785086198728434,6.760287716569868,16.330362133530937,1.8039998199205547
2.624,4.661408693645516,9.563095120963883,13.022305607327596,14.425516817076613,5.124134361385655,7.880877844927834,16.072125442626195,1.600591868070702
2.628,6.3264417289288755,11.026255167073622,13.821329670657065,12.878282062850861,6.068956461345519,7.926479081407136,15.977685277875223,1.907113671727009
2.632,6.35119970306006,10.896206444909659,13.29766430421512,9.855213818629469,5.837236157432669,6.5284386434647566,15.4725335383818,2.4938455250540468
2.636,5.138773474315517,9.254120535752161,11.41406147323297,5.956000694700653,4.565588247677596,4.028557353848113,14.399681362630574,3.129063870152348
2.64,3.56404333579225,6.7448339697787,8.915093822612466,2.312008773869376,2.869840266685256,1.350268161519518,12.967495045974106,3.6956961768318575
2.644,2.339935527278343,4.1601434080050925,6.849190666052865,0.039855973455151794,1.3896975445119182,-0.4887974812521655,11.422413335962283,4.15532861015139
2.648,1.5750639914411284,2.0272411393048633,5.912470945388302,-0.2938893172476793,0.3539788838347224,-0.9182663153557222,9.755927577032208,4.461089713834095
2.652,0.7965995259890168,0.442246488445339,6.0428566364918215,1.101873393793451,-0.5344000513806009,-0.08931381283545314,7.707168332678662,4.535181544471098
2.656,-0.5930146128546676,-0.7839829950873904,6.522019329311333,3.4305344763375816,-1.8228687771067493,1.2679366385493598,5.056796787443903,4.338042249917035
2.66,-2.741887713697076,-1.8051097213166134,6.513998661991185,5.765857360773968,-3.834316062866653,2.2979260196656126,1.9663502268815654,3.9524977944003155
2.664,-5.0768495075037965,-2.4965620525764503,5.678134626914476,7.491679919870858,-6.323894154990705,2.5042232571623666,-0.929650096801371,3.577825482374359
2.668,-6.530989344669421,-2.4645302794137307,4.4586199929853105,8.493680118153987,-8.505423672179273,1.9834227713478363,-2.796809329943979,3.403147290372348
2.672,-6.138664440253202,-1.308673271143768,3.8472445617260806,9.041807648779233,-9.453982659319243,1.2914245801124942,-3.0874262841308697,3.4381404778859608
2.676,-3.6149305089533432,1.051508642872749,4.7552157971373905,9.50024553219672,-8.642712166554732,1.0519483358101223,-1.9070801276292375,3.4397371435245674
2.68,0.44815925005739454,4.205843298767394,7.377455650618472,10.078105130425062,-6.289297843078118,1.554529400533105,-0.006794764843676582,3.0228549303283776
2.684,4.898081389031083,7.355561134826424,10.938806804729737,10.7546443534805,-3.311910743730188,2.577064530158639,1.617713579115835,1.9119237149071262
2.688,8.635072490568255,9.64780523279776,13.997610273363795,11.374275083515244,-0.9021726377970136,3.5191148431327584,2.2767694671409333,0.18364921527749267
2.692,11.135744046978415,10.540955441525288,15.144935264512274,11.795172092834951,0.04064692553403315,3.742363782353732,1.9190558004431817,-1.6786310625720349
2.696,12.573166973439813,9.983367939904813,13.713219399238639,11.958921310387215,-0.6921603099536497,2.9120852635700993,1.0382223698250983,-2.9963407559160133
2.7,13.511958860872866,8.340424167479451,10.106832691148531,11.8569306713946,-2.5791738021161414,1.162434857263291,0.22686902584932112,-3.269307178203415
2.704,14.40007161413712,6.129285907148175,5.570879711242058,11.438518929509996,-4.6843906381573746,-0.9925057489726987,-0.31763536918858815,-2.5028337409017194
2.708,15.208690939062663,3.7396199338570586,1.548544175522216,10.568937532937353,-6.13272670332618,-2.9230454278730558,-0.9850153981272238,-1.2790673277324158
2.712,15.46600963458032,1.3097698988508362,-1.0059859734866095,9.099147372536452,-6.5003269764136125,-4.158440239158722,-2.4884334462535316,-0.5058314410398861
2.716,14.635943579769048,-1.1889194291055953,-1.9875222337508514,7.0071373252929074,-5.934126446454071,-4.545109783987309,-5.304619175442665,-0.9640540084541254
2.72,12.549953863216821,-3.751947251086645,-2.013384601874815,4.501846306872537,-4.986639450086033,-4.23877382655121,-9.191880759993849,-2.9007999449904514
2.724,9.582231176331273,-6.194621168540741,-1.933367510732135,1.9963007730216737,-4.296140404559901,-3.571293873773884,-13.13315870284682,-5.885834298124863
2.728,6.447040278082764,-8.165522223274781,-2.288313508246371,-0.0583927231440442,-4.285044208392073,-2.895601755996055,-15.777305830355843,-9.0073236817852
2.732,3.7625799911986952,-9.324874995089056,-3.0408102323001174,-1.3818494043143028,-5.0223184891176675,-2.48381842761821,-16.157686903213488,-11.295267083293238
2.736,1.6819590223336558,-9.579827582324649,-3.710210993630162,-1.9907132918679382,-6.279303546591413,-2.4962940528697457,-14.264509741894162,-12.144566674208964
2.74,-0.14880119465120067,-9.211842924975441,-3.786168063638791,-2.168666056345772,-7.705032987234238,-2.9930515451464834,-11.117937932668244,-11.528009224329747
2.744,-2.2816735356383857,-8.80753504695053,-3.1408381817985327,-2.3115453535656174,-9.01106393646294,-3.9520821670567368,-8.286488483791047,-9.931134044718807
2.748,-4.9908039624283465,-8.98998221870346,-2.1581043489674028,-2.722267163967551,-10.054319813257292,-5.263996985564523,-7.099498118734413,-8.07438200060297
2.7520000000000002,-7.944208201243805,-10.081471435292816,-1.5047894358716265,-3.4677988089557266,-10.801809948193052,-6.714325001142585,-7.991024474926404,-6.588918135699002
2.7560000000000002,-10.241212822533917,-11.872337559606791,-1.6900140089172881,-4.36360242313311,-11.225465898483908,-7.992817648153583,-10.31973743470022,-5.806991789538186
2.7600000000000002,-10.8347365992963,-13.648514683583642,-2.707340743033651,-5.0792795884754405,-11.225352333302947,-8.764158051642669,-12.746638755433764,-5.737526297599745
2.7640000000000002,-9.10648903236957,-14.502257048579184,-4.018008062058578,-5.296549573285145,-10.669125753959094,-8.783207764981565,-13.966423025660903,-6.191175135643945
2.7680000000000002,-5.28137954474596,-13.802801516912112,-4.901210497200228,-4.857737590025984,-9.54489421824488,-8.013501368495158,-13.401140233112482,-6.953273846861767
2.7720000000000002,-0.43889523884573567,-11.592960157521006,-4.954991355035313,-3.853759729932573,-8.122967044984215,-6.6900920333694875,-11.49300707509226,-7.8924057293333085
2.7760000000000002,3.8890577192741955,-8.698187226352449,-4.433223966564064,-2.625926413270182,-6.994265654862954,-5.270032065648074,-9.474151074466102,-8.960473751217426
2.7800000000000002,6.334053978568473,-6.44799223745083,-4.1764283107596265,-1.683332072490531,-6.894278574488787,-4.27006559120845,-8.74198458147709,-10.108384830063235
2.7840000000000003,6.24962375688792,-6.084362828385817,-5.13400668884197,-1.5389388699806537,-8.345292640012591,-4.047053512840817,-10.15254904898903,-11.187370785725555
2.7880000000000003,3.96938231418636,-8.122618579683788,-7.750192378944638,-2.499588547726354,-11.278139815792475,-4.627716823465004,-13.578088664712883,-11.9119340997183
2.7920000000000003,0.6592831317683567,-11.987461943176534,-11.576160399881937,-4.479117103430378,-14.85660946099469,-5.668549191207076,-17.91966995752162,-11.921446121339597
2.7960000000000003,-2.175077161303502,-16.14958121306425,-15.361883190013208,-6.940436511232982,-17.672915605458357,-6.584428313054483,-21.55467318074178,-10.93356750470674
2.8000000000000003,-3.3084238380624815,-18.748508428361728,-17.61793698772444,-9.036764331950515,-18.291238748762986,-6.805800332039741,-23.028161271621755,-8.92216681128262
2.8040000000000003,-2.3027482178205894,-18.446913986810575,-17.363633032790453,-9.939705293700355,-15.922861333838423,-6.054636611472844,-21.692558661604203,-6.2320768595575675
2.8080000000000003,0.3194226460950951,-15.092612755183703,-14.638908936652285,-9.216317537590175,-10.883509225730414,-4.492163434569385,-18.010196585566447,-3.5484488186629006
2.8120000000000003,3.3207966335685453,-9.83900879700572,-10.49311222281381,-7.061529120992601,-4.558254880837033,-2.6552493694908303,-13.385402233420336,-1.6982565825687823
2.816,5.305088079640839,-4.644406642885213,-6.461000619908105,-4.248211218857782,1.1513824951109592,-1.2053427816910305,-9.591276987612996,-1.3474018838200088
2.82,5.378091521559582,-1.3639076072104896,-3.809108144039698,-1.7680909886152603,4.663852808953549,-0.6046715730139118,-8.016953998190044,-2.70574013762118
2.824,3.6181330520861597,-0.8816315049359269,-2.971202553610957,-0.33113143190402594,5.418749048412244,-0.8825000764106469,-9.05861280345013,-5.374851236738582
2.828,1.102483987280383,-2.7190105262074504,-3.4641546310292064,0.008068406523429328,4.07924120321303,-1.6170956344514233,-11.94031705270408,-8.434808809654603
2.832,-0.5707842105964707,-5.321566118027766,-4.292645451998142,-0.1280926020786466,2.1270018129583605,-2.150401718187532,-15.066031694130864,-10.76455309932097
2.836,-0.06882259081609599,-6.863805298162899,-4.579363261890796,0.19459341484459936,1.073648389415705,-1.9214587985855527,-16.753771799286497,-11.473795033503324
2.84,2.949112897550102,-6.157409796287832,-4.045989423827611,1.66037884006919,1.7106191409245668,-0.7420368532367622,-16.01821473419586,-10.264456948149512
2.844,7.551925901791202,-3.203619465513616,-3.085734151203053,4.258373628152324,3.784854941096124,1.1342128402721785,-13.024379810049787,-7.555095378135096
2.848,11.906836370625127,0.8723355862964013,-2.4308589615261518,7.22284373690662,6.248634701957929,3.17868679310609,-8.980124656031716,-4.301975263473878
2.852,14.147153017931178,4.422601363781253,-2.661799639037296,9.395511429605323,7.8977252115289165,4.882909825949926,-5.522216089564453,-1.6043091692329705
2.856,13.311207260991441,6.075288990865719,-3.8632041662169767,9.808670550831451,8.019259018336491,6.0059245308739095,-3.906075276133107,-0.26497354788256544
2.86,9.855699262312179,5.324078619179799,-5.617939384183812,8.171658286267398,6.695390077120016,6.6341286980665375,-4.412775320343799,-0.4969053099677323
2.864,5.451729562565799,2.6470533253660165,-7.312876196351231,4.997969778483096,4.628744111489311,7.030237630893262,-6.276990333129344,-1.8939095270014983
2.868,2.13859732136617,-0.8339221322734556,-8.51654129845266,1.3198575233274532,2.660402806179916,7.388925704225865,-8.154882820038992,-3.653022959001127
2.872,1.2774739141226767,-3.9124181782105794,-9.184806276667931,-1.8257194801322143,1.302609425198547,7.672348851976432,-8.866902852696935,-4.930424134756484
2.876,2.8785711242745333,-5.765474271013436,-9.579525359443105,-3.8406733741356764,0.5694119916604294,7.636807107740052,-8.00208812991422,-5.168275316903312
2.88,5.6676782867525075,-6.1244610161931785,-9.978480255079958,-4.7158106892814535,0.16446474872040007,7.031118208900084,-6.058087988738036,-4.266661418035
2.884,7.86423241680312,-5.138690310545146,-10.391377002922153,-4.839128962778993,-0.15080627533734314,5.833214081171791,-4.083140898166231,-2.5606004924939367
2.888,8.21758921406014,-3.105213184356961,-10.489864507780169,-4.633040017974519,-0.2930379128649214,4.351419460297453,-3.0496651818482388,-0.6458441364103642
2.892,6.717971644890252,-0.2636857677617339,-9.806713169034007,-4.263365958774813,0.11341371037517245,3.106649030292758,-3.322535768597248,0.8626138900763083
2.896,4.560242869283863,3.2334773228063916,-8.072324372176904,-3.5957060263011824,1.4401769928240196,2.5414577650624333,-4.520004739881006,1.543570524831912
2.9,3.377993183445997,7.201201295260833,-5.4615864562259855,-2.3944077060617137,3.7090849892499174,2.7412839644113958,-5.804636912712606,1.298277872375067
2.904,4.206716079242389,11.273518605810084,-2.586912718724654,-0.6045033686083672,6.443101091762523,3.3472136049002224,-6.395124757103412,0.36935758018745624
2.908,6.783656819207492,14.865581732625902,-0.22314763480889876,1.4834947794581832,8.843461229186996,3.7283131491942543,-5.985079205929924,-0.7502099700647218
2.912,9.600856525302397,17.306501685474444,1.0854662327111502,3.296238529375392,10.200685720314922,3.3347626807479136,-4.828779904240239,-1.4817751603067766
2.916,10.681795397672662,18.076749516977454,1.296646959676977,4.216561146705716,10.276447784838997,2.0124696171231706,-3.484050594796599,-1.365610773550725
2.92,8.667783426951031,17.027617049069946,0.8599302876967987,3.859335342756681,9.418457637090675,0.09958820809533364,-2.401015885484583,-0.23300153142448643
2.924,3.589427465770477,14.456715463253117,0.4294437681825478,2.218736041553031,8.331079223394433,-1.7522763652200406,-1.6346213222628396,1.7210861257467673
2.928,-3.127054232772732,10.990502443671645,0.46665546011615255,-0.3882661424401954,7.644201913687674,-2.933909965807694,-0.8490942475010705,4.001427021600451
2.932,-9.394710951423715,7.327761298768628,0.9701340557039586,-3.5130395552155624,7.544008056777647,-3.1934153367534868,0.41510516418541443,6.001141395226066
2.936,-13.533052580054022,3.9676819678940864,1.481969787413469,-6.76919637617337,7.68311098267315,-2.7359897692316495,2.3906151975989185,7.240156891630651
2.94,-15.063218588139668,1.0627809571177371,1.3662393001038744,-9.901841193290547,7.425629116237591,-2.0618060110580068,4.872664609977004,7.551322987720361
2.944,-14.807262038206261,-1.5329973945673787,0.20107250469981786,-12.715671465059513,6.265954969098851,-1.6504252548064344,7.287330097058163,7.126686246479663
2.948,-14.256498207187889,-4.035842676840419,-1.930749466185353,-14.92997582661377,4.1746728760293035,-1.6865275101396613,8.99016843341486,6.4052744212342985
2.952,-14.615824498911762,-6.45957820771575,-4.425768386329656,-16.106450637185908,1.6626512029816407,-1.9904627062411087,9.59613398237584,5.853183306136973
2.956,-16.086622718382692,-8.458314439500636,-6.425213584393329,-15.741820856840132,-0.46012154061305033,-2.1805534171222427,9.146217490456626,5.7426704700035875
2.96,-17.767564735355464,-9.383434369992848,-7.212482091797389,-13.492326330715446,-1.466718368718766,-1.9395322909644959,8.041887328981165,6.049838658101661
2.964,-18.223632671282573,-8.57192721237686,-6.539787228999574,-9.43117027256092,-1.0201327795006225,-1.2200948460487222,6.801315378606836,6.513681504605581
2.968,-16.38491943589223,-5.740664404176796,-4.715900159186845,-4.189953462217569,0.7518745024661628,-0.2688983006350118,5.796784844092772,6.81293977451224
2.972,-12.23730448507317,-1.2747960879012203,-2.415216741560841,1.140909975029147,3.416052124326767,0.5369603137530565,5.1355407528897326,6.766547844201979
2.976,-6.925145413137006,3.7705816022040297,-0.32958808961292685,5.338404329101235,6.492430196842137,0.9171606533263801,4.721183101643316,6.439564642830584
2.98,-2.218194383979773,8.012657038466369,1.1541827763148622,7.46813784886546,9.643275172791396,0.8347172952279776,4.415238343112274,6.093204198132883
2.984,0.3587671992458654,10.302514607626486,2.087593630367037,7.22859348432844,12.692454444397573,0.49109386450870884,4.190903818545451,6.021153772068739
2.988,0.262530493736004,10.24252105312043,2.8502793272373665,5.067520928049005,15.513541213970285,0.1926661222885584,4.1630662127726845,6.372028404687826
2.992,-1.8579709227818335,8.381240838605436,3.8713776570416827,2.0073547086895593,17.902633457577252,0.18854182909994677,4.48512523461361,7.059817074069549
2.996,-4.549570136996507,5.960606986984845,5.349014678233582,-0.7457753989791752,19.553906868588314,0.5873505488300781,5.20069314254702,7.816814098595209
3.0,-6.2929752293914,4.313234235605173,7.1182677370318475,-2.250167700833732,20.163641407423146,1.3742883231759466,6.153580833411185,8.349648159162367
