Timestamp,O1,Oz,O2,PO3,PO4,TP7,TP8,Fz
0.0,-1.4139800441625994e-12,2.3590018827235326e-12,-4.263256414560601e-14,1.2789769243681803e-12,-2.4726887204451486e-12,-6.110667527536862e-13,-5.158540261618327e-12,-6.679101716144942e-13
0.004,66.17016443306554,53.77994678124743,83.87299525124956,49.72337188650913,22.713233636286702,16.514813622089648,49.09483392804531,-37.24934408142822
0.008,114.60516611167544,93.03653387875474,145.24795714615868,86.08707006886281,39.04695847185792,28.39166575589806,85.07162912084448,-64.73658813685282
0.012,135.43328691605038,109.71586203600633,171.63732713766035,101.6956526670142,45.60057053621803,33.1199839240343,100.72912630110213,-76.78451767754098
0.016,130.5106573541223,105.4165411676085,165.48600788273166,98.02951924748014,43.39473039324168,31.364289726186428,97.68262591026526,-73.87153756781399
0.02,111.39218153987582,89.72429987623427,141.56949202728134,83.84589485629078,37.02546902618936,26.372556762786118,84.79981141312618,-61.760107345147844
0.024,92.74341622497556,74.784352292509,118.60231995982991,70.13230368912231,32.06136346352393,22.135066395577866,73.1681968727859,-48.32590341519225
0.028,84.8758576909871,69.13080030807205,109.72328083400586,64.42872601468599,32.09759107153373,21.26430654970497,70.36687523858706,-39.898144280925486
0.032,89.40457033216498,74.06622894127229,116.96126736506132,67.58129722013385,37.04742746490541,23.71969324534969,77.09863594645405,-39.027555599578086
0.036000000000000004,100.04551376791781,84.27805192933087,132.25765560511576,74.4722894840738,43.52939107855094,27.036738052226383,87.79621954132128,-44.563203285762285
0.04,107.50472334526224,91.86121527029766,143.6777831620825,77.88387903319881,46.98614508996153,27.85040317681947,94.48688657311953,-53.475198868848864
0.044,105.29325170949247,91.16816175967395,142.81576809865544,73.05224022202043,44.29461956181887,23.86799512885915,91.52856689194056,-62.97949448338683
0.048,93.13222908826654,81.7332762230566,129.127477103614,60.28773164459688,35.42664037092683,15.19305347863839,78.57460607605657,-71.64955006138696
0.052000000000000005,76.4473702724134,67.98637223818199,109.29909892901794,44.485871371754286,23.396973956971365,4.362498091600216,60.4472273536028,-79.14012188369927
0.056,62.80512995951683,56.38608292745259,92.7618367475346,32.19984616724322,12.69267506635024,-4.846618089057657,44.39332199659996,-85.15728977196082
0.06,57.652071480780435,51.858596031700614,86.31667148584077,28.126556192670165,7.098707451161239,-9.200698721569381,36.43219180521488,-88.69518139025756
0.064,61.79565320481756,55.54584277147511,90.97663668128745,32.99491208906462,8.085568906082052,-7.423410791972472,38.7696618759241,-88.20761058268141
0.068,71.71581363601842,64.82439430269591,102.3606491769177,43.754465898834226,14.453053158952436,-0.6057066559196045,49.368729394518994,-82.60841217937613
0.07200000000000001,82.13892459089932,75.24429735662225,113.91424018820828,55.661110284049286,23.251953026445676,8.514105887295017,63.56527829927027,-72.3575466004271
0.076,89.12173892238602,83.04722629940451,120.76090754276754,64.88076912230987,31.36326556476797,16.95073435730542,76.59640010664009,-59.77232226776319
0.08,91.78936650518015,86.77477627617338,121.8436576050015,70.07597597545922,36.82730700882345,22.760732857515258,85.56800842918022,-48.19269739559666
0.084,91.9555298045357,87.26762888568342,119.45709626283008,72.29298169795703,39.321845639698736,25.61342249710156,90.00473183953275,-40.421419833324414
0.088,92.21640637049258,86.40210057622517,116.91759775385279,73.5270322470135,39.71586859294001,26.45512048985381,91.06494213297447,-37.37248266242157
0.092,94.00501027634404,85.64219044655397,116.2265347097248,75.12180513142923,39.18540976741013,26.622941179670256,90.27317996951201,-37.775161669054064
0.096,96.84511578692513,85.3353240798944,117.21704769626297,77.02489968428586,38.49241383520504,26.981232796590874,88.65331247396253,-39.1206670056737
0.1,98.9981898665651,84.94036638386399,118.31898880241546,78.12857072843711,37.74870490725947,27.514542715066852,86.56617395151497,-39.226402041083
0.10400000000000001,98.83421996742138,83.77934205560653,118.0906178842651,77.27660328798896,36.68559194249456,27.54844237369285,84.06192959380155,-37.41761684998732
0.108,95.89997978287387,81.6541265156915,116.27267053615998,74.13739198249561,35.10532694702008,26.339708102513107,81.27212089958698,-34.6593969842804
0.112,91.11547030258414,78.98851099035363,113.79987069647683,69.45693088159418,33.19909513792517,23.657850702221218,78.55226426876845,-32.690403798889776
0.116,86.16660891348221,76.55244842013714,112.0207618039131,64.67598745578539,31.56862204281672,20.027017264997703,76.3739211206792,-32.812404127892634
0.12,82.5513179685932,75.0175040457653,111.73368259090618,61.19172799099779,30.941116090829027,16.49302735938106,75.08646808264271,-35.0936327181506
0.124,80.86846473052131,74.64820920092913,112.71994142944376,59.73252590830978,31.778435683966343,14.110171720105306,74.74643447711348,-38.395314838547904
0.128,80.67543870736108,75.24484200761442,113.96051351523721,60.121948539781535,33.99534541003851,13.428442400877472,75.09818043262109,-41.093113717759266
0.132,80.93767698963974,76.32675756943279,114.3582918742523,61.515753879320116,36.96689057820894,14.277135710293017,75.72976630147576,-42.00845874514081
0.136,80.74164897612815,77.40883846536266,113.47298614692306,62.93361517106155,39.81760297929768,15.941668618858287,76.29559536372504,-40.99976066390054
0.14,79.76785021244417,78.15113598592274,111.69434990731952,63.704922501305376,41.78358016830043,17.552020759415406,76.60516445667311,-38.89959947273777
0.14400000000000002,78.28760910820287,78.32892152952391,109.80425412773506,63.628627911446564,42.464333099968805,18.467879713510754,76.53883016593343,-36.916108480414906
0.148,76.78601581148754,77.7298428021514,108.2693297871754,62.84223311895434,41.84959563907839,18.45622973813552,75.89036938397409,-35.92582105634462
0.152,75.57896050860668,76.16814558288229,106.86975605966862,61.61215117956519,40.183982526846975,17.635622224699176,74.33976507182277,-36.117002994790425
0.156,74.71752049729832,73.67040291401102,104.9679530130366,60.237327656715294,37.81202269931368,16.315365074171517,71.64501915858796,-37.132901387369984
0.16,74.11531348385925,70.62163371239262,102.08622938117855,59.01327856793162,35.048814300332694,14.825966413370224,67.87074979074261,-38.48751354245546
0.164,73.6921037361071,67.67267253040686,98.32287246810887,58.18076334138357,32.11316523068996,13.445277803331003,63.44914453003537,-39.90700294840804
0.168,73.3730539211853,65.39287411483542,94.25977261108338,57.793631166227954,29.10177780795935,12.380011732642778,58.98754009028997,-41.3844759096375
0.17200000000000001,73.02364227922995,63.92962446191307,90.53567287146899,57.63549557762761,26.02478811710237,11.770884870936598,54.988902830325046,-43.01243451441257
0.176,72.44881482882927,62.93315796088547,87.47441344747973,57.309203578699666,22.89249292892722,11.680279171848433,51.693050430288224,-44.800870559377245
0.18,71.45053561086792,61.7646892551511,84.94329515448942,56.42922503669736,19.773353917763416,12.02324509313592,49.07331851150546,-46.6118717010608
0.184,69.9068398649953,59.85787673814987,82.51873072171254,54.82766803483155,16.81203029441832,12.523098386147993,46.95312935933199,-48.22602633534643
0.188,67.81072452935666,57.01280645797184,79.79728758798822,52.633791840100486,14.199797091312167,12.745512332861615,45.14466345242074,-49.455406781930996
0.192,65.3175102512623,53.52177303633094,76.73755089187509,50.23389971326669,12.156714306182,12.268899794279882,43.580954333533356,-50.21706358387141
0.196,62.79391150251364,50.09427492404211,73.86136108488193,48.15201425763518,10.949746142328689,10.929619621150344,42.40669686190819,-50.54117433208561
0.2,60.742906176504114,47.56892474697885,72.0663540744358,46.83077621447918,10.86825610883605,8.958488270713879,41.92537081029943,-50.511813375804834
0.20400000000000001,59.583775126279356,46.53018528156369,72.12425379487851,46.40567202481623,12.128463621432555,6.926470718138905,42.40317854688873,-50.184340919428976
0.20800000000000002,59.363443900849006,46.9904609198324,74.09301912182619,46.55636458669588,14.700458417950674,5.467484870944929,43.80749756590295,-49.55263104840128
0.212,59.64926731716571,48.36284659747687,77.09977195117102,46.60348276518828,18.184130258081705,4.950735357998845,45.69469312834523,-48.59821632096567
0.216,59.73800852038089,49.76574359129218,79.71426810240195,45.86552447662491,21.84710220127473,5.307694942920488,47.36286663629702,-47.38357868715405
0.22,59.01183552736545,50.42557646731773,80.60904344648367,44.02590860308001,24.790816302667093,6.069000227021444,48.137295396474606,-46.08780275096106
0.224,57.25166558244168,49.972706774528504,79.16994775291921,41.338991742628366,26.222839037479414,6.632371327744419,47.64252056586917,-44.90358895495164
0.228,54.75745263931179,48.51754377378347,75.7382276569619,38.55065954557739,25.719184914991732,6.591421365032147,45.93831067162976,-43.892966034509435
0.232,52.234714464980534,46.53359651141693,71.41547766932021,36.58847954421521,23.37822765998974,5.937149322694864,43.485539213102186,-42.94026988341811
0.23600000000000002,50.45981408458121,44.60138976747815,67.50902279009634,36.143729509499366,19.791212417582198,5.027994671051754,40.92570043242243,-41.82950333379221
0.24,49.888424154421045,43.14410237625011,64.89143380769414,37.32577121958801,15.812863453733025,4.336901881260829,38.773912473106904,-40.43408013612762
0.244,50.469921481687486,42.31969398825971,63.68654328615444,39.613316162806534,12.259880414596667,4.165514869082887,37.215321052191975,-38.91887945621954
0.248,51.71043215151844,42.04835663126228,63.33995692839797,42.08395114623428,9.64323637588872,4.483938374476992,36.05089140608071,-37.77503771388288
0.252,52.875033423610844,42.0741037819227,62.926951851928834,43.756246269147724,8.008880320163218,4.9639584701311215,34.770016411949456,-37.61093323602856
0.256,53.252894192732505,42.039275397955905,61.56916744519181,43.917458614651046,6.963720922418135,5.1778940850851605,32.75138519651517,-38.81264883376323
0.26,52.433998088650924,41.617799490066616,58.84626402004143,42.35762456739178,5.907337042718689,4.842480053121108,29.582758783725083,-41.290128216275384
0.264,50.4717497939847,40.66320516860662,55.03847116277673,39.42484363247341,4.360878234420797,3.9659423470741615,25.36568624390941,-44.462446789001596
0.268,47.81891548915826,39.26148070480059,51.01754489267516,35.84728336310212,2.2137305576741717,2.8065525379143104,20.79576281750975,-47.47231257875855
0.272,45.04367258842314,37.63562033328513,47.790089983147176,32.385692128626886,-0.2356473497728473,1.6944487705074458,16.92727714151516,-49.48621300170932
0.276,42.51350951002453,35.98079993624314,45.979879384798316,29.506142967018796,-2.4401270826347794,0.850475609048619,14.73806481100233,-49.962087718143074
0.28,40.29069053664051,34.37497138831995,45.588872707236725,27.267447250890385,-3.8596915062008854,0.3134935304164266,14.742254453174564,-48.81142375539172
0.28400000000000003,38.291517389068254,32.83018473272459,46.17079416589444,25.470056102008613,-4.1602398608480815,0.027844523422917433,16.84908540960279,-46.39726999471678
0.28800000000000003,36.49923294539115,31.38048520361938,47.182421428606965,23.884475772890983,-3.3075126457483144,-0.019030038650505787,20.45463892741112,-43.37918811658421
0.292,35.019214052076734,30.090189421492973,48.217974090014344,22.37121275387977,-1.554146082867085,0.256431006116685,24.651389592761177,-40.46313308468241
0.296,33.97078134423876,29.00241437142389,49.06415741492404,20.875130495420137,0.6790760818416057,0.9704168112716598,28.498289383172125,-38.17567180026401
0.3,33.36683735147457,28.115619605151622,49.655320384412946,19.381412897016716,2.9761991799648833,2.130686384784271,31.298517150223343,-36.77105129648527
0.304,33.09991791775036,27.424855997010233,50.039681621363,17.92483923474766,5.0815459005566535,3.533091100822645,32.801423787679326,-36.2663752988849
0.308,33.01378181303086,26.96923955215017,50.331755432440104,16.634358454032846,6.948417837007909,4.782410493489165,33.21546686692256,-36.50848103900115
0.312,32.970561592174725,26.810251813280814,50.60826529785708,15.739668026180473,8.651369827813054,5.444698449930865,32.99492950416338,-37.19217642502303
0.316,32.890017881172355,26.970187525398316,50.83020947100629,15.525213208733529,10.238835574343705,5.269218240698644,32.53743514253667,-37.86244131495178
0.32,32.78838244359196,27.411775624063186,50.876817596618125,16.253539069868115,11.637252939597538,4.349198394199465,31.99111789817575,-37.98652903336226
0.324,32.811068755511016,28.077699905168338,50.68477767822235,18.083376881809077,12.677285579154844,3.133309075551395,31.27032182005454,-37.126965540518626
0.328,33.1953680601852,28.916117249979386,50.32429370042551,20.96994171211451,13.196239205670114,2.256607488256913,30.209403424692166,-35.131409164350835
0.332,34.1321700280963,29.830671093388204,49.89526591271496,24.570998117078837,13.122487652200792,2.2577291428223987,28.712751802479268,-32.214559896543534
0.336,35.63433313722744,30.62759663490302,49.37407662935824,28.278967674902393,12.508253437009285,3.34329360739844,26.85386171054983,-28.875054336100664
0.34,37.52929673631505,31.051579382923563,48.58588047682449,31.419984822997876,11.500092459700877,5.308338722155816,24.9189915756238,-25.713574344105982
0.34400000000000003,39.57857497134197,30.92374909272388,47.36841807672471,33.541984775080536,10.292665571730263,7.653196300979712,23.389138317204203,-23.216883723471202
0.34800000000000003,41.58703705881048,30.270191638897256,45.764614643160414,34.594832345627914,9.077305886969107,9.806613734816816,22.818443393257326,-21.581024849449765
0.352,43.37878969890263,29.31427823390885,44.040096772227024,34.84873172450838,7.994608928292085,11.320908245517035,23.594032637638527,-20.633287019827318
0.356,44.7011049264962,28.3445177412695,42.532244197839574,34.621834143731434,7.129894521700868,11.971591041014818,25.703995825926512,-19.909426298813486
0.36,45.21494511086484,27.566300177395956,41.461454917543165,34.02494317588595,6.549760928361467,11.748199412905699,28.670298476095592,-18.895103902295354
0.364,44.624888240115695,27.02735313620061,40.83930524466027,32.9002569052724,6.344513347589123,10.791170068327148,31.70692003615975,-17.31757385365514
0.368,42.8473875899343,26.62716788737039,40.479037613090895,30.96958162848942,6.625167014332275,9.323202991657162,34.01655047207579,-15.309550166420902
0.372,40.07227175232844,26.17268484207506,40.05971078990943,28.0731943255085,7.452132995187304,7.603144907625387,35.06860556811859,-13.332992115417325
0.376,36.68155063165584,25.48130413704061,39.268145048003746,24.36157305487926,8.759719622396847,5.906270894215042,34.76923271704227,-11.909936145777875
0.38,33.12138333082094,24.532510778855247,38.01403555496944,20.350223298800426,10.357169878449923,4.498851488068864,33.495843593757876,-11.33233197803142
0.384,29.802785573818078,23.584659358915847,36.616837189019236,16.804922935959727,12.025855406496841,3.5981737968111664,31.985422641976584,-11.508268228554579
0.388,27.040275719040523,23.134373532147517,35.77536035085259,14.468368657176946,13.643994300384994,3.313198075274247,31.068567590085205,-12.00481509366621
0.392,24.97870517334151,23.65117434937851,36.21028644622046,13.712555424113036,15.221298594751012,3.569129247622077,31.28203911679362,-12.256059123018911
0.396,23.562368521522295,25.23671692270407,38.189924220396726,14.336050283636691,16.822845351863386,4.087804057521499,32.558175431262974,-11.83433833417743
0.4,22.61205632778286,27.456984495703026,41.26856232590548,15.658279258158517,18.43590654944931,4.465708114579262,34.204939814347696,-10.682727208938417
0.404,21.97349082913081,29.482859514761778,44.434548784048786,16.877920010824624,19.878630486532007,4.346371103956844,35.21999939603819,-9.195157962046636
0.40800000000000003,21.6188056567057,30.469874838610693,46.56402235510059,17.47979072160758,20.814253650950846,3.6038136773355696,34.773151416009966,-8.063313698464867
0.41200000000000003,21.624514305482677,29.971555983736216,46.90016117985995,17.44973965879498,20.876672117572152,2.4400119012487256,32.59324425771393,-7.925213083481966
0.41600000000000004,22.066916274442782,28.18460312395843,45.348552871774324,17.21055745453402,19.859919205238786,1.3423594389675437,29.077261256409614,-8.999164864105968
0.42,22.962257890949303,25.922185006385842,42.49262466593795,17.36845537572822,17.872389411379316,0.9090839854320623,25.106645296580126,-10.928747044167567
0.424,24.292332699372682,24.304805649620743,39.34683224240845,18.418573398900833,15.36442163015493,1.615599263516609,21.669088446678533,-12.933422425349107
0.428,26.0239873731162,24.250971421423692,36.90334874604366,20.50192852360655,12.956519813367258,3.5947365174936072,19.429847807527235,-14.19594629759251
0.432,28.039247577491167,25.97119355948177,35.63481703976899,23.278542212959422,11.121154020517018,6.520586877350361,18.4408204670791,-14.267718461584504
0.436,30.043854931013318,28.758501866517037,35.24905652414994,25.991796680646985,9.915437775820376,9.681735538919682,18.160620875663497,-13.28178188369321
0.44,31.577922587172143,31.249160923359668,34.871834035180996,27.722713216387874,8.937189709288333,12.213548882082987,17.80933895008036,-11.883336863679835
0.444,32.174224855100654,32.06402902579559,33.587474747716996,27.75072442239863,7.563856850874448,13.415194592006598,16.873364736114997,-10.913524753935256
0.448,31.58064398227325,30.49524757644041,30.99945479351362,25.852396131867447,5.353587997907441,13.024489111755964,15.45429611463669,-10.976865170577188
0.452,29.882309153375225,26.845005296344453,27.444594764544217,22.36912495667004,2.3685833896330175,11.309883826404404,14.224289514250351,-12.099722824568268
0.456,27.465318416640233,22.260293533488515,23.792261900135824,18.04161189254959,-0.7536849271409931,8.9519413978309,14.023034968808133,-13.673853697533117
0.46,24.86010357782272,18.186024905350884,20.999024588419992,13.713360287393701,-3.031789245764208,6.759458457797724,15.358225971343042,-14.762305377682843
0.464,22.54790348485316,15.727673878655338,19.693351990388173,10.050491716072589,-3.562586080497507,5.358545611501252,18.103537703474522,-14.622477537910331
0.468,20.799872175173487,15.220046566227262,19.960846714399082,7.37501522844635,-1.9360089723940197,4.992327331050117,21.54253430956165,-13.137999703002418
0.47200000000000003,19.588854067189196,16.15917454720983,21.350188201148445,5.642493521633921,1.5515274920204263,5.496393376001713,24.693245108464716,-10.8987948910017
0.47600000000000003,18.636573228786986,17.520470274014684,23.09932006898422,4.581354819330529,6.002102188567541,6.4567031513453035,26.73854498714116,-8.88361278465567
0.48,17.6213429772485,18.313133641477854,24.494943509866243,3.9395687591447857,10.289174594798567,7.452668592443459,27.36043702596771,-7.947430384304515
0.484,16.43255785678465,18.085590302474436,25.21064433719455,3.7113844671156437,13.525255042263947,8.260565593038613,26.82408553356075,-8.399551652505593
0.488,15.290471844041427,17.112154209118497,25.426355696825205,4.191549932162421,15.384357091620755,8.907090101739104,25.764657391490548,-9.8789626883791
0.492,14.61715769483825,16.150586084900176,25.624793227642833,5.7703299060660775,16.11086170425112,9.55019050234247,24.77867026181686,-11.570552999610232
0.496,14.737117395041173,15.937900156580357,26.215774298630727,8.58273177592335,16.24398608207445,10.284443542798275,24.073515550732278,-12.640063440247113
0.5,15.632207804928864,16.749915867961107,27.241531226864964,12.252967711942077,16.235710134524084,10.994310823402884,23.399632531887526,-12.66473052240612
0.504,16.925841345535915,18.273739332881725,28.349512964139148,15.926896673489509,16.192166508157804,11.375851876068282,22.29550713950419,-11.824524382872841
0.508,18.080275588518983,19.817972878336384,28.992806128253864,18.59256061840781,15.858076299270312,11.110662759426875,20.45924955869459,-10.743772638595242
0.512,18.64189303951663,20.67924356538252,28.677158417835948,19.504719051254717,14.80867577275145,10.07339286523953,17.971591642207308,-10.07549323972924
0.516,18.41192192097209,20.470559734756428,27.16004950985525,18.517033694186715,12.73825640048314,8.451383292099388,15.257967459097964,-10.074611664015308
0.52,17.49455708140559,19.279529054363387,24.56524197549651,16.167392208799384,9.694213596292053,6.695542923441448,12.864095921307552,-10.43386392338329
0.524,16.234425437516386,17.613235644357154,21.402421563382944,13.484191040338693,6.145519732231479,5.342940632013334,11.207044181955752,-10.472357236287596
0.528,15.047537167848699,16.140842098322835,18.41943586064971,11.560370192598674,2.817238318174498,4.774844015951064,10.41287730042609,-9.561942187669661
0.532,14.202472621125638,15.343273411069728,16.28248688506002,11.069457966153525,0.3663979532125672,5.034390032156881,10.285408810217385,-7.5170050114698075
0.536,13.68502685236126,15.262183950053876,15.253975268838971,11.978285893584385,-0.9120628124266705,5.821504345288532,10.418178541585938,-4.724801473662491
0.54,13.237958157155393,15.492483951358873,15.058105621454906,13.60011402145076,-1.1915940077135754,6.645321108309,10.397769880160297,-1.9737019275035184
0.544,12.559580995661648,15.423098662530336,15.042318801162704,14.96962484511729,-0.9604726286822349,7.068562676065545,10.007470099297223,-0.0691649648602698
0.548,11.526990769908839,14.585089932060251,14.543487640964255,15.326478111810342,-0.699356246005296,6.903344976937446,9.31787801224855,0.5649145833372702
0.552,10.281017865619718,12.894069558123853,13.234778427418012,14.431353324747956,-0.5847811838547854,6.254288297997377,8.614647695145736,0.10741474535833517
0.556,9.142453840352083,10.68047733339784,11.297743090266684,12.585568798184182,-0.3781191181961687,5.4193071316824515,8.223721655340869,-0.7338202192223768
0.56,8.44141786458803,8.53238926990027,9.360286887318274,10.40088847083705,0.435687829672861,4.707329061362021,8.352946776224798,-1.0755943019973713
0.5640000000000001,8.377453228123974,7.060722285157658,8.257823571288597,8.494350486167356,2.3546408565128085,4.298409784904637,9.038948122515805,-0.30500331361444133
0.5680000000000001,8.946583751742917,6.673286055694398,8.66816598143297,7.243732421382989,5.542975161144222,4.197095814833666,10.16909263400929,1.6160500962683877
0.5720000000000001,9.92915754810723,7.418862095212058,10.737753560291523,6.673209871596673,9.644997449480002,4.273601094808951,11.50661876931318,4.153491161076345
0.5760000000000001,10.96607106172293,8.97252820213107,13.928910043939464,6.522150448293838,13.857443516451216,4.361733710420136,12.73084129515103,6.510304983438908
0.58,11.727756340086241,10.788761611055008,17.218002602526433,6.45307881719805,17.245200995057655,4.351242222161627,13.528311545672496,8.049305963266402
0.584,12.107437782692491,12.345422585453168,19.575146387429168,6.283994272034493,19.14287418793348,4.242443170012672,13.721663152198671,8.5947180341666
0.588,12.307808815941316,13.332702289536586,20.448505936332587,6.101478663494079,19.423727050259274,4.139025637501376,13.373801576946857,8.464607752264444
0.592,12.725175221552309,13.676181359871862,19.944447565922346,6.1738090109466395,18.478426578418883,4.186821858487798,12.772479730914258,8.228778303428207
0.596,13.684248374305865,13.423747078919472,18.63441731032895,6.7334477871023495,16.93652634527968,4.51161495815344,12.281967754132765,8.333556855348256
0.6,15.185653737736038,12.618407022948146,17.13927102970945,7.7702358716846245,15.291390773873456,5.163817677352981,12.137174000639904,8.773419449978633
0.604,16.84534769179843,11.276638516266598,15.781699863798124,8.992777501377422,13.659048920726404,6.1038523707910795,12.302496828169025,9.01537714554693
0.608,18.055257298475837,9.465177129955212,14.4814724779503,9.963128980106012,11.78874632858713,7.2077238758693,12.456397665998415,8.24970246978513
0.612,18.2651419061546,7.381362730846368,12.892329480961585,10.302576538971026,9.29256824853246,8.270688809366824,12.09613430489873,5.866819603028852
0.616,17.25837203470818,5.367961663079335,10.710312131492007,9.877454793062842,5.970215238065934,9.039760142922255,10.751475006074017,1.913025075209391
0.62,15.285065176558055,3.826141511699624,7.973736978402233,8.87060279124652,2.0371926165909158,9.268956747616066,8.239532765257524,-2.762324690889799
0.624,12.980073126864133,3.0538421201163066,5.176582261620358,7.705851737935831,-1.8723603834639264,8.801585047246279,4.845555795906792,-6.795019808477443
0.628,11.081159345232127,3.0915792942926106,3.098200985199255,6.85068672641459,-4.932842436355402,7.646160614326307,1.3142697303866333,-8.90662291033626
0.632,10.040938387887255,3.6370067882548254,2.380590213895246,6.559612339865977,-6.487633967761541,5.981633385983936,-1.4076440238569727,-8.517895063890547
0.636,9.758145149137555,4.11495855791945,3.1238000132390895,6.703766301666833,-6.340352050788603,4.096717093110076,-2.5522017043227763,-6.04436826825834
0.64,9.619744928178557,3.925158305882361,4.775864161327952,6.8063554591331314,-4.816274282914035,2.278316693481511,-1.837531453569495,-2.7149130162302466
0.644,8.860425003230391,2.7695955262730383,6.433185869573353,6.2997792494007845,-2.5534292629609516,0.7132656292882542,0.46190293376969827,0.011555279190541334
0.648,7.02747921820901,0.8691590000283966,7.364550724523349,4.852759905685324,-0.1688915299237812,-0.5532991211346965,3.688343008311423,1.14052731104902
0.652,4.25494894034073,-1.0922669554499462,7.410392708735739,2.56792610027657,2.0024569333389817,-1.5911761326600118,7.089013983538843,0.6052024044494333
0.656,1.2087397345992805,-2.280372524583173,7.041033398703637,-0.03613053290169477,3.969834237771468,-2.4869236518667606,10.078133674330138,-0.735932959152751
0.66,-1.2437440170426202,-2.1134907442312247,7.05351356476548,-2.2385090062747555,5.930431190323729,-3.2456658798098665,12.36055788443593,-1.5945973940883746
0.664,-2.4358336406911274,-0.5424324479125264,8.099763670981176,-3.398908742371871,8.014096752653828,-3.742606921039861,13.901149236041796,-0.9731597675329118
0.668,-2.165568440413729,1.9166555763221558,10.28932292214019,-3.1821362882233437,10.080816530678804,-3.7644456227510874,14.77965084264119,1.2861653945558684
0.672,-0.7252759885676063,4.380451906855061,13.043633658448085,-1.6549509883176903,11.680132199420955,-3.12440993950664,15.012360002761053,4.429809119835783
0.676,1.2929648505979454,5.934560761466283,15.302855029548775,0.7756966966397512,12.209169813015365,-1.7837369716767668,14.468984685931865,7.231074815921313
0.68,3.310813618660471,5.9805347646291365,16.006157025612307,3.545100300171226,11.197944197938142,0.08139025842789405,12.957724644982168,8.661060861255436
0.684,5.005377739705655,4.44608954638128,14.60487352477859,6.132421056265914,8.559796518428223,2.1216993171883263,10.425232395396026,8.401447315825884
0.6880000000000001,6.351631663040956,1.7746712160903297,11.327774684949926,8.186235084037078,4.66756314950637,3.945461623217489,7.119021102029112,6.927034661253773
0.6920000000000001,7.458250669825085,-1.2931856195321902,7.033735427970005,9.535140543177171,0.2101570774895123,5.261459200174505,3.5724603854761847,5.160207013738933
0.6960000000000001,8.334149935900259,-4.031454400044003,2.7635553810631555,10.124368018119835,-4.091892180797174,5.967486962829154,0.4007087779567069,3.921717975270389
0.7000000000000001,8.784313368198502,-5.976370698518002,-0.7377015510884211,9.960788995287546,-7.754157004725226,6.143118546157957,-1.9650201737219888,3.5023866155668957
0.704,8.537856779374396,-6.992272966561473,-3.232910320415112,9.13622920925851,-10.607969746295407,5.989731689371215,-3.41516220641983,3.6107091200797385
0.708,7.505336233424167,-7.169288405593491,-4.858232008135385,7.885294491420644,-12.667414128366968,5.75948439943517,-4.0803936273831125,3.7112161686262946
0.712,5.950634695460341,-6.673155804203334,-5.812053985262334,6.576620223845875,-13.90219458129927,5.689042505231525,-4.102313744069166,3.525448617342149
0.716,4.430737500173271,-5.645195457195253,-6.08363794979039,5.597757158422254,-14.078777691902378,5.957961828201015,-3.420023187948623,3.3553547767005973
0.72,3.500658558909141,-4.205420189037962,-5.4153859193742955,5.160123496595684,-12.82497996413553,6.635893075329733,-1.750377910442705,3.9608322722583633
0.724,3.360524097724381,-2.534883505823406,-3.514154702468111,5.142860770299412,-9.907232745439515,7.617636422270808,1.1723659194084453,6.024541075004496
0.728,3.6435429694420742,-0.980658313953783,-0.401242894401308,5.065790700270623,-5.583373576164262,8.559591946140934,5.191453245947205,9.515902056239325
0.732,3.4660761604858346,-0.11130742508696079,3.294112907286383,4.211065062490576,-0.8126589437519431,8.867651307659738,9.386654312248329,13.370899754497628
0.736,1.7771985011593099,-0.6317360813772233,6.346812879364473,1.8919303045068898,2.886740534037589,7.821162598754798,12.08983600804985,15.753967182434723
0.74,-2.118561091887546,-3.11738926517015,7.348072312174192,-2.223536340385275,3.9595853258527627,4.84518948123039,11.410375016518094,14.830183338943487
0.744,-8.105855210500332,-7.649417663873221,5.380685171628933,-7.861533405103165,1.5264483249231589,-0.143902558473453,6.123814250848315,9.69045616857188
0.748,-15.119760315935975,-13.543100746626441,0.5990664626472171,-14.094387376049355,-4.068305246387326,-6.496997248319284,-3.5033291008585348,0.9566102642238747
0.752,-21.460150293807068,-19.383578595347025,-5.661585298238202,-19.569510386235276,-11.20890543950245,-12.87650487706285,-15.457678420806477,-9.268606786016264
0.756,-25.433813234148865,-23.426245639261104,-11.343892588792244,-22.930499091980177,-17.53935254440249,-17.63003943734372,-26.52203057888219,-18.116373019596367
0.76,-26.017283329187695,-24.23271576480205,-14.503166986113895,-23.273459246694614,-20.88466796328066,-19.398196245020436,-33.45408745987272,-23.043732723632875
0.764,-23.234143587061254,-21.267977772917682,-14.101608717070635,-20.449735711513142,-20.139363423487946,-17.680541537848818,-34.27586632884936,-22.80545246089778
0.768,-18.078132007329888,-15.168050839753002,-10.381746885356746,-15.098563649288442,-15.690767170204754,-13.076840025065726,-29.057480417390906,-17.86752328765962
0.772,-12.065001087763354,-7.552864971183409,-4.700498020873256,-8.441203018652173,-9.196837205657324,-7.068417759844811,-19.835529266763714,-10.099280744195427
0.776,-6.631240634116184,-0.4366105854678759,1.0826053890386045,-1.904678858604178,-2.8286569574310434,-1.399954399861153,-9.702540701476789,-1.9288230237521284
0.78,-2.6407994072604,4.529185236414547,5.360180492332983,3.297773974005918,1.6469126634381732,2.639834612208352,-1.5026826761126486,4.611129089498272
0.784,-0.19190213288392055,6.649541337566338,7.343213143071283,6.500866968074634,3.5161038128789035,4.7020298026249066,3.2445851152779936,8.520261106137415
0.788,1.218588484636446,6.340160432283719,7.194804952058291,7.712162001512462,3.218501855007488,5.382791913591229,4.691479743561308,9.921695381068117
0.792,2.2776913704089345,4.7675874117338095,5.706870139472654,7.480017502290864,1.9104997415862663,5.757905786075942,4.177507444138299,9.68296350589751
0.796,3.4135050482584384,3.182359486479684,3.769474653079917,6.580873327274015,0.7861144428768978,6.7200858783913935,3.258425514776082,8.84163814576924
0.8,4.560949173124497,2.300250302397817,1.9429456772039855,5.655482548416716,0.5165113650332596,8.468411742975166,2.8166923624683404,8.117690186755986
0.804,5.261176832185312,2.0550221133640174,0.3623433317378606,4.978067815706652,1.083441220770823,10.43796263573783,2.744164251780447,7.7142624644198925
0.808,5.001240165755107,1.8109670028149347,-1.057884584815257,4.443352128410456,2.011034706442449,11.675718708363659,2.2866183798342274,7.423016422869385
0.812,3.568754143135741,0.8523232545863957,-2.352319541443122,3.732045558402163,2.777290417156788,11.417987208598468,0.7433762031595552,6.9088160869768815
0.8160000000000001,1.2183057473152963,-1.1504198204927247,-3.361137945955944,2.5657403830707777,3.144372926269236,9.546698819500417,-1.9389913682198532,5.997318753903091
0.8200000000000001,-1.4130692891448957,-3.9317553504238667,-3.787384149077763,0.9260109916538743,3.246322467856941,6.667237391588632,-5.021447001586726,4.816681910023132
0.8240000000000001,-3.5738599542660268,-6.764756566924602,-3.377105720012808,-0.8664918668795094,3.43820142444839,3.786123055093185,-7.331165266076978,3.746014335264175
0.8280000000000001,-4.6990134255084355,-8.826054857567037,-2.070398558304362,-2.248839357848299,4.0496359756456854,1.799756987241995,-7.871225419920238,3.2378459281604934
0.8320000000000001,-4.614802733547045,-9.58697749720538,-0.04747798326154484,-2.6611726955763895,5.193690364842823,1.0824470702404758,-6.331547287108448,3.624519509314232
0.836,-3.5715981304378164,-9.033078924260648,2.346574659972328,-1.8167167274641054,6.717286653913025,1.393442368869378,-3.2312791016938336,4.990222559186556
0.84,-2.103204605179549,-7.62161193457281,4.72693499226907,0.1425778626793175,8.279136674152394,2.111143969910362,0.36099579513162183,7.129973061981524
0.844,-0.7848239148716232,-6.028255157175069,6.768606891405351,2.6946627127928764,9.478091268849656,2.6361743817842136,3.337663763803679,9.585348399766843
0.848,-0.0172877320672864,-4.846646719179324,8.227101450214914,5.156224813518145,9.956065974359237,2.7051368757990915,4.993646186505352,11.738787855209296
0.852,0.06423134400901098,-4.405632427399388,8.876055798592759,6.942261669599603,9.455679850174647,2.4425881779556597,5.1841506355436096,12.969717027613697
0.856,-0.4483545111516616,-4.756459611929376,8.466793649317061,7.74340018115452,7.861920122262131,2.172579788542656,4.18669485058636,12.841668030100195
0.86,-1.329870852615433,-5.765147083884328,6.792774776261929,7.551336874942038,5.255461062205953,2.1350232883438807,2.431693369751443,11.257158987694268
0.864,-2.3004094131278143,-7.210718264270736,3.856213743257335,6.560139446054224,1.9577970787217032,2.3043887741155533,0.30169829403827364,8.508119985706514
0.868,-3.0580312204545033,-8.82182063143792,0.029379132164893962,5.030538089093246,-1.4827348238191869,2.4222850079987177,-1.8975624092953067,5.196008059977181
0.872,-3.31835021082912,-10.28807209086527,-3.965796460597689,3.18223423179007,-4.426069266941864,2.185597913107479,-3.8626538158660715,2.048959108509573
0.876,-2.888688116907028,-11.292144250410452,-7.298176332997795,1.173724270879581,-6.366535751810964,1.4661244416340478,-5.248190441209408,-0.2968684836568283
0.88,-1.7672818522119083,-11.595647978104905,-9.396941224977159,-0.856204298499744,-7.153786075719399,0.3925188973568223,-5.747556227735691,-1.4833799367369753
0.884,-0.18845198441767463,-11.126768045462383,-10.202956634789533,-2.7169894519208473,-7.045730281555418,-0.7279295509461927,-5.246481314071897,-1.4944007795943044
0.888,1.4296764630264178,-10.009951447089913,-10.141458855179515,-4.141382470504743,-6.538751720233378,-1.5902158505666422,-3.941665586269684,-0.5972242612845244
0.892,2.623987265013534,-8.512386475675996,-9.846664185668988,-4.860957936653734,-6.061525565109653,-2.056961297992097,-2.3293411153917996,0.7994824593421219
0.896,3.0623033988295214,-6.9147108717889,-9.77656442151286,-4.7376921831104495,-5.697746461072187,-2.196039331155272,-1.0226892587061105,2.3099493433910485
0.9,2.677889684068708,-5.367212615988851,-9.942471546386445,-3.87054669309585,-5.116064612290254,-2.2024356779832956,-0.4729377506455954,3.6759937416047146
0.904,1.6901795164332447,-3.8204661182184374,-9.901028660535847,-2.590175384788722,-3.7567153303856813,-2.2655233924672404,-0.7422277390132832,4.781252668130232
0.908,0.5021000210338569,-2.0784817165231764,-9.0116959519861,-1.3247780973495034,-1.1806740064423695,-2.4687197516854162,-1.4664651176205314,5.592710437542857
0.912,-0.4985960057250356,0.01971297891873114,-6.849623365380846,-0.4269181707759131,2.596379171069229,-2.791751985070719,-2.0566271440512334,6.096347314847285
0.916,-1.1359948214889828,2.394502879229839,-3.526871097336763,-0.05384849235778866,6.995141874707141,-3.1765546166904812,-2.0247845058267937,6.279081592618257
0.92,-1.5323159299415785,4.626609453420559,0.25016849282822085,-0.17563964535386178,11.047434580143722,-3.601444487222151,-1.2469507020400883,6.141900641938168
0.924,-2.0161327846486845,6.064703477863173,3.4505757437779208,-0.6827394955108534,13.778279101847048,-4.085750741307605,-0.0028162328590739527,5.721026115494827
0.928,-2.89835192941908,6.114987454433418,5.186344604995117,-1.510397071365838,14.596420194173328,-4.631463561630268,1.2318118707174173,5.089577038879905
0.932,-4.274934316690365,4.550535267495131,5.091567897705463,-2.7082836239300034,13.482891575167114,-5.1740887598057705,2.086223970619704,4.33688329778162
0.936,-5.9668843080250324,1.673695048689563,3.433755151095003,-4.39366972202729,10.91806905587037,-5.583694087121462,2.5001565606050926,3.5497962182060663
0.9400000000000001,-7.625944616378113,-1.7682023022273317,0.911785735344333,-6.624473325304452,7.606214633191966,-5.750872335213803,2.7099917221343732,2.798002879584188
0.9440000000000001,-8.94142561835406,-4.8806920800666616,-1.711355487201657,-9.277091420951997,4.168128598854295,-5.699764470822606,3.031389928248016,2.1211353188344986
0.9480000000000001,-9.815172852019531,-6.992474266875432,-3.9396399882409003,-12.021599261282834,0.9508515351806235,-5.637073177740007,3.5832265848810567,1.5073923313057267
0.9520000000000001,-10.414814463499376,-7.93597772322459,-5.716930927353075,-14.449542660136117,-2.00081772513209,-5.892422592173108,4.114610243273592,0.8700941954854273
0.9560000000000001,-11.06876158338997,-8.09695676051082,-7.373532152358748,-16.280516202901374,-4.836907106270781,-6.752586926073121,4.054932425894869,0.04564980535405727
0.96,-12.06355138205495,-8.208160153551384,-9.412931003718908,-17.5224102361495,-7.761817674286416,-8.292060935507873,2.7808172599290657,-1.1834172005048842
0.964,-13.452517082070964,-8.9804284188109,-12.235151557098455,-18.449391122560186,-10.915032037450285,-10.289859859344952,-0.022171243412294483,-3.018381475782906
0.968,-14.964629072033176,-10.732718031578038,-15.899525530328454,-19.374291273288026,-14.278492068776686,-12.280453213143803,-4.093043600921201,-5.540980462802716
0.972,-16.092102422350052,-13.211033448990808,-20.046124726940395,-20.361259026724305,-17.621877209466362,-13.730475178177988,-8.585391595473782,-8.612943808263909
0.976,-16.323781011992118,-15.689676540364134,-23.99173757247633,-21.064306716675148,-20.48315285733113,-14.235799791160773,-12.344459279282914,-11.834349133777543
0.98,-15.396895012245531,-17.300907341330422,-26.956577715525256,-20.82926995206251,-22.225975719437436,-13.64881112291114,-14.34428177961462,-14.612702099382208
0.984,-13.43964664861581,-17.434306966906817,-28.311247106485716,-19.04322355740196,-22.207332382642203,-12.090561366780332,-14.07988328729778,-16.346739968416692
0.988,-10.923325837195216,-16.009387428807273,-27.74426119048273,-15.546812980122027,-20.033074514657187,-9.868264742550107,-11.739296407048107,-16.65904040486389
0.992,-8.469102281027572,-13.515706125343463,-25.334546634928202,-10.879687830492593,-15.824565822679155,-7.378803945965858,-8.109349592755434,-15.56674059690938
0.996,-6.613925606022514,-10.810141257987944,-21.507451232588604,-6.180495408127152,-10.343565372403486,-5.042928566790452,-4.265696080801414,-13.490209614678935
1.0,-5.6449846793454865,-8.76896714621017,-16.90894850775917,-2.758515543843072,-4.861112433188817,-3.2850319803878616,-1.1976895291091618,-11.096026310329574
1.004,-5.5513222919423395,-7.939359603722117,-12.218811831429827,-1.5166057440003335,-0.7504308918232883,-2.4994241799279324,0.49323248022797905,-9.042489082117005
1.008,-6.085551151644525,-8.342092029974836,-7.963778308142551,-2.522877501008165,1.0464558641716353,-2.9673898305812956,0.7388910679495808,-7.745145723845633
1.012,-6.898007313121122,-9.513620732605936,-4.431484956474861,-4.983562016193624,0.4129767407130108,-4.733574322487848,-0.047994578407826616,-7.260203638560554
1.016,-7.685991482694087,-10.766741204653826,-1.7120679331938704,-7.6492104931156994,-1.9074934613013297,-7.497000699340004,-1.194767869601658,-7.320467615850944
1.02,-8.305581629167111,-11.549820350879761,0.1562811329641125,-9.457785568371893,-4.694358200608688,-10.62616636289535,-2.066277965265416,-7.505986157205643
1.024,-8.808016137594546,-11.71697631203673,1.0615324769077699,-10.062276786650546,-6.858502768656055,-13.325671770638657,-2.3196202340539287,-7.4603763966080265
1.028,-9.378826969919935,-11.565003025541596,0.8149358045846524,-9.949495705226571,-7.956247744397395,-14.89311150884637,-2.0122318421313476,-7.048775933103689
1.032,-10.24067652485809,-11.650269073657835,-0.7423027914288447,-10.112128163831347,-8.34928502400229,-14.974781892898903,-1.5503442999894919,-6.403395330377387
1.036,-11.551468596347215,-12.474761797642444,-3.5673010867125363,-11.444018309400512,-8.911399685993757,-13.681940675061046,-1.4958255348477367,-5.839462434701552
1.04,-13.319619418208891,-14.198576875450774,-7.302096928109777,-14.199690640449688,-10.455917517967793,-11.517944000925102,-2.3075050139628446,-5.696673009310994
1.044,-15.354264676066101,-16.52024457178213,-11.295402867092475,-17.796374563782386,-13.204774613539577,-9.147358668869986,-4.113807760221218,-6.179674465177198
1.048,-17.264296507229155,-18.77775517435692,-14.772689939838497,-21.05121428332327,-16.604264121152458,-7.125348443384853,-6.613112904871883,-7.272237923564054
1.052,-18.553441117216067,-20.240121929422315,-17.127846412716693,-22.741014908704017,-19.607333642149467,-5.737477224729434,-9.178774754894349,-8.745180455554577
1.056,-18.800661494022325,-20.445345447490133,-18.188927094934265,-22.178361774996247,-21.24926857012379,-4.994628400803195,-11.135065974172681,-10.24135403346016
1.06,-17.850178703431496,-19.40160478965995,-18.30165302134583,-19.502829783731784,-21.170294805233027,-4.7453519394831885,-12.06872747166206,-11.392464739122744
1.064,-15.919931367010863,-17.54775478775788,-18.149723358912844,-15.554456372475858,-19.77527699416064,-4.809255629111222,-12.012840164005889,-11.928724189083677
1.068,-13.541927443617967,-15.49528432653391,-18.36532988314062,-11.421285118500567,-17.93775720074246,-5.045406464766211,-11.396479234721978,-11.76336893346356
1.072,-11.341724484617322,-13.692556596529116,-19.12907780521417,-7.9293409880657935,-16.42830051925931,-5.337373697115886,-10.780077925684948,-11.013480699679674
1.076,-9.76301936942842,-12.206316141263052,-19.983274279533532,-5.346946199524082,-15.418455207277253,-5.538924261964298,-10.515835373149518,-9.949133293505273
1.08,-8.882358050214707,-10.750233035318779,-20.007996857029752,-3.4521705030500875,-14.380483402698047,-5.479221230946433,-10.532086813296143,-8.904570005140338
1.084,-8.413148655085582,-8.929826442199255,-18.275878418885632,-1.8656316927370349,-12.437312175394672,-5.037992612609605,-10.35841986184986,-8.170772726170382
1.088,-7.886233539742752,-6.540161098568496,-14.3458709885317,-0.40115059598449765,-8.946664927303393,-4.2448290941177795,-9.37389096408698,-7.9041101318908575
1.092,-6.94254075959728,-3.756094185943816,-8.571717882113788,0.7614935179018232,-3.9874730846218505,-3.340146396021749,-7.164120878261984,-8.076013864179075
1.096,-5.5902866598032075,-1.1101422080609273,-2.0584008932800684,1.1730726280642831,1.543601179727549,-2.7225233658606247,-3.799594850681216,-8.474012106298279
1.1,-4.258047647811599,0.7431811089703086,3.729226952828257,0.41246034838431367,6.296361541064691,-2.7824535542154214,0.1275295907727898,-8.758922321933312
1.104,-3.6074396622478018,1.343929371460539,7.533553096745807,-1.6092805917839725,9.086927040260974,-3.703132391743757,3.7175697536475543,-8.58126245790475
1.108,-4.175926366586515,0.6626769570591509,8.794289554015265,-4.511687100345176,9.436604298306385,-5.332673396539488,6.133343403820215,-7.732849861526407
1.112,-6.0465450908882605,-0.8785856363387199,7.814826612216278,-7.564748274485241,7.73654826220146,-7.211992775515588,6.929125643009282,-6.272947692468272
1.116,-8.726276133631135,-2.600507039800198,5.5534696822047405,-9.977200138379972,4.9908708887489395,-8.72456150700072,6.1806247952920526,-4.5462213749415055
1.12,-11.314835124896554,-3.871974943658909,3.147454784119767,-11.196038891489632,2.298764399392161,-9.318780927270904,4.367901887894931,-3.070086214696829
1.124,-12.866766619714886,-4.354676094249369,1.434781346967279,-11.044582282043635,0.38273314223687604,-8.689077004374852,2.108784433806413,-2.3212463327092294
1.1280000000000001,-12.760063951470459,-4.070505602043017,0.7067538304508632,-9.648182261724276,-0.605008360689558,-6.844819929992395,-0.09158560640314284,-2.519855608776123
1.1320000000000001,-10.91412897856311,-3.305580612391382,0.7372516078982789,-7.259270387428958,-0.9711529248371729,-4.077313088124999,-1.9710846924787822,-3.517705443283451
1.1360000000000001,-7.769530050369232,-2.4317887851394655,1.0199003900050858,-4.111229231788093,-1.1827852230661031,-0.8533515551781337,-3.4897024303603805,-4.839571859192217
1.1400000000000001,-4.0830107439046195,-1.7529179980867777,1.0310127538649336,-0.4176067049885319,-1.6010383233618375,2.2897591657832783,-4.721073344193438,-5.8771892915024555
1.1440000000000001,-0.6441599092254365,-1.431993814886376,0.40137320828555845,3.5126299773720437,-2.374280723029815,4.829205082525412,-5.740045354299895,-6.1575313785453485
1.1480000000000001,1.9805988380355812,-1.4772292903989985,-1.0207272542942079,7.1902781429966005,-3.4705622971519876,6.3504402882908835,-6.548316978845413,-5.543108980414866
1.1520000000000001,3.586731167228259,-1.7435850241341417,-3.176331111662263,10.014164135381186,-4.747022416624581,6.654640263596585,-7.052720766593418,-4.25049015510725
1.156,4.3221468639029315,-1.942197463004625,-5.81113504039345,11.509095951860385,-5.956669646818128,5.855280343902052,-7.088706997906719,-2.6744418165863455
1.16,4.5494306251451935,-1.6898089910695848,-8.504092558279563,11.589287165453019,-6.712168710867587,4.384270828276395,-6.481954216670664,-1.1416664262602396
1.164,4.665065377120203,-0.608467429988611,-10.707281750242204,10.68374712107403,-6.476953089527597,2.8754838221985164,-5.113572177270322,0.2592171456843406
1.168,4.965019416483325,1.5416580746082238,-11.820192119283682,9.621788296091825,-4.670077777872246,1.947517813278596,-2.967615524656769,1.6661798954488276
1.172,5.570425733761224,4.728884275303887,-11.350962822299017,9.271481067970335,-0.9157635470780722,1.9615263819215276,-0.17511442564030744,3.2624998320868404
1.176,6.411656288942858,8.587147200188024,-9.115981395619766,10.104608863147304,4.674140535873455,2.883388653337324,2.961191889779228,5.0672092508814455
1.18,7.272981969347713,12.485224860013219,-5.382477838979597,11.9220367800614,11.3594120693127,4.322645734723581,5.99242000561059,6.846900039867553
1.184,7.888044708146799,15.728336678382039,-0.8372947596974711,13.91716182530853,17.909470252103127,5.743375642580002,8.42954471477545,8.225267065358745
1.188,8.063706622507853,17.811404480479716,3.6538071509698327,15.069348039701268,23.007231034492865,6.732508870538766,9.908498620007384,8.917908699384883
1.192,7.764841711557024,18.574706644777585,7.360043533442645,14.646813284081583,25.72104586980702,7.165114287873253,10.329364531954614,8.924163791253095
1.196,7.1144719921596815,18.18291064906222,9.916033988241182,12.561114720672176,25.818604532566763,7.199075590295555,9.895248940202034,8.55529246360027
1.2,6.301748153213179,16.952524803401776,11.330041441113167,9.383664882173312,23.759555767802205,7.104662591009026,9.008715140729183,8.258027397646192
1.204,5.457757657646692,15.151281518576178,11.799982998684351,6.040273091345719,20.393390014507442,7.06071411197426,8.08466520736506,8.340170576786685
1.208,4.597147120427142,12.919372430223518,11.49030186385123,3.382571056723129,16.549649645021123,7.053271526205182,7.378597870270109,8.775646354604891
1.212,3.660830204230393,10.351253610190797,10.415326548211894,1.8640191319993051,12.749314698258736,6.928170435800178,6.921518265388219,9.230058994534943
1.216,2.6280150509690534,7.649053979862996,8.512153368569523,1.463310085262,9.173346162818465,6.550841487842232,6.578952690823989,9.303668890918026
1.22,1.60767409353028,5.1900197636405005,5.817249218307243,1.8274908114001156,5.8335435480128055,5.927299182700438,6.168616736636617,8.821135642836872
1.224,0.836640064123394,3.4175179326259784,2.6170447912970136,2.513130281653412,2.796337530588946,5.202107639339471,5.56586065646069,7.968706828410637
1.228,0.5750637463069691,2.6043951771495752,-0.5483355742173885,3.1803557387018975,0.2864891141818404,4.537649341545983,4.748972166115205,7.173230171705632
1.232,0.9503629001162094,2.6431072363203865,-3.0830145768148802,3.6518255002068374,-1.4012923387814742,3.9638165970661077,3.7761326735829086,6.796279685159364
1.236,1.8516667359482337,3.032498101491398,-4.623582713365405,3.8707747692576504,-2.098825984971831,3.348565817308548,2.7372712278987503,6.871176152930074
1.24,2.960000499775382,3.1208417383177363,-5.247074902469075,3.8380166642618643,-1.914700835504203,2.5260818594443135,1.7350164887481703,7.086934050722807
1.244,3.9126872350283968,2.4860382476897946,-5.447651013776384,3.59146518110302,-1.2224882083192161,1.4986149047797364,0.9015519286964437,7.036324298412493
1.248,4.519068998879116,1.232121482232546,-5.851646057049769,3.2427980796586215,-0.47432651902220613,0.5611495779408884,0.431678854388454,6.565826996246839
1.252,4.8668735423567995,-0.02229955978592546,-6.853449100340354,2.9830915569411873,0.029925400661455992,0.20157039231886298,0.5530626188164156,5.966660006205894
1.256,5.234027833283178,-0.5019900147087173,-8.385240454892646,2.9969961687107736,0.26946275990875046,0.8089506991983226,1.4006073969414485,5.849587094588573
1.26,5.846008931428659,0.21570750720443232,-9.970747397606424,3.3055601660423815,0.446071031246948,2.352417894967465,2.853415777581626,6.747226073831733
1.264,6.639842444823257,1.8626813174948733,-11.02359471884504,3.649472198973348,0.7897506595704167,4.260783481020457,4.451072303220661,8.683407544957563
1.268,7.236894798970707,3.573133496820335,-11.171210802434901,3.547644396323321,1.3758583070445782,5.646193884192954,5.508690817314567,11.008333820335947
1.272,7.1626359501272425,4.378453261859385,-10.423710685479204,2.5402893433925016,2.0698902385918125,5.780981899497435,5.414308776467397,12.654631598829535
1.276,6.183178226317395,3.8085264513104264,-9.098886201383479,0.4941937309259439,2.6285685038743747,4.563428751917881,3.96143241250524,12.704284614046543
1.28,4.530735865245306,2.2120686863154178,-7.599054434983056,-2.2371845407946194,2.864658761856923,2.6536733480247765,1.5077227120079195,10.935468792056692
1.284,2.8502816554628247,0.570623781564648,-6.186696158510962,-4.919964087113835,2.769192406019375,1.1651434591088679,-1.1499120410314712,8.011985804426292
1.288,1.885679798403533,-0.08983920818792435,-4.881489698359647,-6.771222940807787,2.5189234388734763,1.0548807323101075,-3.130419032682287,5.168275058303184
1.292,2.078284243138027,0.6617156238285937,-3.5484502293510247,-7.345787329234104,2.3611778363309703,2.546008514107719,-3.883992509064493,3.547987671262807
1.296,3.329153427354057,2.3758024988584876,-2.0843493813451484,-6.727951057929458,2.4808874922477484,4.956148585523483,-3.426377933350266,3.5989819957077955
1.3,5.092923365114452,3.987813492299857,-0.5688716051335456,-5.404371132507879,2.929893796305149,7.0531770573304895,-2.270044325708994,4.873084709635575
1.304,6.753360908301826,4.483494369114758,0.7388931433307784,-3.893849679111712,3.650704431684943,7.75164700617278,-1.0928937221703223,6.332283841745647
1.308,8.05529576050597,3.5680096180962875,1.5772369781422508,-2.36639220108523,4.563607773455244,6.75217269486383,-0.334635079952595,6.956747051757629
1.312,9.289095892474613,1.9090702933550938,1.8877877473948659,-0.5324706218279189,5.62814300515547,4.724303739309964,0.021449625788932503,6.281310349205041
1.316,11.071416030671866,0.7725536407176756,1.902129388982671,2.0953691101274927,6.833143946134374,2.913687422943459,0.3539691498290636,4.559325905298573
1.32,13.834857985162571,1.249615518596649,2.0134002080022944,5.703092237680723,8.113956443432262,2.382065109138923,1.055114058257825,2.492375838340823
1.324,17.338661804289636,3.532655409674948,2.494205757776192,9.760502573778398,9.260401177008827,3.326247648037649,2.158409059266959,0.7243404633369348
1.328,20.567248891577375,6.704804008883679,3.267140482723897,13.026127836321791,9.915159458646496,4.90456741634015,3.2160578995378044,-0.5574342041191571
1.332,22.14087258966463,9.186327738575558,3.8675449811932103,14.045118177048813,9.688611579532278,5.691228025045097,3.524894218861672,-1.6517306397864846
1.336,21.030772906843577,9.574498081944535,3.631803694319805,11.9041826118701,8.33003962090907,4.51907189828645,2.561538055552626,-3.0004924597152036
1.34,17.168280266008026,7.3834697484502,1.9941493980350724,6.811095160717081,5.850296614744298,1.2141568308559014,0.34810795034877584,-4.732601844454429
1.344,11.586563982424341,3.276379447475539,-1.240432408151813,0.15256154951186662,2.5387962644667796,-3.203960453377378,-2.4794051860103163,-6.410977932343498
1.348,6.008084873601112,-1.3016253294902036,-5.74913956274973,-6.03691278479705,-1.1146221220418298,-6.979990743714408,-4.946965646404838,-7.181210732818935
1.352,2.0760760538566982,-4.857589415057197,-10.751446766294986,-9.952984297361606,-4.555234191163587,-8.506016786892113,-6.217706174107653,-6.258542896220818
1.356,0.6348720778428563,-6.522156402370512,-15.232267432800413,-10.79224097212633,-7.287976962585368,-7.1376293238505975,-6.004051341781515,-3.449007843626984
1.36,1.4296645240304775,-6.31591471821163,-18.252769825568794,-9.034113695509125,-8.9653938622662,-3.514239388978517,-4.689020917461515,0.6233776471196375
1.364,3.3587791022899296,-4.927083018171978,-19.23423255613606,-6.09891505856023,-9.431196717360487,0.7796593555795639,-3.096100034967262,4.733880898376569
1.368,5.116814638895427,-3.196558824829597,-18.1017650100843,-3.5749678820663977,-8.720512803876737,4.019355156970521,-2.0307460996096127,7.609977783338523
1.372,5.853262973277784,-1.65562769094538,-15.267917333880105,-2.4447932330944524,-7.030721088076376,5.156448171755221,-1.8612705271934142,8.520270611086552
1.3760000000000001,5.496052551939673,-0.3792887367419109,-11.475013916615467,-2.6992576740433316,-4.655396134579008,4.238428811099382,-2.3741542270416147,7.5935570900211635
1.3800000000000001,4.617226366029898,0.8223820196875198,-7.566452971066781,-3.5009620179342993,-1.8909075308245868,2.245377914329473,-2.962593578171982,5.706984579652301
1.3840000000000001,3.9967700204171313,2.0891285160087953,-4.230000240430863,-3.736250280482712,1.0707797800268235,0.4939835773509724,-3.0009693284877894,4.021653355142494
1.3880000000000001,4.183534186515585,3.3345651512207564,-1.7760287633033922,-2.6170076465660648,4.204458132784426,-0.04149805814816698,-2.17998320593866,3.405157504680634
1.3920000000000001,5.269890074397101,4.312509224423396,-0.07582847240282575,-0.040414605552882676,7.588442070008565,0.8504972178462942,-0.6443766746821233,4.020006759752867
1.3960000000000001,6.949568366556983,4.851469032099063,1.3073662421392545,3.4408846930900054,11.234752824537534,2.650316812738695,1.110947892539178,5.286775020449285
1.4000000000000001,8.739557912593085,5.041063243743885,2.815685475153405,6.932467576967407,14.889318659191513,4.484472500501132,2.47930120483146,6.20882018786854
1.4040000000000001,10.208708773803197,5.2203556012847985,4.588358454015921,9.601213961259377,17.956023542506692,5.620326945681846,2.993062732741938,5.89190543120895
1.408,11.11885701707513,5.783412291039516,6.348464478650229,10.986880998359407,19.659940964652414,5.825162492141251,2.5007951148542324,4.010186039807538
1.412,11.457559585273598,6.9324111248526865,7.553131469606559,11.100930118246763,19.404577697282882,5.415071908370255,1.2171463068240969,1.0005130021142181
1.416,11.409756736011529,8.550940867350207,7.738868323996969,10.334695048792577,17.14994799209787,5.034375845920378,-0.3434174243128316,-2.0790147499160945
1.42,11.297307853530661,10.263187403358334,6.825755406545611,9.244494039948934,13.548750348154849,5.2991984714047335,-1.534867201410648,-3.9794101659172805
1.424,11.473885994243016,11.610335641053215,5.170280775220516,8.305395546700861,9.692158637637561,6.480556333271277,-1.8299709391402201,-3.8141931410797163
1.428,12.169866160819986,12.212877295677698,3.3180282185244963,7.716297967480386,6.5483445497423025,8.346631052086652,-1.0884527659074301,-1.522859222359564
1.432,13.29522500759718,11.797822880034218,1.5711604118529863,7.290523465284114,4.378403420740913,10.19034893773371,0.24459604037585914,1.9551957190318363
1.436,14.288192960356845,10.108426415356718,-0.3448220362993838,6.475366632867892,2.5031338374936536,11.036978751539504,1.124846779175972,4.923157373583486
1.44,14.1519936928035,6.830789267795426,-3.258759724481571,4.518297703703567,-0.3728010012157874,9.94978876749155,0.18493825002902042,5.543089104211232
1.444,11.775017625686534,1.696863902065803,-8.08402088188967,0.7796129820678512,-5.376465275277693,6.36798595110226,-3.708191691709827,2.6168130847665467
1.448,6.502811612917889,-5.188776935801536,-15.07298012580744,-4.868617407845802,-12.60352274714742,0.3978514514040019,-10.78957314468406,-3.7986876201872803
1.452,-1.3128594759776147,-13.002373041615721,-23.255299522239554,-11.760515088414309,-20.69507342572487,-7.074940839375322,-19.955281728691986,-12.245772521197747
1.456,-10.130557057097036,-20.116259602250228,-30.458802603631618,-18.448044345828688,-27.16081229104373,-14.51473228385692,-28.846688264481152,-20.298191409457274
1.46,-17.59565341915063,-24.460595957866023,-34.034703225934365,-23.089926778306143,-29.36917390349904,-20.126524495985915,-34.55669667541166,-25.42851824931607
1.464,-21.397085978169244,-24.277673409491136,-32.00349383592725,-24.114040796273816,-25.748548191977118,-22.41863258017785,-34.73075960649202,-25.9713841848055
1.468,-20.22508829613942,-18.924563118505674,-24.0392701839855,-20.86774025775587,-16.588668965010438,-20.738690750033143,-28.58245312666193,-21.773753773900346
1.472,-14.355808870606896,-9.303510570737405,-11.778500262324776,-13.954492645758625,-4.0269427527305,-15.558806504369603,-17.329687706305787,-14.226198338743222
1.476,-5.554016606881801,2.344577112837562,1.748555342806187,-5.068853975317392,8.79185203261985,-8.343034836624046,-3.79652763804623,-5.653979495818399
1.48,3.6654428668623242,13.23052711988267,13.284340446892198,3.6123359191505235,18.949864027040835,-1.0432289011224467,8.651151054558396,1.6409054763231852
1.484,11.055426891085768,21.03600430879708,20.55331763628177,10.21952775226458,24.788464154918703,4.588991232138777,17.35759043718238,6.239822615725124
1.488,15.453380194035436,24.697652246686246,22.973711510613832,13.816258478692221,26.293696486383254,7.590190146314596,21.26131554432611,7.980216315856275
1.492,17.018502188312862,24.599574318144747,21.570107320161306,14.585430286411412,24.73073490108872,8.012837124260882,21.025928377384478,7.720350501563621
1.496,16.820865803439553,22.124135676441643,18.21349835702457,13.518730585607404,21.812084067463406,6.721841987682555,18.416805473739593,6.7000325573980755
1.5,16.07102716186437,18.852914082171893,14.631266324520269,11.800416974224195,18.86960804355399,4.876796406896964,15.301476320851014,5.863153605015476
1.504,15.450330338305204,15.861170190157708,11.711850426088533,10.229893853850855,16.43227654235986,3.3843528713296127,12.818345360798935,5.4979819251774105
1.508,14.902704956603042,13.455523386996635,9.420741780935,8.975631370121746,14.329395571997619,2.5866077703591044,11.112148539672855,5.328022861558756
1.512,13.9228462742319,11.387838445564826,7.220731540944417,7.717224921902837,12.117981197397022,2.2836730352853154,9.65514859271456,4.908501535738884
1.516,12.072000887835623,9.307551081459,4.652587151030147,6.03088253898423,9.51883222140282,2.028503227045724,7.859777956087079,4.046256716208617
1.52,9.350254915480901,7.1173486247080335,1.6825864424215038,3.7455019562208767,6.599012509609301,1.4726175342095331,5.566007340038832,2.970707501880848
1.524,6.21053362084611,5.029121803225944,-1.3349312123254915,1.0718984740900042,3.67296160667881,0.5645651893316193,3.142058860467276,2.1806887955322054
1.528,3.254546427410517,3.348754125737227,-3.9485492648041394,-1.5302581461378968,1.0711574471085101,-0.4826305718054287,1.2055119544411483,2.0825038991101383
1.532,0.8642395350358743,2.19889392564748,-5.906683722982285,-3.6262103505327303,-1.0241241088381057,-1.39664436545202,0.20412821458891717,2.6790927332553482
1.536,-0.9795705346265672,1.3931436902923275,-7.24593041890299,-5.034716546982952,-2.5720552570264457,-2.0569313373925304,0.15020385682423343,3.5343496962252727
1.54,-2.5764305017455613,0.5611284444816595,-8.143296826565136,-5.8742497763840475,-3.5497582983193903,-2.5618479680175477,0.6633741997672411,4.038700796086238
1.544,-4.172933137928778,-0.5562468639068698,-8.668025206588737,-6.401373753879645,-3.8378040363602572,-3.1117730286945653,1.257293293339215,3.8011079891920887
1.548,-5.6657947644990685,-1.8469620842005896,-8.620233140811258,-6.75671009860654,-3.2295321067840836,-3.8075052761807693,1.6611216774665523,2.895095580698188
1.552,-6.569471734401716,-2.804121470781486,-7.60515771229,-6.806404643780793,-1.5856352001282632,-4.525862171703904,1.948294471370044,1.7872520187992467
1.556,-6.304382838977427,-2.7832113876711655,-5.303585691204125,-6.189337767677873,0.9754390429302449,-4.966264042469537,2.3889121728937504,0.9950017879557218
1.56,-4.643403947759387,-1.4069817010378443,-1.7813286961388517,-4.565374655077374,3.9835511020530006,-4.8683923268248614,3.137051960890199,0.6896295074882817
1.564,-2.0134523338678667,1.1300331999743845,2.382407595611455,-1.9037798281965146,6.711315687350368,-4.249093017046759,3.9938891344900904,0.5134026862372885
1.568,0.5855504775105165,4.0690755480228855,6.272360284829844,1.3897187352685645,8.438248040088128,-3.479081685607463,4.438486531673819,-0.2510178557089193
1.572,2.0268447916086982,6.408478707909979,9.007606728051652,4.587790253267794,8.73495458909185,-3.137751213106667,3.917980713542944,-2.245173404463653
1.576,1.6211219097924303,7.362857793020492,10.102695345160491,6.951007410241253,7.6290893308573065,-3.693072439414068,2.2259815827023948,-5.562924435289225
1.58,-0.5208233447846364,6.71650348124965,9.619670346159896,8.056899912811275,5.568240236447882,-5.199689295444517,-0.27946791331362464,-9.532344723750704
1.584,-3.5392777961022333,4.888523705026238,8.050181537393229,7.965837240830477,3.2097279177652496,-7.20982463096041,-2.769612665246115,-12.912634724960085
1.588,-6.249495965661757,2.7009102444723903,6.04960605164673,7.1415544675958955,1.1584729132729557,-8.959273435205102,-4.302303004719093,-14.437744217506218
1.592,-7.711261599101929,0.9699995029371076,4.160595851200048,6.1580245639897,-0.24278911664090685,-9.752551699423675,-4.266431034483446,-13.437308199925766
1.596,-7.650935655012056,0.12889960099645137,2.6544850002384965,5.370438286378509,-0.9902847111961801,-9.317817633417702,-2.6769978211036896,-10.1820051647734
1.6,-6.532222233124169,0.05394609261789496,1.5153705045592125,4.730594252963275,-1.3674522272856109,-7.937559577278723,-0.18499679680239467,-5.7667405937725675
1.604,-5.27100905409952,0.15972753404343676,0.5164999309387657,3.851863301235263,-1.8070898520727328,-6.279765857246046,2.189681047087488,-1.5946536143629602
1.608,-4.750225196450798,-0.2824325484400436,-0.6438130072786294,2.310216302287224,-2.7072298663600227,-5.023457999914843,3.4910269964206933,1.2634649577486772
1.612,-5.388742772642737,-1.760975292099367,-2.2054414887222844,0.00833602249170362,-4.25636370871675,-4.507053775755269,3.2151183346740577,2.5001146369048803
1.616,-6.990554829315984,-4.271694220253393,-4.244951033888397,-2.628607280022433,-6.320121586624552,-4.602171060303794,1.4848370612633948,2.6001017165339637
1.62,-8.906879609851472,-7.297339994517216,-6.615641489309114,-4.763202844842052,-8.435291886945466,-4.873516363340304,-1.0439342203255033,2.4864604045096304
1.624,-10.386320971229292,-10.01425364997003,-8.933538734892965,-5.529962809282205,-9.931764126137411,-4.904446892809766,-3.4710085462310625,2.991740909147428
1.6280000000000001,-10.897831044237655,-11.618741147654516,-10.617917621875497,-4.491560980278674,-10.15934515737903,-4.5705706042404355,-4.990930906660434,4.43229637427036
1.6320000000000001,-10.285215780418824,-11.633295080855287,-11.031306371013386,-1.9280246754276344,-8.758292855256474,-4.098914132727362,-5.161746665213757,6.482514260726813
1.6360000000000001,-8.741683964717968,-10.088302474124584,-9.718291042801813,1.2024999630756277,-5.865145353979137,-3.8774980634960876,-4.043399262847341,8.375933450680854
1.6400000000000001,-6.681868372111161,-7.524691366028506,-6.682013380967779,3.618835820068746,-2.1613476828199794,-4.170376720113978,-2.1827419648102673,9.278918960173772
1.6440000000000001,-4.575455439573121,-4.798205148203101,-2.5169783426493924,4.257842310915222,1.3160298490959264,-4.916151849638402,-0.43389644638194724,8.648606404832448
1.6480000000000001,-2.815725519219907,-2.7694272318696083,1.7255752573179308,2.7386937942727165,3.5410094042457514,-5.752186658231323,0.34834154835712994,6.392181771859173
1.6520000000000001,-1.638429304661328,-1.9944964443434796,4.917057199830277,-0.464808003099622,3.8880357669067376,-6.254203191244273,-0.3507383278234212,2.8168447695352468
1.6560000000000001,-1.0949502237006872,-2.5495501229375943,6.305889118225293,-4.231972127377185,2.365390355761356,-6.2211949023572455,-2.4774580402923414,-1.5152235686902507
1.6600000000000001,-1.0545884046704241,-4.04389562432437,5.83861908542991,-7.282609583427145,-0.42859789589410013,-5.823484018092551,-5.383217296135178,-5.950950381930585
1.6640000000000001,-1.2478208472552614,-5.813240781315595,4.154122191730345,-8.715192692387365,-3.6119487820971683,-5.5065926559403096,-8.052690920987583,-9.857538891545815
1.668,-1.3595668517715245,-7.208287188868516,2.2429440968683636,-8.348293145242124,-6.434431046365191,-5.70039424207137,-9.521077292264437,-12.690002104577333
1.672,-1.1649015380316237,-7.854125145185458,0.9327260737821339,-6.735853478792459,-8.609526118018742,-6.5376991667691975,-9.311675502907836,-14.092191273006282
1.676,-0.6628366283914482,-7.7822369096753725,0.4671981601520594,-4.868332385168259,-10.396251639119047,-7.7619122557327564,-7.695057723364614,-14.03256394397866
1.68,-0.11765541964069204,-7.372017945977355,0.42572123950805896,-3.7035746699362173,-12.379860168885218,-8.867256565835735,-5.6058061198805635,-12.898694091611004
1.684,-0.0016232542917218318,-7.17260011169695,-0.03067292696935997,-3.7879060745233613,-15.092972471953802,-9.403130427165191,-4.255835975671822,-11.427840952100514
1.688,-0.7997738713482829,-7.659703174535103,-1.668312649420046,-5.084463704375007,-18.651908273844246,-9.230812971642791,-4.581672207103953,-10.442290430403098
1.692,-2.7411139152993407,-9.018155920496929,-4.714619031455122,-7.053159820532203,-22.597461115222377,-8.570279984948176,-6.772250784112159,-10.46749919132156
1.696,-5.598666244292641,-11.0420420909461,-8.665736706272252,-8.91681971621233,-26.02591944864823,-7.81389267271967,-10.124100037919243,-11.416171176922793
1.7,-8.672976678975967,-13.187077852443684,-12.459952636892718,-9.973353840746968,-27.951693264439115,-7.238198218116796,-13.316896835405945,-12.54658885265546
1.704,-11.030408609034538,-14.779392045339378,-14.971211682052065,-9.855150663325238,-27.73986791182026,-6.827021534930919,-15.011160944811724,-12.756929932056428
1.708,-11.892843918635158,-15.281476538051644,-15.523516660720794,-8.628133319583773,-25.40062654352019,-6.320039276235713,-14.465984264294258,-11.132019810372736
1.712,-10.990402336130176,-14.496443295930936,-14.162160194126686,-6.724164943767595,-21.60875590356634,-5.46235991128618,-11.872734941992224,-7.475133930908964
1.716,-8.704006013027552,-12.61557562585423,-11.545370177230154,-4.753675128554873,-17.422936648725553,-4.267953717897068,-8.228358267464683,-2.5097094554329384
1.72,-5.916118289479177,-10.095109678171148,-8.535912963343923,-3.2869338934321997,-13.845501510680304,-3.1119044828973625,-4.81782688220098,2.375730246307784
1.724,-3.6639486507182584,-7.4554316254987345,-5.782399774246994,-2.7181402476483303,-11.442001568614465,-2.5769174182688155,-2.601485866091952,5.758085240039656
1.728,-2.718014545994355,-5.072834545414505,-3.4549966079145076,-3.199929073864422,-10.158872449203743,-3.1016724837686134,-1.7878691504663804,6.866938291075073
1.732,-3.283987001186899,-3.075333205000897,-1.2756134090332694,-4.659769700411562,-9.430702133528374,-4.66957054116345,-1.8047263936362503,5.944980647906593
1.736,-4.95775973585769,-1.3890650823052493,1.204689537614919,-6.862746751439949,-8.51360261580861,-6.7323575471639145,-1.667694028588121,4.090906801804341
1.74,-6.926516752438595,0.11790790627100856,4.273015831539239,-9.465161435529257,-6.869088818191143,-8.424959647805965,-0.528667325965281,2.669531972034744
1.744,-8.348413828633134,1.4554562807691247,7.800822681514192,-12.075238200123245,-4.437368572393137,-8.983578953139986,1.8548046386832313,2.6180251470860756
1.748,-8.694168854487051,2.4410233057725907,11.246113951909585,-14.287257270872106,-1.6631660444332015,-8.116121735030083,4.982370418731421,4.007415165917015
1.752,-7.89986356160373,2.8012233367680626,13.884902654955894,-15.713445711031632,0.7199439676817656,-6.131350730523264,7.854607651267412,6.070167523521031
1.756,-6.282919765603961,2.4001140551533444,15.149410964164844,-16.024542554860773,2.053331060078535,-3.742106562224249,9.464603435814759,7.66131956108881
1.76,-4.293552807397182,1.4441497709595499,14.899844932296121,-15.013417244262866,2.0800341037752386,-1.6765959660240528,9.278702744999158,7.869814088333214
1.764,-2.2830587474753328,0.4845345852788312,13.452542640129234,-12.698246867294326,1.0663406481413609,-0.3420847769080386,7.449621939186277,6.47021710717279
1.768,-0.38149089581882245,0.19901703683312078,11.423924637128252,-9.384372848105155,-0.31355652939448186,0.3072346777119932,4.7060309939476825,3.9874829177784332
1.772,1.463965358560466,1.0403407286047204,9.473157697321572,-5.648094659040368,-1.2777787223125627,0.6236989574021783,2.0051999280478063,1.368795630909896
1.776,3.330463088276699,2.9444558983526816,8.077227904767058,-2.2097600703181506,-1.2701609256538389,0.9690891666838908,0.1356002181487368,-0.5062401855533649
1.78,5.1675469086006,5.292934341715293,7.437795577020328,0.28527740928382284,-0.1739796182959159,1.473152102466261,-0.5424445907672455,-1.2094056710846757
1.784,6.706121929107697,7.148728811982287,7.456590949189698,1.453027763109756,1.646952400612021,1.9620879305334067,-0.17154656840992177,-0.8638769281012629
1.788,7.52339878490155,7.698704656167528,7.817195461863215,1.2893347876088823,3.5152197265185645,2.1079944679898426,0.7350635242094932,0.03798554706374602
1.792,7.246514540601086,6.6834466204563565,8.126571364053055,0.16437463337968028,4.734308124618541,1.6763314739013815,1.550444156826408,0.949059949040638
1.796,5.774746485396364,4.565698945655999,8.065936841816676,-1.3214614023134066,4.880183269545518,0.6999172451537246,1.7972294441007342,1.5235041301484062
1.8,3.4164580586017372,2.349624299683443,7.538239287078678,-2.5435364788113635,3.986158348044833,-0.5180574106488196,1.3422257788945524,1.7051509745213944
1.804,0.8113656154938345,1.0896111422002388,6.706571998304143,-3.0817279581597297,2.525104638256079,-1.5888650658213241,0.43244853153381246,1.6629177078322188
1.808,-1.3059387555834778,1.3653906332015269,5.952250793673126,-2.849589848561582,1.22477495324449,-2.2603392266591804,-0.40169861958489195,1.64740802623189
1.812,-2.405046453320991,2.9956916627541252,5.730555154845418,-2.0952337638909047,0.7742122985501158,-2.5533686492272296,-0.5492446339613499,1.84711677595938
1.816,-2.3816894699263558,5.133657421367463,6.3632907540379104,-1.2776608263738993,1.54465312886141,-2.724074060182835,0.4396390740052527,2.3144942598779554
1.82,-1.5755611081858742,6.7075430768873,7.867999993353445,-0.8595804139228294,3.4425260004031317,-3.0753663359442536,2.6512411784251224,2.9525786014369264
1.824,-0.6047893519839067,6.944701758388277,9.857537084014117,-1.1344074842282832,5.930945123590017,-3.7531407835581523,5.688252382906201,3.5475116353420075
1.828,-0.05831041338278098,5.742911012277453,11.651267431674192,-2.1080447617371068,8.24497445268463,-4.627057253262334,8.747635988375022,3.8322766123744683
1.832,-0.1931472633740774,3.7108452217586216,12.565827943620754,-3.478918467956808,9.705831629613595,-5.347953900906287,10.888523087433278,3.5528566016337835
1.836,-0.8076602578336871,1.859675126381474,12.245263958450483,-4.7284279576311725,9.98943127987667,-5.547943084423961,11.384922479334271,2.541720671703503
1.84,-1.3277445268839854,1.1397719665919448,10.886539366500736,-5.264318957544117,9.247388342795093,-5.040905457963107,10.04332914585122,0.7954769231388616
1.844,-1.1052319845800476,2.015198978180238,9.158739380163155,-4.61487740616581,8.00166416670465,-3.9348258513134575,7.294947457484637,-1.4687175842066056
1.848,0.2303639105782036,4.278303341899154,7.8678016322352935,-2.5880113926023114,6.8677938108154315,-2.594390711759903,4.012939393272318,-3.8440565664182484
1.852,2.56685404696759,7.182619298136561,7.540154636908218,0.6634505294376662,6.250300492378445,-1.4728420736364578,1.1530915802784425,-5.857676537725456
1.856,5.349168037682141,9.800475512459862,8.154986393274005,4.683814220052452,6.165413573477071,-0.9038507004231904,-0.6256306118380643,-7.133014888703974
1.86,7.839219773393369,11.42067955111628,9.187887115760065,8.852701378368547,6.2736376395483475,-0.9677101150606888,-1.174052845327338,-7.524490378742891
1.864,9.420012606067534,11.775699395840395,9.891065978130165,12.529512249345927,6.071084958352111,-1.4979660931206533,-0.8266518021342191,-7.136414489092726
1.868,9.8129063839294,11.04535443195038,9.701545384809124,15.18351276028617,5.154950259432544,-2.184435091687173,-0.15768532414879344,-6.226120510686027
1.872,9.113042477694627,9.677848312812577,8.521482052857667,16.469183785095183,3.4096852992978928,-2.7303407830529434,0.32942524493499636,-5.063961520184871
1.8760000000000001,7.646386742824591,8.141319103269785,6.713240278752837,16.251501188115384,1.0278355117918085,-2.968556948647749,0.41419797705249595,-3.8234282556159416
1.8800000000000001,5.7737918600792275,6.747613282825704,4.850947724698459,14.61958106263439,-1.6065258010004788,-2.8794746700053437,0.1928011687290172,-2.5690407780992963
1.8840000000000001,3.731382536589293,5.586086305816224,3.341225951559193,11.864875450027753,-4.0977347644158115,-2.5455674607974244,-0.07750328777272708,-1.320483996150391
1.8880000000000001,1.6104192416312637,4.588921748770394,2.204361498280758,8.456022307709484,-6.153927200164537,-2.0648545063646693,-0.17857504887825337,-0.13557417855141374
1.8920000000000001,-0.5356281116457406,3.667200152366372,1.1493370843264277,4.993793687987135,-7.588221045428499,-1.496424622387766,-0.03486089646266999,0.8655848087148863
1.8960000000000001,-2.5697407702087967,2.814599814033485,-0.11840282153486426,2.1118726806162487,-8.2438349452794,-0.8622939693962826,0.3159166511868585,1.5669560675674394
1.9000000000000001,-4.227256483890654,2.127367839609413,-1.55359235868338,0.33466177224418847,-7.934674259660864,-0.18938117753173156,0.8377979119430738,1.9611653524953652
1.9040000000000001,-5.223148709841023,1.7118205195360292,-2.6864380261284273,-0.10070914288247046,-6.500166762104631,0.4312579670449632,1.555396563098071,2.2204745717423884
1.9080000000000001,-5.41822941462096,1.5702919935820976,-2.836020929602809,0.6526493727179976,-3.951864151513128,0.837269490106026,2.5073909650468793,2.6516308616455806
1.9120000000000001,-4.930391352077632,1.5503362989496108,-1.525611464129593,2.0842935931856905,-0.6307980399502551,0.835956767347559,3.623680594809815,3.520833856150687
1.9160000000000001,-4.113292432566068,1.394710670939288,1.1530960632659366,3.5003234542160335,2.7608137776905615,0.2881332957495011,4.620542594601712,4.848676619123557
1.92,-3.3744267631703226,0.8915331631130248,4.487134198347468,4.303581591611982,5.343616728654344,-0.7950501242114867,5.048988145045402,6.303780496865757
1.924,-2.973546385661545,0.010771010787713475,7.409258327922264,4.220594298488533,6.391478277315757,-2.20999712607298,4.4960352944699675,7.3038024592627195
1.928,-2.9075460290331177,-1.0489975750569611,8.98708435150834,3.3947165475190726,5.6567173278341105,-3.5864856088095163,2.85333941612778,7.289567474263226
1.932,-2.9413815721834684,-1.93833619174054,8.858477550409408,2.2947691555836194,3.506434204067216,-4.486441152492381,0.4831414330021735,6.026829263660304
1.936,-2.7534114325756343,-2.3242947607269935,7.3779203866017,1.491214178416893,0.7822380752145563,-4.530797397716996,-1.8542628541613673,3.7842541631328857
1.94,-2.09686565979299,-2.060062785731069,5.417609682438632,1.4121459072984717,-1.5670724468463042,-3.5122747244065553,-3.313975596807004,1.2588444110759716
1.944,-0.9135111534846734,-1.2825482646424198,3.892260370887576,2.1601631816852267,-2.915636191629746,-1.4721192206756009,-3.4033358889099934,-0.7191115719965055
1.948,0.6660291626640442,-0.3625513148286088,3.315484330877837,3.4904082986329956,-3.2123015049026344,1.3017632299457076,-2.2734034937380456,-1.5706637915385566
1.952,2.418532082900401,0.27867535685290035,3.6182277510680714,4.942178981145091,-2.926998880016891,4.3486085556029765,-0.6708147061714076,-1.2383265077145902
1.956,4.131143581442379,0.38188718069305905,4.288071601403267,6.044905386782968,-2.73127460310158,7.167706002267036,0.4432974414382951,-0.19202438844562142
1.96,5.64809325256988,-0.020395311100559255,4.724738811324796,6.50504055911976,-3.1022033767633324,9.359577981030958,0.420169788744305,0.815120024348591
1.964,6.82187772428012,-0.6547445557968952,4.533478926769762,6.272113370259174,-4.091778794344412,10.716331186953202,-0.7211441911421521,1.1344330125506161
1.968,7.466053311824615,-1.18445561304164,3.6472577542719526,5.503184827177696,-5.361268448321084,11.25322360863167,-2.303651841792534,0.5465056830079096
1.972,7.38141639578209,-1.412416860497653,2.2415849150006397,4.4629916123514315,-6.44193761238576,11.161188470950698,-3.3736039775944304,-0.655283910691729
1.976,6.462492918003139,-1.3966306174481622,0.5419341036645187,3.4200191800974737,-7.037344781496678,10.70647377967285,-3.25234062215871,-1.8436120478682958
1.98,4.82921252005785,-1.4070973734328713,-1.3015303038632438,2.576392639947567,-7.175073911414232,10.113956890319383,-1.9355700094380441,-2.409791525250644
1.984,2.8516472156994985,-1.762482613420712,-3.2272597589468806,2.0215259726897035,-7.118956017336129,9.484237424109772,-0.12213005455363612,-2.0782849558203687
1.988,1.0445619642937922,-2.616564216890077,-5.1358810099528265,1.741164006251402,-7.087837869574061,8.80029374834584,1.176487473795441,-1.0215478614671298
1.992,-0.15052236579510891,-3.823372043293338,-6.758145162051904,1.6436779370468668,-6.992767620324775,7.988266264547727,1.2213183946587964,0.2506561012945747
1.996,-0.5834930048288709,-4.963495372134293,-7.645999437532545,1.5900904862102863,-6.383705926895437,6.998454096200361,-0.01080018969001273,1.1569687167706983
2.0,-0.45677334730430363,-5.5051257196049495,-7.307819580007074,1.4386201676422612,-4.663114948877579,5.866400078811204,-1.7728149090564271,1.301326418412474
2.004,-0.21262637053076183,-5.053545803117334,-5.482340686806598,1.057849088160277,-1.4837034893200505,4.694780025417329,-2.9571168137474557,0.5979855924636319
2.008,-0.27138143775726675,-3.5418839108502214,-2.344142963326883,0.34911339570476807,2.928116555000418,3.59875664405335,-2.7154964077761106,-0.7697869828996389
2.012,-0.7549636759390861,-1.2576619316184594,1.4923472284615027,-0.7097380837484197,7.735489549281784,2.6515139507373613,-0.9383748525340962,-2.49934352418846
2.016,-1.3728327510680862,1.2971285633828034,5.188937822860998,-2.016642024261559,11.792590586231293,1.8750711261647561,1.6733445136243326,-4.305221645644018
2.02,-1.5431035736793492,3.6352798990805635,8.026771262478528,-3.3168945937184366,14.136506876129575,1.2842839278719151,3.99093318788222,-5.981369743645029
2.024,-0.7108953863758383,5.473620552409321,9.660513624781238,-4.235464333257602,14.404772782248026,0.9442658095820391,5.055589275069405,-7.355389552483784
2.028,1.3206756615010642,6.801593073941656,10.19188085390886,-4.3629647914352345,12.963414031930817,0.9977780653748105,4.5670552475884065,-8.220205777869849
2.032,4.227786734959122,7.795204469522085,10.017497578393744,-3.4014478362547127,10.659043777618638,1.5985999929722283,2.9898568816349487,-8.352908404309213
2.036,7.257939862601575,8.633454689500823,9.552841090337356,-1.3254418158019448,8.345635849058285,2.7835920759767454,1.2358895113846549,-7.631504000329682
2.04,9.542924262701842,9.341122621002771,9.01680133822341,1.5315220946858048,6.463196643678062,4.367604818609766,0.13799160683799983,-6.186141208414064
2.044,10.45163614866144,9.7316273180513,8.344541146231151,4.50155483405978,4.885516807847785,5.934039026213944,0.006279706877736935,-4.441133602909939
2.048,9.840770694416122,9.51873681773237,7.305034833877225,6.776481910271886,3.135114333241311,6.987463732937965,0.5366879400220661,-2.9656699866717204
2.052,8.07765488160122,8.5193129858706,5.706012915725555,7.697273256099965,0.7958093800549833,7.182175956300491,1.0870602622300982,-2.190272124451588
2.056,5.834151511517417,6.820456667448051,3.5455492660297625,7.019101314397694,-2.1405689441630846,6.513941772766645,1.1204089425523227,-2.1297773163440343
2.06,3.780299019597576,4.81130939501152,1.0361596276914513,5.037209214468788,-5.202295676800022,5.344826991284233,0.5332012889844888,-2.310518948255538
2.064,2.289160570477366,3.0101169971834363,-1.5502837344912033,2.4649845763041647,-7.7010372213548175,4.2111268124452685,-0.34681296386421456,-1.9734354648997021
2.068,1.310625167336105,1.7991781453722284,-4.050484125498698,0.13702887022006172,-9.134856782103341,3.5412445529580894,-1.0334745247763948,-0.4744345475227423
2.072,0.46689506205803966,1.222753441098586,-6.470388694724099,-1.329780106402354,-9.477467142305784,3.4321830765998946,-1.2229651954770366,2.3125779273410028
2.076,-0.6890562406062846,0.9805897953050957,-8.872559495971256,-1.745253764744151,-9.15542450336366,3.633876944525916,-0.9566646510222157,5.844489062873
2.08,-2.3653037868309124,0.6610464925652995,-11.129149791524252,-1.3129341869038371,-8.70921704576218,3.766778450993023,-0.48884760424908613,9.116635502230533
2.084,-4.36778939300835,0.04922255484896276,-12.78538524801745,-0.43991237328212507,-8.385016279281967,3.610105087012813,-0.005967332590846919,11.136498996882931
2.088,-6.135956521019685,-0.6572561999072548,-13.120409510453715,0.514821175651622,-7.904767216493825,3.2898312775147645,0.597198515869743,11.412897740417701
2.092,-6.979900479153174,-0.8909221631695861,-11.452181336681836,1.3815305601775676,-6.596752224799163,3.2068472812502025,1.6918882975232914,10.172405730005412
2.096,-6.4167734543965,-0.026336898251200225,-7.556280067457046,2.1452885055100195,-3.826266001383821,3.7487128758507517,3.6329759435400164,8.197600865296824
2.1,-4.413489005464976,2.223888564382553,-1.9191680275450889,2.8221739367375434,0.5463172629485147,4.985626345435071,6.423337048984028,6.39347785078853
2.104,-1.4544830982418069,5.525589440872519,4.289102657676914,3.3256512654634047,5.933640819807742,6.535790389988563,9.543300624136718,5.332319469434184
2.108,1.6401873180911997,8.973090908500652,9.611234062696779,3.4845728137014476,11.198659719749159,7.746702514662429,12.121415845810075,5.037276834164903
2.112,4.074439482958697,11.487295752720494,12.889942209350941,3.2143403390058958,15.148231525463139,8.094306994916312,13.372857572295647,5.103670314390703
2.116,5.41054763583666,12.338027975691354,13.72107743298968,2.6900056642247527,17.051188789845874,7.5464495594368985,13.018242067050435,5.039568203034445
2.12,5.723198896404442,11.513452296622198,12.560621685263637,2.38375517400857,16.903109430574702,6.647787808843683,11.42101014496828,4.586289706254471
2.124,5.468672789635734,9.701646773034375,10.383552582521526,2.8537567957518104,15.293504120348683,6.2214646792789186,9.334668746440126,3.8408748991483335
2.128,5.174078076251441,7.911674773467029,8.142356969591539,4.401289530557658,13.005854673128152,6.87576445364677,7.453545485351063,3.1459013822458948
2.132,5.132322365530041,6.944012998120147,6.323371877209877,6.801203328332403,10.607669632334675,8.599764680168118,6.072494450163679,2.855090284996674
2.136,5.27796156162754,7.014351515419662,4.840954398477975,9.308270324661553,8.284245127971145,10.72827014187652,5.085355248157899,3.1675355217921615
2.14,5.3213071213438,7.751813545765438,3.325671761643777,10.998744950389415,5.983196763610977,12.327527055320473,4.323881248011544,4.12017450698958
2.144,4.998581337984099,8.506308219975745,1.522183554183613,11.232503719183583,3.687419015973566,12.742995371500104,3.914030637587014,5.688624445541221
2.148,4.272578045394929,8.752382258767472,-0.46186909627216277,9.978740985984832,1.5862296190168728,11.973913287124368,4.3372318924911735,7.845826233171508
2.152,3.321590029366916,8.313640699656728,-2.2583158902463034,7.768927663042332,-0.03026491119932384,10.597480526802094,6.053832625602569,10.442971385511813
2.156,2.3004687414249334,7.258284554288213,-3.6409666115867596,5.272390689252484,-1.0983042848197524,9.272185738090757,8.87222246895173,12.963597756285981
2.16,1.0746831290444727,5.607346581999189,-4.883366165062018,2.7871032943824696,-2.046522640637017,8.165211268564255,11.555572317846247,14.367304674672537
2.164,-0.881705897202111,3.085551283707751,-6.81648307960465,-0.04063439519022882,-3.756456004790616,6.6834249436207855,12.040174726151674,13.258634492851733
2.168,-4.254203437851089,-0.8173625982083221,-10.40832832992182,-4.001401543135912,-7.109197382400485,3.7743488748815475,8.3493682302333,8.451601915839703
2.172,-9.381236721367442,-6.423748381530909,-16.041939723236815,-9.678740829851858,-12.315037282068289,-1.325594665892531,-0.19308972053292717,-0.27157849480410823
2.176,-15.759830078187592,-13.325348257752221,-22.92473403972731,-16.752188146620362,-18.423317735889697,-8.330258918763036,-12.14041391149239,-11.607718644113707
2.18,-21.896169124897817,-20.099804907248867,-29.031574300920024,-23.701190155987526,-23.393592930249923,-15.63446194236442,-24.07522524345632,-22.809144360768077
2.184,-25.72221076881062,-24.60179383487619,-31.789437773936072,-28.223030291832025,-24.834471508764356,-20.815646133545766,-31.853512755550227,-30.502283096756535
2.188,-25.435646346027756,-24.78669621945113,-29.20498787113128,-28.215357931863263,-21.09497477158436,-21.70692455325272,-32.393606285887934,-31.98035712673132
2.192,-20.371675253844387,-19.707413198536017,-20.89801303351517,-22.855948644226174,-12.18441989334718,-17.512591067788453,-25.12531202932408,-26.393455776756642
2.196,-11.46151519553364,-10.162549706965784,-8.494539978148296,-13.202789622468835,-0.014824790449911251,-9.351029844506051,-12.343915268124363,-15.227237538265513
2.2,-0.9694062910261912,1.434586864626303,4.911693062960623,-1.9166581590422394,12.244910671970532,0.13634189722777013,1.7774151190744099,-1.7885560375186658
2.204,8.377388525707088,11.952552068032642,15.956659310453823,7.777255773889273,21.41112589122229,7.92693042646147,13.01144151192916,10.116818896138394
2.208,14.4784713779386,18.817933677458683,22.330443146185026,13.416200436975629,25.546108021353625,11.948864397006155,18.823204944147964,17.70282897759631
2.212,16.65182710495378,21.0557266457859,23.59446367912915,14.26649322711539,24.63583180704721,11.918996267897114,19.1824360016892,20.194754548210767
2.216,15.734341650826682,19.562323910135337,21.108780910489337,11.45024139965665,20.367640976597304,9.272116679563606,16.100760774671333,18.84777765220226
2.22,13.502360068645054,16.508276644288472,17.200322463590197,7.239316414286361,15.183261610972897,6.268877073302609,12.27365344199232,16.045842276381542
2.224,11.727927656783285,14.178892120635915,13.99147245775529,3.90138083432715,11.10842821942243,4.789297624378539,9.616835991400102,14.011532647139605
2.228,11.37526972948392,13.866306264934025,12.514082435239144,2.7122862620934804,8.956467653731789,5.470182300807142,8.489828951320964,13.797592397870327
2.232,12.316095537107072,15.366765872423958,12.495344630034023,3.593670001726081,8.245194496905118,7.587545276302817,7.928846032766458,15.029279694236926
2.236,13.62146912948339,17.276598227478836,12.805261999578477,5.461514462641471,7.772737497095091,9.664355755572384,6.599099882971923,16.448400953794412
2.24,14.21773680211366,17.885618855558164,12.270704564525623,7.016377822059182,6.482780990657632,10.401254837398593,3.8327219720273806,16.855453535919395
2.244,13.470949812505875,16.12762937724839,10.334197715574117,7.460431651232351,4.097918761056069,9.361478102579408,0.0931866162031163,15.880318367890471
2.248,11.41806741510188,12.110140206044136,7.2787585071407195,6.797881799747671,1.2303802809692428,7.086417314381599,-3.330770598108365,14.158590718166465
2.2520000000000002,8.600938913128095,7.002892027646739,3.9815966353927403,5.632650123619844,-1.0137136152343142,4.649562700198998,-5.135940058651121,12.857910511497568
2.2560000000000002,5.676317112688116,2.4050659472614484,1.4028378057768252,4.661330102928979,-1.660951252319851,2.980882739009651,-4.788440615007585,12.890101618350485
2.2600000000000002,3.0936061173203706,-0.40349141438938974,0.16850465064725384,4.236899299634388,-0.3402414553815154,2.3930017875443026,-2.7734656305994867,14.300574365808714
2.2640000000000002,1.001130198808987,-0.9529150983840555,0.40724117689414585,4.233902406482804,2.614723650676922,2.5392531459081984,-0.23744948615706996,16.207576116656604
2.2680000000000002,-0.6084326234536728,0.3929858680431879,1.8778349518194324,4.261038409859051,6.431259975290474,2.7773306839190783,1.7075469670967158,17.30823100819438
2.2720000000000002,-1.6772233018450766,2.8007676726442323,4.21910901666924,4.029086508469039,10.311036902540351,2.646264181629615,2.5706814403224763,16.627883659425763
2.2760000000000002,-1.999128901771461,5.4399507072866085,7.110831925602284,3.5999045956923506,13.728476333754884,2.1394344861069152,2.606073201220147,14.065254058254471
2.2800000000000002,-1.3383129712521118,7.801205665426647,10.280894890171364,3.367111798213308,16.481867823947876,1.630784237012401,2.465763779694346,10.404300855261042
2.2840000000000003,0.3114202956022327,9.718809775655181,13.37259159254211,3.773321260101949,18.522814009257402,1.539804550861203,2.646025937122099,6.826708692709802
2.2880000000000003,2.551092791228225,11.190591521964262,15.868116335684386,4.986599855159769,19.762139437341556,2.0148464083497757,3.122588073630535,4.238803686644639
2.2920000000000003,4.635180239599142,12.179630656757583,17.174277313674388,6.741281394643101,20.00069531527172,2.822446461253013,3.3883587639146304,2.799920055469606
2.2960000000000003,5.771198303039913,12.551795224577655,16.853670475015015,8.44282231216575,19.032354157109843,3.5085780274482667,2.831133978123989,1.9410108073627814
2.3000000000000003,5.538051381378575,12.200491003443457,14.911893744571849,9.491357180784805,16.851580029479152,3.7149386747567066,1.2013498345098528,0.8401146062837981
2.3040000000000003,4.138518129152757,11.21746893677152,11.897553497300535,9.599831437578906,13.780496313537789,3.4072709501153535,-1.1652466941907296,-0.9474338909516646
2.308,2.32762055998196,9.958270603413048,8.742934956398337,8.934885715863075,10.411657738050135,2.882231120414795,-3.4933155261514255,-3.105475435632833
2.312,1.0331068416733098,8.911221313490358,6.382974077268636,7.9910600945601225,7.367169235981229,2.550140883762822,-4.979848383237527,-4.670648929057009
2.316,0.842160807692613,8.409397143028055,5.3130594150582,7.271313733652986,5.003541171625132,2.6465941811452804,-5.22836823164828,-4.57501423222579
2.32,1.6567156324247683,8.381658123003369,5.354487383131526,6.991762354182962,3.2536001860223456,3.0815153100314236,-4.426252151826891,-2.301314070476197
2.324,2.692446544454279,8.28909162480042,5.707700238915147,6.958734580775993,1.6866924673986414,3.4999104374375056,-3.2032974719702967,1.753198321831066
2.328,2.8533428640191443,7.346673554517665,5.316018799427706,6.702641512309652,-0.2245321300439258,3.5209117533437793,-2.268744855712475,6.4156113591745925
2.332,1.3040275325180226,4.951438040962629,3.3670459536568496,5.791224322697307,-2.774861824139432,2.9810954043899818,-2.042048558664777,10.307851626214013
2.336,-2.071364600700552,1.0866975340270608,-0.3120390128829449,4.131227271743043,-5.8123007162220155,2.03258343547858,-2.474898709894104,12.535906047887275
2.34,-6.533665028033473,-3.511768301293488,-5.114441265565901,2.098504431828893,-8.744747446801927,1.0571514617508968,-3.121439273119403,13.094537715599822
2.344,-10.784783992619582,-7.578714420606516,-9.880804361403941,0.3736201040512852,-10.78867130658038,0.4385844474230573,-3.4187439105283834,12.764483078082442
2.348,-13.544390688515723,-9.84855295920148,-13.350766600706187,-0.41628828859876243,-11.3163417927234,0.3567559574386008,-2.9911263415570053,12.568130522584273
2.352,-14.134775372185825,-9.645442031191298,-14.654135967452289,-0.07381365717645028,-10.148812593180487,0.6998359593517149,-1.8445066060323265,13.093006631319371
2.356,-12.797659156111681,-7.246222980720301,-13.645110903289993,0.9772641178012447,-7.659392730773872,1.1314982155571705,-0.38294244213882056,14.089503830740867
2.36,-10.570315529469411,-3.8108403366088828,-10.915891643130594,1.8269237535860183,-4.640914867049624,1.263073423385038,0.7541160871698205,14.552727247007763
2.364,-8.807191883102869,-0.9107857476366032,-7.546536624564915,1.4728593315424705,-2.0137635337750703,0.8124196023219152,0.9194551095515968,13.245683199379883
2.368,-8.54575774798396,0.15408553470114228,-4.666389274318012,-0.6717885292962342,-0.4748755018837696,-0.2890856108126296,-0.30416188966602764,9.38675621489774
2.372,-10.029891650982321,-1.0917052749751168,-3.031026865319891,-4.427060141815518,-0.2591411307713418,-1.8885546935773092,-2.944513550364965,3.110645445929025
2.376,-12.616730830009676,-4.145755135082185,-2.8040377696856353,-8.84303690012076,-1.1077663132293711,-3.6700522310078894,-6.622663089972732,-4.523440781253583
2.38,-15.06864568003841,-7.811140540490277,-3.582580733265587,-12.543992581485089,-2.4286844940852603,-5.224115992930333,-10.651309162209781,-11.969569854779012
2.384,-16.125844712565574,-10.799559531566489,-4.6807639669544585,-14.314502761820176,-3.5993504147637,-6.1492658671537965,-14.24950165049489,-17.83017723462742
2.388,-15.08358240154918,-12.339993719366317,-5.501866624079018,-13.64381135104694,-4.268954786267315,-6.168955305326622,-16.801176534987533,-21.37184766045953
2.392,-12.113513239458525,-12.488886027412445,-5.830710190940742,-10.975240514506748,-4.5302081319286716,-5.258728448177802,-18.056769973028405,-22.69858330482466
2.396,-8.202630971653349,-12.014710379494108,-5.922652341603686,-7.543471333693932,-4.8741814927967555,-3.723659484012895,-18.197198037672006,-22.535470716341827
2.4,-4.714235786091211,-11.918642755711467,-6.316319280089373,-4.8375785871053205,-5.922359718094976,-2.1439886736128413,-17.707474951912264,-21.789735909217715
2.404,-2.818470693035186,-12.88682096438673,-7.53342381364453,-3.9836731730380883,-8.089107926982283,-1.1962054073644168,-17.143729785231166,-21.134555079114566
2.408,-3.020335123895997,-14.94613828511201,-9.794189475797745,-5.2998875541618995,-11.319864557262157,-1.3727855642249942,-16.889835172421233,-20.791266275063723
2.412,-4.99370560508321,-17.49778913755382,-12.902243993149792,-8.229481444530872,-15.059759058321422,-2.741602916086025,-17.024359734150323,-20.579676114847786
2.416,-7.803081353541574,-19.700103513317245,-16.366901962971177,-11.677068034480211,-18.488675886070638,-4.884378355125508,-17.366376716476818,-20.14065961381432
2.42,-10.359892482988052,-20.947605085767577,-19.63795662223869,-14.532673974015886,-20.888266425949087,-7.053213914182013,-17.631487851914862,-19.180866978171593
2.424,-11.921112578782672,-21.19136002142762,-22.347954036579793,-16.148858335219323,-21.96732805292906,-8.505408364887018,-17.612911853101515,-17.61147696759329
2.428,-12.381859019305782,-20.913477641977877,-24.38520091174288,-16.52997173603372,-21.945709807664603,-8.828341454700412,-17.248860451149902,-15.542886216760547
2.432,-12.221296895383645,-20.777481185949352,-25.770602240089488,-16.165722047093702,-21.33887444793881,-8.085069899113407,-16.539624205851712,-13.182231360301351
2.436,-12.17501437170074,-21.18821550221184,-26.457843026004035,-15.656779327085108,-20.570989142656753,-6.715825432937012,-15.410843637323904,-10.718602293206555
2.44,-12.787143614814454,-22.005606635237434,-26.177256720561125,-15.336372965298102,-19.637533663206142,-5.256822426116125,-13.633293787179998,-8.278647885653127
2.444,-14.095040814057924,-22.60842202525265,-24.50428607660085,-15.115683554842283,-18.060482673321246,-4.06461959010727,-10.919271539935691,-5.956276497551417
2.448,-15.594494323955182,-22.263110281809325,-21.116646645152496,-14.606501713616531,-15.185494034076573,-3.19068118681109,-7.163139504761677,-3.885349460494812
2.452,-16.50658393320892,-20.58521488626686,-16.105187866996147,-13.42770866262425,-10.681514184013004,-2.4735218953326896,-2.6816839371612886,-2.298247021504074
2.456,-16.20302459947532,-17.81985664863179,-10.144584177936737,-11.49574620613113,-4.94075905985461,-1.7450640303227622,1.714749507513023,-1.501628049904129
2.46,-14.548755311084756,-14.755849998616366,-4.354157225465165,-9.11105260495461,0.8923900804851979,-0.9908968788769674,4.941735670441728,-1.7787631309828935
2.464,-12.008550390727454,-12.33280953748326,0.07673358434297306,-6.824096822821775,5.314514064246014,-0.3707041363787771,6.062824647904894,-3.2456900850589214
2.468,-9.435927896298809,-11.139364981374376,2.359892479540199,-5.142796052821029,7.125192481970057,-0.07110706946985301,4.718204910416853,-5.728312593056012
2.472,-7.635205353516349,-11.073203161664093,2.4417436847655045,-4.249266337125729,6.027690855893038,-0.10954909416727787,1.3327704652486414,-8.720782134688553
2.476,-6.94465477997541,-11.374525748810816,1.0031237771897423,-3.908192268243492,2.8255011201853684,-0.2529510237282986,-3.034723351924299,-11.469211613544083
2.48,-7.032722731809676,-10.994569712711431,-0.8308679994235311,-3.5853025771576696,-0.8954802302626437,-0.11425169091265275,-7.1151939249202005,-13.181539830882967
2.484,-7.051919002107728,-9.13450208617384,-1.9761144569475526,-2.737451160514372,-3.477121417111043,0.6088897825380863,-9.937250378001242,-13.290881746858767
2.488,-6.06420708855473,-5.665479562894655,-1.8063308664150624,-1.0971067385159188,-3.923402506382799,1.9358259520763186,-11.147652482379138,-11.669522292904302
2.492,-3.529125704793685,-1.2172707282759947,-0.3246044478963448,1.1896988351979312,-2.302081376169241,3.567766170144009,-10.994754826492185,-8.702572840294078
2.496,0.36536770254994955,3.0725745615102205,1.916462615578825,3.613248327472184,0.35196245005981375,5.050255048735774,-10.045592885225261,-5.163823690522834
2.5,4.732613962908863,6.039304515618086,4.106429736382546,5.532221432215209,2.575291466767845,6.0461048472373236,-8.80441974048635,-1.935237405141633
2.504,8.344553782891097,6.9514856031247225,5.480604159484319,6.445783643858027,3.1577284247240085,6.5189156076446455,-7.482106455916569,0.3282165692703689
2.508,10.156857018472472,5.755621908631498,5.5386949743560825,6.200270305154033,1.6521781831500983,6.72253731773446,-6.017111876934292,1.4347682394209205
2.512,9.757722436753161,3.0387626244722816,4.142402309696134,5.053096999345711,-1.4916543574367405,6.999957188596796,-4.270894211213808,1.6874685144385797
2.516,7.516211231192262,-0.2495726701206502,1.4961308643831162,3.5715954797745018,-5.180024350130228,7.52659282238299,-2.248958408145832,1.6996141193431948
2.52,4.39772242565099,-3.153983087630175,-1.9011214751783356,2.4456381770536444,-8.127453092991317,8.184736603355603,-0.16201445229123657,2.0708919128786025
2.524,1.5116328433589037,-5.034204069733864,-5.370210349461219,2.245893747749915,-9.314963901668905,8.630259643885983,1.6821383057205335,3.081145923798829
2.528,-0.3637225348870814,-5.7287810254890505,-8.196595724029134,3.2238968112645328,-8.272140938200348,8.527306734391683,3.0789199126738955,4.554563207864215
2.532,-1.0411968749639664,-5.521160812647123,-9.789968768070082,5.224645593677649,-5.12964987016218,7.79536745974629,4.074416500309287,5.953204348398585
2.536,-0.892752525594291,-4.96474344644961,-9.856291934969745,7.722536420133764,-0.5013307443912813,6.689113563796127,4.921268274776107,6.653278512588807
2.54,-0.5438787817238309,-4.617905537633414,-8.469751123994557,9.9979848904569,4.723947511962786,5.667682576012658,5.885167397871586,6.249144892173785
2.544,-0.4855164611739653,-4.799208427840452,-6.025617364384243,11.38907267755506,9.603650726388004,5.133039694862645,7.0261142979737645,4.75419746588364
2.548,-0.8079436977819485,-5.45155748784383,-3.061932976427122,11.542350853953856,13.339754957247605,5.213651655523348,8.104473816322198,2.5947191530711398
2.552,-1.189543594980854,-6.178418244451424,-0.05389004174513978,10.546669411867722,15.416856996957334,5.705806280062342,8.675981902181281,0.3981592301828132
2.556,-1.131370565580522,-6.452486995366817,2.696269434975776,8.883833185570637,15.670277842212164,6.209305135637635,8.316733556066538,-1.2833930122006394
2.56,-0.264766081235543,-5.890009891351249,5.0546119889655845,7.225880963527528,14.283039024932014,6.378082149598228,6.854614633331223,-2.1900811218347345
2.564,1.428581233378514,-4.479364422229679,6.920764597621573,6.1396513594655335,11.699711584287677,6.10950490873428,4.448440118256646,-2.4028401846569345
2.568,3.6114414415978775,-2.624040877223015,8.11765870783207,5.86275001144366,8.500731949586216,5.578569354920355,1.504428967885116,-2.2098090407653257
2.572,5.788637242347592,-0.9592823847236676,8.414397961569573,6.254033936669964,5.270866511713247,5.106214692173408,-1.4928411035900355,-1.8896722219662787
2.576,7.559172016127064,-0.049567273966879544,7.662463851132793,6.917104399631462,2.4877632963767553,4.957793040889121,-4.138613689737501,-1.5302880699576247
2.58,8.787013876282085,-0.1081213476328533,5.992363222901347,7.446433114526903,0.4599633453195642,5.2060140704022455,-6.1553454579924,-0.993017120381269
2.584,9.572282199462336,-0.9112880762004512,3.8704400187250094,7.6318384791205425,-0.714736515113275,5.721949540904749,-7.357799570442058,-0.018419408341393773
2.588,10.058667411579155,-1.9641126878655613,1.9352608204046566,7.514964687379946,-1.1694588389811926,6.2904318409939695,-7.613177875407693,1.5862186149970736
2.592,10.228709263020244,-2.8148148557390584,0.6716003780047557,7.277818251003174,-1.2523390658301734,6.750421432910315,-6.872283590149709,3.7800409751895154
2.596,9.82452127449668,-3.334805382373524,0.09409628382742818,7.043734264513661,-1.4403378959317115,7.067279788409492,-5.269677152693459,6.2560863847637105
2.6,8.490490187772037,-3.7624459269417785,-0.29365766641525415,6.759072787191383,-2.147185662782139,7.313859225394308,-3.1828324561047996,8.54648564713022
2.604,6.043478766563541,-4.4949150096595005,-1.2244207687491686,6.220803909475865,-3.4919703495195282,7.573751233167708,-1.1752186565651215,10.213354659558568
2.608,2.7071575056511197,-5.74733234293353,-3.1728568491928666,5.2508747972924485,-5.125268170556923,7.855454193594176,0.2128272592206839,11.02262835911091
2.612,-0.8575990858791542,-7.3071261378426975,-5.9421831062405195,3.8950054092887516,-6.254903604790002,8.066175593457576,0.7302926066047357,10.993224866848237
2.616,-3.789420089894511,-8.572903429413106,-8.629080544371218,2.4902012352456553,-5.932889401213293,8.05753273349707,0.5636415303862812,10.327041374091973
2.62,-5.387420981026316,-8.853839820909378,-9.997460492727434,1.555514628354775,-3.502743090733317,7.717009915431217,0.2655139187143236,9.258653057763834
2.624,-5.418349138699213,-7.780044616899246,-9.122546783794304,1.5286457876725121,0.9847331085798333,7.0275529878338485,0.4471914104240069,7.923493639027294
2.628,-4.1850949514249205,-5.561424763047063,-5.917622758877714,2.5101455649690125,6.63694508685426,6.0731336367341004,1.3999155295952894,6.314702384109127
2.632,-2.300078223147536,-2.9091486024506192,-1.2246120211530398,4.182115374090389,11.997810899545652,4.993070767362173,2.891086750928315,4.344999273218888
2.636,-0.3091129611060198,-0.6634136596948044,3.5778812989671103,5.953029211712652,15.637679777931933,3.918438362225582,4.259682367908509,1.9806901860355608
2.64,1.6114303466531488,0.6665597121632789,7.263041914036091,7.262188898432856,16.77367373636749,2.929720063721872,4.781696034408365,-0.6613773325903631
2.644,3.6815168269814573,1.1580305423268908,9.307980519892265,7.844539881275803,15.588443508750194,2.0446135847701368,4.087728665530207,-3.3081821727664202
2.648,6.269779269397818,1.383118037666766,10.02502199642014,7.818089494902579,13.082928532159317,1.2582648536804917,2.3901593916225004,-5.608194510567496
2.652,9.534830959605658,2.031492269828191,10.22452745319036,7.544400136169459,10.539008390047398,0.5936119012860309,0.38522912128878684,-7.2508175910898505
2.656,13.171935560073525,3.4552597057340453,10.609791439103645,7.335861563933461,8.875252452742853,0.1210001440569679,-1.133298848342314,-8.05414998356261
2.66,16.474519308196953,5.444605061409324,11.341081351020975,7.232575848365844,8.268150612134894,-0.04500882224682412,-1.6846143264385014,-7.980717800861143
2.664,18.652629968229192,7.335260187313292,11.980946219430074,6.957506084501707,8.202633600670765,0.19678125254928291,-1.3120450783340434,-7.097541943984809
2.668,19.230920749246543,8.378785057996138,11.846072402729177,6.101316180121126,7.892635260438643,0.8679005961686539,-0.4720785060086747,-5.527359193568302
2.672,18.29157194512321,8.152164933715211,10.513171780542717,4.422214121594266,6.79597796600045,1.8593646245085083,0.3184256453894441,-3.4344615497737836
2.676,16.383572685564875,6.738729771777843,8.109607147559613,2.044122733664486,4.890854908279236,2.9221177808128,0.8187684957628235,-1.0429869387946362
2.68,14.17618112366072,4.608224214478746,5.23993431871465,-0.5516114197210105,2.586448084249138,3.726320281941949,1.1769263907450822,1.337968952961658
2.684,12.067775561942685,2.291926491616439,2.582183588864817,-2.753638164624255,0.3626504590653159,3.970204176018577,1.7408067100451876,3.354497203341508
2.688,10.01047038432533,0.08820668360459516,0.4714258282847412,-4.117678326578749,-1.5753294085243326,3.5176433407304204,2.724204209518673,4.733681308426014
2.692,7.65823937032043,-2.008029605179756,-1.2392670537696275,-4.551427320763554,-3.378781167846638,2.493526020441482,3.9731675049725146,5.437847756638817
2.696,4.727470388579546,-4.133894511469817,-2.9663624957997174,-4.289692316376681,-5.31954552587964,1.2729633608483222,4.993224628822974,5.756261615446093
2.7,1.3495943542457818,-6.274395131609212,-4.946392855625065,-3.6723329734697816,-7.406243257916812,0.3552060040087639,5.247527300388053,6.218154024429295
2.704,-1.8573972169656217,-8.103328147959301,-6.90142363803405,-2.906904167957744,-9.154439210313672,0.14867147947617787,4.527780160461447,7.33098645625085
2.708,-4.055561912143013,-9.070011203097636,-8.044131442901287,-1.9526435115885505,-9.6976627517055,0.7806224550272396,3.151006635115783,9.259505045455217
2.712,-4.6239714917858326,-8.685736673867483,-7.447027555600963,-0.5923189014302919,-8.222141586389705,2.0274414738586395,1.8356807795610193,11.614548524434655
2.716,-3.523047444796064,-6.850603110992561,-4.590421342433141,1.3440484415476806,-4.4887409827085545,3.4043503793051277,1.3020160535616447,13.51921549822815
2.72,-1.3299129798314766,-3.979387946086158,0.28427349007646896,3.7887022920403397,0.8894068462245093,4.3944541532997805,1.850852048527235,13.952761926895503
2.724,1.0683987976243143,-0.8447667881443399,6.200782017719558,6.395520219302639,6.60197281123546,4.6877277271695785,3.181772559089823,12.238377285779976
2.728,2.9505591190954474,1.7852692282677154,11.857678337775262,8.693532751499093,11.178043895003047,4.317352839878785,4.569959589385375,8.428421400683574
2.732,4.1170578723451,3.5066144289568895,16.178357763386664,10.331023317230953,13.614444315371507,3.6055194491123466,5.291804489293312,3.3568453453117812
2.736,4.89628849696868,4.411028616743968,18.672769677405608,11.234626246235495,13.765078653352168,2.9495334247051477,5.0440983204572385,-1.6847049963215723
2.74,5.833551622080098,4.947461399074752,19.482899436841826,11.601733126780495,12.312307190068134,2.589610138280184,4.124121015769085,-5.500917983092509
2.744,7.2489104157358675,5.588433441793075,19.1072105002159,11.70226791399304,10.347203912594392,2.4704049036278533,3.244886774570951,-7.49249140877102
2.748,8.952660916309373,6.521556393218554,18.045877960346044,11.644906433893876,8.824484554004352,2.300899803619051,3.11534392115062,-7.835441164607012
2.7520000000000002,10.309584999940686,7.562230931502495,16.60399937017641,11.280691863935608,8.185418536703068,1.779642720934048,4.05040966080508,-7.247766056024204
2.7560000000000002,10.58087245346453,8.288924194412925,14.89332245205352,10.28766090565833,8.281487359073347,0.8264743042042237,5.806685658031745,-6.4912741076409395
2.7600000000000002,9.3571082457579,8.324529728235252,13.000135402304274,8.414635890959037,8.593685630141625,-0.3071996283803049,7.74169229198227,-5.914368044244205
2.7640000000000002,6.792985536962284,7.561845271648458,11.09807791429948,5.697514328002233,8.553274673317116,-1.15464240456539,9.168506680551404,-5.293546157247242
2.7680000000000002,3.513494975274231,6.18967593127909,9.400825360095366,2.506938731193034,7.782794081841702,-1.307140395828263,9.688857359842778,-4.060649235731482
2.7720000000000002,0.28324765395883067,4.536096786740558,8.000799434115963,-0.5981114071507045,6.172892485063494,-0.6774913211174582,9.335380416428512,-1.7701965750739879
2.7760000000000002,-2.3683787895573643,2.8450265644313837,6.723449327972942,-3.1328009053955403,3.8197541627438785,0.4028546154468835,8.46793622491936,1.5095084301129973
2.7800000000000002,-4.315949659216336,1.1703192206101383,5.19991226874709,-4.864527646644559,0.9502744372531673,1.3477734710151807,7.551386324725936,5.128105813791791
2.7840000000000003,-5.731546932402246,-0.5451339250251684,3.136832410199697,-5.809597400009065,-2.1018445634720067,1.651412121375926,6.947860553558668,8.16476749354608
2.7880000000000003,-6.809931101254815,-2.272720477548444,0.6343919330091774,-6.0599761857623715,-4.887444242628157,1.2075037256076708,6.824591416175215,9.924937547128518
2.7920000000000003,-7.529655478223028,-3.735536311019901,-1.6786096440645055,-5.579103518447285,-6.873442207942864,0.4084686757296315,7.188223293671442,10.302624323710983
2.7960000000000003,-7.646846960839068,-4.449118655557818,-2.876920589882418,-4.159340800148826,-7.579909322860071,-0.06443623102256169,7.944161076867663,9.788452105089398
2.8000000000000003,-6.886524157325525,-3.9438649599059374,-2.202655399611653,-1.5692251389421303,-6.762456866592201,0.3678721613534395,8.938650729258269,9.11826902003483
2.8040000000000003,-5.198286177515143,-2.062241809363485,0.46630958507698983,2.170109395331033,-4.5548366532865785,1.815746910222094,9.957614252724055,8.78634095925197
2.8080000000000003,-2.8755951541068967,0.8686844680696869,4.462356236745462,6.585301216312628,-1.4488638518492158,3.820225666107499,10.732034132631597,8.73264564906567
2.8120000000000003,-0.43041820883510495,4.13263911713376,8.620119681782676,10.797670995118658,1.9077851929722218,5.586110974671585,11.009289636212628,8.395938368859454
2.816,1.6795292251382936,6.940015943396784,11.840151146858515,13.81921370522591,4.984688425688024,6.416309409121672,10.669710572810176,7.117004234551185
2.82,3.299788518506399,8.813203647149415,13.636195116274608,14.976597525408756,7.560165283709263,6.112861783554605,9.835015954051432,4.62140151792534
2.824,4.610534353052946,9.80180576921091,14.294466328434698,14.203185781402949,9.692702389663953,5.0923240835375525,8.855387637075804,1.2798517197045043
2.828,5.912462727455848,10.398580663523155,14.570097001843605,12.03542445498722,11.505959264236761,4.146126156270742,8.163056953299089,-2.0142400170907244
2.832,7.329244144660718,11.214149947850984,15.13292328074397,9.319231712185703,12.949992502448332,3.9815029388109195,8.065312321701265,-4.27847887063081
2.836,8.629859412869216,12.587303245028245,16.09082893191502,6.786287083238962,13.71355248117854,4.813279416320093,8.582923897185976,-4.9029289951750865
2.84,9.341217428557773,14.382777602812322,16.940124488087104,4.7641514531358276,13.388426942653645,6.259042503793498,9.466816131409598,-3.881005995176144
2.844,9.068412105192984,16.063158769783882,16.922296287026633,3.136899131991979,11.768057334420874,7.570553883576611,10.365127849983564,-1.7054277936120008
2.848,7.817337616428938,16.985250845757697,15.555343838267612,1.5485324344000264,9.082386749240113,8.07295495427622,11.03587995203628,0.9675737497768444
2.852,6.091837253305105,16.745324747693484,12.977717044854472,-0.3075068895719225,5.980081831226724,7.541253713487674,11.462500722369686,3.6453654828459863
2.856,4.622071943015725,15.341676333935158,9.823325661818401,-2.530128449711432,3.205202150857988,6.274619640417802,11.762833081055803,6.120953627051137
2.86,3.893059424166773,13.097960446500242,6.7577639324514465,-5.020716919415706,1.1680479590236068,4.852804493170623,11.992960120382612,8.351247672599943
2.864,3.767935562908403,10.425451699179664,3.9809047512440827,-7.6086710341722394,-0.309112579568934,3.7366174035173234,11.998557707193633,10.254214736270729
2.868,3.5067592216094856,7.623943791351445,1.0987550946906817,-10.124148877685508,-1.8468862304526414,3.0036769941537655,11.47050969531659,11.635252868309074
2.872,2.2368514118739973,4.85976519032254,-2.4955724706617395,-12.334741727211485,-4.017852697758901,2.385478186211832,10.221235173127031,12.313933794333849
2.876,-0.4152864939565424,2.2807988938990365,-7.006107600947601,-13.835993256233726,-6.824456123406627,1.5553669910363859,8.462143337835984,12.349715334517407
2.88,-3.89396116603879,0.1643892706571508,-11.765564314853435,-14.016710304435577,-9.478723410027836,0.47128786563238134,6.868465765504671,12.14020604144552
2.884,-6.848796387955189,-1.1043166323875,-15.35798693261639,-12.28287206581894,-10.730035431306785,-0.5278855695007476,6.263422991935551,12.217169209281517
2.888,-7.82983997829503,-1.2679336572629145,-16.340849066170172,-8.489463127822187,-9.611969768479343,-0.9633977349572127,7.030845071120332,12.793384153888104
2.892,-6.1677674786498695,-0.5026889875454973,-14.165854754984785,-3.3363726069920094,-6.1847986651641005,-0.6689904203321868,8.608541339465507,13.341918396562775
2.896,-2.540545110674758,0.4224641259708841,-9.750578541657308,1.568215178983432,-1.8028178267816455,-0.1440558392510496,9.429496948691726,12.555954443955121
2.9,1.209401515214766,0.36601640389550827,-5.208073630805126,4.203019771360848,1.3754797432983854,-0.48521102893065304,7.515311118008691,8.860236512088864
2.904,2.9675234830770405,-1.6254459213853227,-2.816459628562483,3.033397211061897,1.4409047167628763,-2.8585313088116235,1.5186568866905967,1.3122526131397094
2.908,1.5009008935735626,-5.682228318962347,-3.745709916367722,-2.1040758943854865,-2.1829063565976283,-7.742978590213773,-8.298956929650931,-9.572429933070968
2.912,-2.7538313712275486,-10.771984148914786,-7.2694463781338134,-9.63547340180743,-8.235832578790207,-14.384111457447275,-19.728718707807545,-21.589168143950275
2.916,-7.7795612628632025,-14.960598800195065,-11.012031206359868,-16.731630133899422,-14.056056418952148,-20.8515070518193,-29.240507772391126,-31.4502130338927
2.92,-10.920437305502984,-16.208301305036038,-12.119309587569647,-20.469192156235014,-16.773906774597155,-24.746912986873284,-33.34958207016991,-36.03991644947518
2.924,-10.22354866881236,-13.363689449100114,-8.793725640096493,-19.167569572804485,-14.699900572698345,-24.286345912277653,-30.13805953568265,-33.74782549372812
2.928,-5.461363812608012,-6.835376956146538,-1.3354952044717194,-13.206755668138648,-8.175401514502452,-19.19661802150076,-20.182233426274557,-25.2025128665217
2.932,1.7409652137021654,1.4613536501837094,7.908858058356111,-4.865814259156128,0.5684978480183291,-10.92958060745394,-6.386901894865134,-13.019503416408554
2.936,8.703988219490288,8.880943805045412,15.638413794847573,2.7344292447413348,8.452402882749817,-2.0706664697647947,7.199463682583073,-0.6723930649794987
2.94,13.00231607794248,13.196978882704236,19.176524625514965,7.075083985681028,12.951288934165888,4.788772253925989,17.039495358815824,8.933838686410244
2.944,13.56957862555154,13.5366981209873,17.662003532835477,7.319441839635535,13.13094079395755,8.138148019273789,21.435583229512087,14.495460529066722
2.948,11.034514496995428,10.634817360310292,12.261726282995731,4.50283734025102,9.829975455816738,8.06270603840555,20.93817664952951,16.491618629259143
2.952,7.180197745665854,6.314281778867175,5.374649271346083,0.7864295624209461,4.975297756537862,5.9619476264303195,17.72825478655233,16.50512338396538
2.956,3.8617554767508087,2.473726388184785,-0.6982068036784745,-1.7986542966273582,0.46746339606932885,3.6621411764525464,14.356199133256858,16.14876727393862
2.96,2.046316691149339,0.1598072771963297,-4.806506017438302,-2.391076685281132,-2.714704750747879,2.445430226721321,12.534147880299578,16.20039413989784
2.964,1.479391807771567,-0.8008304717604844,-7.212431608760668,-1.5865032742199159,-4.736452815581796,2.497911181178557,12.54776702353784,16.391189173688538
2.968,1.0785247596108691,-1.4726585103188092,-9.013397109799714,-0.8787785734277813,-6.4214704965834795,3.0278729488358556,13.482252820095528,15.868040623650254
2.972,-0.23497963623897977,-3.0198728822091216,-11.167813942929898,-1.632645454449539,-8.442045226128013,2.9060073859281843,14.009784202241272,13.943681806325221
2.976,-2.8081945066728573,-5.94227857495937,-13.784666843322672,-4.216090580248671,-10.723754446123854,1.4212937580213427,13.220320082436693,10.649037014412762
2.98,-6.032980413866701,-9.74648776811623,-16.04942132972573,-7.756418725793887,-12.415468996760726,-1.2675228751605414,11.062357451715185,6.7469874853592735
2.984,-8.72231249290019,-13.219465538152686,-16.810241881911036,-10.649161862160543,-12.438319446945417,-4.2319336185663765,8.205545783798295,3.2369504735106895
2.988,-9.802848283257564,-15.101681860192695,-15.381380339416125,-11.47390393310338,-10.228528755841566,-6.298766185040138,5.517226421044681,0.7146139358354358
2.992,-8.887931067321613,-14.753720513214278,-12.032281281631166,-9.77399773232947,-6.197996572752714,-6.680294364695692,3.534192674434321,-0.9986292259733713
2.996,-6.452977769714819,-12.480204593667953,-7.908645296369301,-6.295259586609988,-1.6399153775021493,-5.37896091131485,2.2219382144141506,-2.7024484175644923
3.0,-3.529402812858275,-9.339116196511068,-4.415156731388034,-2.5515824440316126,1.8941513072931846,-3.148870811216263,1.1471117251679956,-5.2465949013450395
3.004,-1.1632158814362494,-6.602333794879458,-2.5000429895000016,-0.026431009595028643,3.3627980733289666,-1.1031647127269362,-0.12318942806573485,-8.904405130322077
3.008,0.0504475427349238,-5.169605677296409,-2.2509496742844646,0.5449993547334469,2.7162594181349844,-0.1805020296306994,-1.6814395959278565,-13.077436299207438
3.012,0.13355071978324062,-5.228855661153221,-3.005859203159662,-0.559817898133911,0.8226913966366061,-0.7526330959225991,-3.209507654071384,-16.540056699280903
3.016,-0.4570903393323764,-6.30855923173797,-3.894632196103996,-2.3543916168623147,-1.108867263109369,-2.539684000669302,-4.216391983825279,-18.074730125022086
3.02,-1.1617754746341968,-7.612679199870778,-4.398241655260899,-3.7672406988725253,-2.2414130086198725,-4.802896033217162,-4.387841348203541,-17.13810057346209
3.024,-1.6078325536091236,-8.443268250628197,-4.621345277163322,-4.23105912249903,-2.567638649284244,-6.704823256651737,-3.821228293540292,-14.17078008052969
3.028,-1.71190398902586,-8.490123368603548,-5.123006346062874,-3.9013810053084357,-2.8527121854554744,-7.644458153147509,-2.973955843199703,-10.363642691520912
