Timestamp,O1,Oz,O2,PO3,PO4,TP7,TP8,Fz
0.0,1.5347723092418164e-12,1.9326762412674725e-12,3.581135388230905e-12,3.979039320256561e-13,4.263256414560601e-12,9.890754881780595e-12,3.637978807091713e-12,-1.5916157281026244e-12
0.004,16.56569864710201,36.7361103717879,29.400438920589977,18.60998167289597,34.21448953277991,-2.8499811443076624,5.197736469320716,-1.806244074462029
0.008,28.55450095233647,63.62236822429236,51.68133246475014,32.950278762929656,59.70579628629372,-5.50376314378741,9.463890610289582,-3.407391451278272
0.012,33.685052711294475,75.22484445627663,62.72288912761735,40.70976025654659,71.63556265135128,-7.688183339220018,12.226178141556034,-4.6607406959068385
0.016,32.954013226597226,72.64904241010174,62.909688093218676,42.41741548335773,70.92401588511348,-9.050078816978726,13.461852701836847,-5.51922250430232
0.02,29.814230168473728,62.36769426641081,56.456110237376265,40.82067393551745,63.22032192363514,-9.255452767791667,13.65924941967694,-6.001000762816261
0.024,28.050076243705917,52.49523183450913,48.99291328856356,39.155068584220146,55.62377911643296,-8.14877422903362,13.569778531230554,-6.125906500140104
0.028,29.646605124611824,48.660917659528025,44.78136183424465,39.35451677043022,53.04122533867127,-5.87722983563981,13.873184212622107,-5.859517442170272
0.032,33.89184216073335,51.706307078082375,45.0166143511463,41.231554869902084,56.14190270471266,-2.915063656674988,14.889433066956087,-5.1191248086561245
0.036000000000000004,38.12621876896537,58.22567483865066,47.96067912299759,42.9983741285094,61.835303991792784,0.0400887179368965,16.466034341785587,-3.8559829659883462
0.04,39.56233314149881,63.29712764793027,50.56669651483736,42.683346639541696,65.70882184829117,2.2734642309044375,18.071274956671687,-2.170979502610521
0.044,36.98770059958861,63.559731302142154,50.465353616330106,39.48614906157445,64.79889686603255,3.2729626190468935,19.02460550477622,-0.38892758522513304
0.048,31.355380520914878,58.883256078807904,47.17916552175677,34.26237696220255,59.117026712865396,2.872872042825975,18.768140922824557,0.9929095214514518
0.052000000000000005,25.08005318417713,51.94778748975159,42.065577495594994,28.96698750387344,51.275546166654664,1.2757077339249463,17.088547155236597,1.4891097300182992
0.056,20.601319272248816,46.31951147675741,37.27305079850959,25.506313421370635,44.72131007110957,-1.0426329080053165,14.223593538505952,0.869704227819966
0.06,19.166791332882042,44.3835040543791,34.48355121814038,24.767018670005314,41.79268251882479,-3.4897607555876675,10.81673592251849,-0.6530165079310564
0.064,20.487301286347474,46.29024776922611,34.15180942802593,26.355097809264862,42.682905379266344,-5.514339602641371,7.7203787934118395,-2.438345442221703
0.068,23.286598672424645,50.31730798645788,35.560940992903795,29.07581386911903,45.74521473641295,-6.721042657188434,5.710248792304242,-3.6618823904615283
0.07200000000000001,26.24651008622868,54.179367265826926,37.49129789779528,31.748847424831524,48.751159555608865,-6.933763475114802,5.217374114681434,-3.6931382612322636
0.076,28.66716846341771,56.34002488127305,38.9938930548995,33.783058376770384,50.21871555497319,-6.218646546665411,6.176566492453503,-2.440104512422181
0.08,30.50368248420213,56.56722983234911,39.794682235789736,35.20042129183321,50.03913730008236,-4.8650664866268585,8.058009878967653,-0.45524573181256756
0.084,31.88960081574811,55.55410253802529,40.156230229902576,36.193374467836065,49.155321450379375,-3.3335346356225273,10.074546398409666,1.278927448381694
0.088,32.661098750383445,54.11373245966175,40.45212316284841,36.65718995121756,48.70795613957867,-2.146586132901348,11.502839055230424,1.8021696434772707
0.092,32.321698280540915,52.620044020472704,40.84527863487057,36.11545111083302,49.31334676639494,-1.7421289103633057,11.984656172795951,0.6508914111007016
0.096,30.488281655885658,51.03138295579703,41.2752092269173,34.10748971226781,50.8933933070432,-2.3301570530140907,11.665542162131999,-1.902781002347524
0.1,27.44311643619983,49.32106237478993,41.683773169106814,30.72574177741734,53.01668450988592,-3.7928499297001963,11.110484418367776,-4.961355995068402
0.10400000000000001,24.275112431979665,47.78643423272996,42.183686892807344,26.82569765088607,55.31245129173186,-5.690414250379376,11.009634934549979,-7.418143641995812
0.108,22.403493450047108,46.92261668129058,42.98698481792718,23.668771601389892,57.60327364606698,-7.3833456937962865,11.804082619251005,-8.460480000336872
0.112,22.75267301804743,46.97897788294293,44.16050279534366,22.196783149808994,59.72454426122155,-8.252111184329124,13.445935507546722,-7.904727089922915
0.116,25.121737211283858,47.59433721150697,45.423389460183046,22.41329174271482,61.275722329989236,-7.934065344579835,15.397387006688007,-6.205956886409467
0.12,28.203196793195247,47.86760104144207,46.18069104460474,23.314193800640595,61.601662197626865,-6.477525198535318,16.87625455058503,-4.155636379837006
0.124,30.27760476484508,46.84981110488144,45.78615612980079,23.454038423175604,60.06820048979287,-4.335709969407901,17.229855578875174,-2.4547433377625225
0.128,30.183650068856593,44.15727586484854,43.88511136469859,21.82438909547625,56.47809844376175,-2.185302465301106,16.24177139214231,-1.3981954458862447
0.132,27.991694692037726,40.30214335845616,40.64875171307642,18.528123639854186,51.35230394369208,-0.6565412243663786,14.227870373237238,-0.8245044416298128
0.136,24.975205135871676,36.48519500922697,36.74179167416173,14.816175458927603,45.83307075848117,-0.09428683092056644,11.881741072752675,-0.3361899957366745
0.14,22.877092828913874,33.93922231545557,33.02606639721742,12.423733602742118,41.20005594328629,-0.46245514015981826,9.957824254740558,0.3774288094206213
0.14400000000000002,22.8769186691068,33.189319225056636,30.153921331935322,12.563298406329181,38.23785281948386,-1.4312971523575015,8.944464600760341,1.3112565336813873
0.148,24.900871135162106,33.73604684585473,28.301549402686476,15.186548501700827,36.86001810425489,-2.587504906449908,8.888199716161807,2.14763628820225
0.152,27.69111351157858,34.417175615583176,27.21790039944642,18.98631224353244,36.26488678791685,-3.6431461977972504,9.44792449757739,2.4714348620827877
0.156,29.55481976096212,34.22047758057988,26.542364778074784,22.139472043478406,35.541438022117745,-4.5371598771406525,10.131047089164213,2.0560225153362808
0.16,29.33058398642038,33.01687296332017,26.15593031255196,23.341795492907238,34.33767845480952,-5.378419263007913,10.57412977126478,1.051225739476422
0.164,27.000655741932746,31.694528263269774,26.300584395080136,22.50568060916754,33.128988258198945,-6.287936120605195,10.704228793808454,-0.060761683099940456
0.168,23.602486640927225,31.60360154467071,27.405152000315013,20.701689723466814,32.92595590652667,-7.252302143514726,10.707470823810468,-0.7142516540792485
0.17200000000000001,20.547502571950417,33.68109284686989,29.757517428704546,19.41004290431397,34.62370697634782,-8.097459415944286,10.853347054630945,-0.5767185713714298
0.176,18.801367736422264,37.821068433288474,33.25611641381539,19.5636609836057,38.41020975881088,-8.612264470950436,11.304129437257757,0.2447332428982918
0.18,18.41562841694207,42.87227073679338,37.39818687910861,20.964702434698324,43.59045731936078,-8.728542661944857,12.028107154932627,1.2562612005542633
0.184,18.629556781138092,47.20648437033515,41.46532331611053,22.39886205888098,48.87262134516175,-8.617597927365864,12.862119830628217,1.8576219935674771
0.188,18.4534633196468,49.53175254610767,44.79787846511192,22.383137982512153,52.9491015295701,-8.605670547498903,13.667454653827349,1.6963844864319526
0.192,17.36073086313803,49.5091463976666,47.029248305691,20.116217799696074,55.0704715962288,-8.944261437412479,14.467944279068206,0.9030379607206669
0.196,15.661281503288649,47.84622587780791,48.16820240518973,16.065298395493187,55.30246349928268,-9.578572710969297,15.451350644421495,0.05489047518494772
0.2,14.332215280400419,45.82799988591387,48.47342240223361,11.821426045238127,54.3236138194473,-10.070670086437985,16.803344475234667,-0.13281513946344603
0.20400000000000001,14.395397876380684,44.542530586719636,48.19722956560287,9.289933677944987,52.896298511452414,-9.775664591547866,18.47801634584914,0.7843418568605784
0.20800000000000002,16.228074009758018,44.26768284277131,47.376540090278525,9.684880058874228,51.35435578654733,-8.200520789544044,20.07315891879682,2.703548956751888
0.212,19.238657809983124,44.395057587100894,45.831404367661435,12.916879611624154,49.44659617166582,-5.33169141253677,20.952893089206555,5.018917167337008
0.216,22.113183287835795,43.922995779125074,43.391874985668096,17.71098427554523,46.62591342949196,-1.7357846740627565,20.60701002708322,6.982081844784261
0.22,23.505546968336603,42.19634178399684,40.19013127644945,22.35248994966173,42.5674947801723,1.662416053702259,19.058583443333873,8.186261113344244
0.224,22.763030415451567,39.39182533500178,36.77281422929957,25.577223203201584,37.52804098185811,4.027475269717797,17.03351805170314,8.862578598654295
0.228,20.25959795412234,36.473738042796356,33.93131938840014,27.07926228154588,32.321124105612114,5.0130184041370285,15.702565894902818,9.750702438763483
0.232,17.16587467623242,34.659941667862824,32.314876978932375,27.3946080078083,27.92902298846434,4.868025228210172,16.061664530775147,11.569036509188209
0.23600000000000002,14.74785661334954,34.64866936701145,31.988187723097667,27.25248575200385,24.93273008699134,4.1730102441740655,18.22069064049981,14.353097803918445
0.24,13.614936456639498,36.0869239397573,32.22937845623494,26.866817065159694,23.14181285235378,3.364870280217019,21.03723905618574,17.082580392776435
0.244,13.347170949206884,37.61993876396173,31.76611074294658,25.657265067827893,21.69239664297993,2.34628816208874,22.39243918029331,17.89641258240067
0.248,12.732341323970104,37.52970314423021,29.38934289159988,22.59529115441319,19.580371268207045,0.4659720625315913,20.094747944109713,14.910952473942643
0.252,10.49882490316952,34.6430585903845,24.662611356387288,16.975114522560034,16.330506937452583,-3.058741967318383,13.037652651138728,7.291443717002721
0.256,6.142165706213177,29.05718137211568,18.367843139334695,9.136771689324405,12.433078134120024,-8.506152208475896,2.044273331605382,-3.98144712702765
0.26,0.4060963128399635,22.32902590154606,12.427853663259384,0.6875636566229559,9.313922110332555,-15.166950899286348,-10.098580600642663,-16.12572481667712
0.264,-4.88710095326212,16.97040283066599,9.250573824118305,-5.980089652175593,8.79827996304141,-21.3613153130068,-19.531819439886362,-25.47367876192334
0.268,-7.6084256693031875,15.419708966954317,10.718886516576163,-8.673437202449009,12.288421864752195,-25.02219499312787,-22.803529109320152,-28.917494754071868
0.272,-6.319605404944582,18.920087405581057,17.246335029009515,-6.3974115018609155,20.014004744763724,-24.602297940770995,-18.293365447840415,-25.22408080746709
0.276,-1.00012339264606,26.84509460105835,27.37498943455057,0.14759101767072025,30.730018746941823,-19.839251253597467,-6.918841848597367,-15.577390083960836
0.28,6.885140067554062,36.87044713785485,38.21432977978816,8.852059957763686,42.08086233263191,-11.97471342205472,8.227096277979399,-3.059268714250493
0.28400000000000003,15.010590322238158,45.9359541578408,46.5583107420498,17.119105241291436,51.46830590078571,-3.2926291400208356,23.122338792613164,8.671601840082758
0.28800000000000003,21.17991221801833,51.53881509245025,50.17450349460967,22.947070292647822,57.01612004720221,3.835422222657371,34.366656740469125,16.885291079763192
0.292,24.17854907808305,52.70422438418268,48.6418804718071,25.629717976301663,58.16785394863234,7.935830851669834,40.32813164766458,20.750179690553978
0.296,24.115238479065283,50.209680011050864,43.371583920125204,25.796268682387222,55.69666927151138,8.969974452196539,41.4188756561291,21.341078898827163
0.3,22.16102146504545,46.03336483435203,36.86263534041291,24.873062873621052,51.2157478373224,8.175275179636174,39.47824980620885,20.770151990200475
0.304,19.86738638243503,42.32115031444357,31.56602438912546,24.286543873723986,46.44885462415914,7.315717932527605,36.65963677316813,20.94888703259494
0.308,18.42864138291452,40.38330982404079,28.889826023222213,24.81122915269657,42.58829909769747,7.752595144559791,34.412819335522954,22.64089402773402
0.312,18.232157170729124,40.17747194626645,28.761300503530606,26.322817256163262,39.96994330867267,9.798354217928363,33.01180510610743,25.244220369280356
0.316,18.84818119434226,40.49007112956974,29.891683304856087,27.993798389252788,38.155621916016685,12.647796542943297,31.767725895670992,27.323831633212876
0.32,19.425518634491482,39.74043220384476,30.60092903326131,28.809283046596192,36.38014317794023,14.88278262202357,29.72624713428695,27.53614486549941
0.324,19.26190211349865,36.967954500272754,29.75216614534645,28.136186742819973,34.11733598968124,15.267698934156897,26.420726164408734,25.41102254784323
0.328,18.238203306955256,32.447243999827265,27.30522894332796,26.064627259392864,31.450791012453124,13.406278287405712,22.256889817700994,21.582662625653256
0.332,16.880284156422135,27.587497309405308,24.236214458685936,23.36871964090983,29.05270016286795,9.925892570372753,18.357935183354357,17.412603217514288
0.336,16.05381043710713,24.193044245254328,21.926543152166005,21.133575220111652,27.807130895801265,6.146476913884499,15.989756339260111,14.26260518442291
0.34,16.485160395294315,23.53096626474212,21.415120883831264,20.24789151181244,28.31963936001864,3.4163627071300198,15.895858303796786,12.825922274628965
0.34400000000000003,18.346687632549447,25.695480415654743,22.90723610091254,20.98516800125458,30.57001560844276,2.472459104839345,17.892678391806385,12.861583362241163
0.34800000000000003,21.10234365416261,29.566579131347567,25.747926388900623,22.847517178674707,33.86599330341977,3.1492618632664744,20.92327494622691,13.4275512326235
0.352,23.679455854732282,33.3333739263943,28.790468695250297,24.729922144718216,37.08706763676332,4.556344356467662,23.52875915941968,13.434586477754692
0.356,24.91130666462982,35.30487493540079,30.929995980484023,25.36523816957788,39.10888157669888,5.602188228433761,24.48541147718538,12.208130103999565
0.36,24.048631542306225,34.63628331859377,31.550178911281478,23.878132999790523,39.23700282930133,5.556641223703082,23.321013759554035,9.77247378781658
0.364,21.102946944164955,31.629406308902844,30.678964816993243,20.195438250949564,37.44335095666281,4.3541206796930965,20.47182206083994,6.75227154315462
0.368,16.855489226239797,27.482432718782093,28.817116856743837,15.113778965987649,34.29720646901535,2.512316289675937,17.021534945093663,3.9991032298651135
0.372,12.52390449505856,23.65089598852262,26.578033387977143,9.986050612460076,30.63883363810305,0.7697126612811189,14.173995678224856,2.182744032073515
0.376,9.2349036754988,21.16075462882793,24.35921914710866,6.160782264867976,27.181419168723664,-0.33365718202276184,12.707898644041961,1.5447389185510474
0.38,7.602421024968635,20.266675936628417,22.257495454905666,4.482931004218472,24.296819225085528,-0.6945327710193396,12.695975163571575,1.921678233682087
0.384,7.590603670120686,20.565702190969432,20.23111646385496,5.0761910803214505,22.058510125177804,-0.578853711911961,13.595104562788265,2.958652143327299
0.388,8.679658954834622,21.409651110953632,18.335856526229577,7.461834188916782,20.445369128212633,-0.33915453183180944,14.626482750297555,4.358262374590822
0.392,10.190394853238104,22.295032396717716,16.807878214840912,10.870610343040198,19.486070794117722,-0.12816146216891866,15.208917120296974,5.997540019533972
0.396,11.56417601112139,23.005438909929808,15.911894546362532,14.534839651239054,19.21638532108625,0.19642237260177353,15.205579120603943,7.85581916283445
0.4,12.473458908395287,23.51418531908962,15.690562116838237,17.82378392783812,19.516320261378723,0.9125770958862631,14.878733718169997,9.832436894160992
0.404,12.766581713863388,23.780002178649966,15.796957240047732,20.22356466808128,19.9722939510674,2.1385198303958077,14.611075221190276,11.60595280305597
0.40800000000000003,12.361209679803096,23.615508314087037,15.561381850972566,21.28171386118447,19.91792701353984,3.6299000185053956,14.577331066110673,12.66874829056178
0.41200000000000003,11.214594323372694,22.734644977856647,14.294987761934749,20.658474655077498,18.69178829366308,4.836583041520953,14.588218217039639,12.55748936949476
0.41600000000000004,9.430140640560921,20.964676547202544,11.688068655811094,18.330405883855292,16.019894397756843,5.2162195551850346,14.20577960405194,11.151073963668296
0.42,7.415802990512475,18.508929247395145,8.112082273940587,14.837062187088122,12.338450849910032,4.6100661540758665,13.062763007498006,8.844928214071842
0.424,5.922675914419187,16.048830074946977,4.608568988989191,11.330762843123921,8.802114873590199,3.4195749010341387,11.175070444842504,6.4479456092808505
0.428,5.82286741582584,14.538784407891512,2.4961782380155455,9.245564543268529,6.8702772329407935,2.434250086213524,9.02595080519859,4.804156089508979
0.432,7.641865049227363,14.723503870565764,2.7346956382750705,9.62898251952447,7.595667729333741,2.3741216984162747,7.336129162109728,4.3138430108379
0.436,11.099506946519796,16.64196794700456,5.378548292099367,12.46252567065926,10.97946812982616,3.415259983705255,6.645748574047047,4.625440674801212
0.44,15.009143822714577,19.463469826611572,9.4587116743337,16.427720806038224,15.80828493302647,4.982400937715283,6.9717494057638305,4.710349940318338
0.444,17.689356638353047,21.802869316695023,13.390037170465803,19.363147536334736,20.12625603301592,5.979491717048859,7.75161078900328,3.3430425627057048
0.448,17.732946815871856,22.36972610082671,15.699792994359314,19.26351826871496,22.124199023843175,5.361482615621753,8.13576179299298,-0.22844962841782035
0.452,14.740029569134094,20.596795531239877,15.686679986615445,15.320021066288746,20.972009977090806,2.727892807418357,7.464287033194751,-5.779798254175603
0.456,9.60026007526335,16.92868108727248,13.687783023933662,8.44366310926489,17.17170253268705,-1.3894557315984457,5.652425400395941,-12.049393122698348
0.46,4.1383658979434585,12.634640895631946,10.841764116291415,0.9497354867930881,12.26687189673919,-5.726513722416257,3.241130824682159,-17.212215609870782
0.464,0.30179466053164106,9.24862041530423,8.501379183303925,-4.467199327513526,8.07091601101115,-8.886328546220739,1.086847324667815,-19.671813386651138
0.468,-0.6964307907187504,7.908295940504104,7.61096457800636,-5.954893819666722,5.822545598766851,-9.992410879795443,-0.10973259589786721,-18.762310179807628
0.47200000000000003,1.1545819655625564,8.897981414984088,8.34229213855997,-3.307363328072597,5.686280978340619,-9.050008956573492,-0.16312403747542703,-15.008008255608729
0.47600000000000003,4.835866745346721,11.610745142123733,10.131384598331806,2.0594923054147785,6.82031554349544,-6.83303055839815,0.5528265225186715,-9.817260478794196
0.48,8.940494144897002,14.917025303658875,12.054652733597095,7.895069348192237,7.938669914378124,-4.4043802753312775,1.3824983122633512,-4.792549550749754
0.484,12.37630728392196,17.705975249621588,13.29429932061521,12.198172158581428,8.016061480826693,-2.5795461158318176,1.7997208567489906,-1.0328985916230522
0.488,14.733151380579102,19.29879355823141,13.418857267705562,14.001021081861381,6.724489392187934,-1.626440405174435,1.6768726469902049,1.208656091784178
0.492,16.144644760081746,19.526591396977665,12.357135590973712,13.491635256515337,4.391694349012141,-1.3454939599055251,1.257153384635103,2.3876573577499585
0.496,16.83043824890683,18.522653642473756,10.1849338148902,11.531244211976173,1.5956888374604432,-1.417971974909051,0.8736478790401634,3.1825002025725553
0.5,16.730970405232483,16.477828332143076,6.971180969123338,8.982642228653276,-1.2584018143651292,-1.7275476750055532,0.6429130728431574,3.9856636042150058
0.504,15.530268728290821,13.564901929492407,2.82854023642858,6.304522386391909,-4.077900067513383,-2.436089331587482,0.36619611456717394,4.690026001156184
0.508,13.064652146313392,10.071624398604854,-1.875080450047676,3.6133482039142564,-6.878113868300147,-3.7692441548088027,-0.29960794284488657,4.8612506322742775
0.512,9.758758299477677,6.560584486672269,-6.359959412711305,1.0275361727115069,-9.45098642910989,-5.683403379657648,-1.5161519055727695,4.131848262635685
0.516,6.725176284462123,3.87617359454714,-9.527642736892858,-1.043069307164842,-11.18485424722644,-7.680710337696837,-3.010721771554472,2.550977164688902
0.52,5.350850724217935,2.9125304438696276,-10.332039840889706,-1.9417766468629907,-11.204203449293686,-8.95418906268651,-4.103178427637658,0.6485926021914565
0.524,6.5500170819841514,4.2053862978152665,-8.273927971506282,-1.156616243406006,-8.801803059054237,-8.81582541726948,-4.0303309435730625,-0.8393009020862792
0.528,10.12465414477083,7.566716392706326,-3.7449358236393664,1.2128493870295642,-3.917982192536101,-7.149536796780467,-2.382951314854381,-1.383960922613369
0.532,14.664224715000728,11.990774310908705,1.9975428622523168,4.274848418176816,2.626767473190398,-4.576377705087452,0.6146775546530989,-0.9460183183484787
0.536,18.11610004181341,15.958962190634793,7.272617215152309,6.6549646299808956,9.327971402582762,-2.1965494535061225,4.170788563112183,0.044552654861945484
0.54,18.788581767585924,18.08359707599675,10.666606818076616,7.194330097004695,14.585478923916867,-1.0203045029320492,7.2987473263322045,0.9943062325132814
0.544,16.233449903615224,17.76356870547147,11.60755587263725,5.625720063199196,17.369499139873938,-1.418133227217595,9.27453528190199,1.5107146882387497
0.548,11.473404357138406,15.477908369989223,10.511763781221816,2.7851617354260725,17.58816259854609,-2.9328491021981336,9.91703001504493,1.5907133504504145
0.552,6.4425339981187335,12.529212976676718,8.42756336872037,0.1958996193409348,15.953007013612023,-4.571534777813895,9.53876958844171,1.530424007237798
0.556,2.9522994473767312,10.354157404975354,6.391119307443432,-0.7623440511420085,13.437553148458733,-5.410695774112128,8.637334156765064,1.6261108666308246
0.56,1.7846148566079592,9.799943908604519,4.899939879208546,0.3977202968860638,10.692325759652817,-5.156139000226403,7.558323593859768,1.9045913670704522
0.5640000000000001,2.4120184397755793,10.748742075684845,3.796871758420707,3.037724463776158,7.763836234228506,-4.309728948860766,6.3582433025571845,2.0862628554164075
0.5680000000000001,3.4662173023582454,12.269677108910969,2.5782503409479887,5.803394560806964,4.2618174239647715,-3.8303938359053973,4.944147452555626,1.8157035854635524
0.5720000000000001,3.6245204352394467,13.16554279628997,0.8663001825403853,7.40658010117636,-0.185142108572677,-4.4896367281151015,3.3489354009104773,0.9991934579422832
0.5760000000000001,2.3779564146420853,12.594997843536362,-1.2742531678491105,7.306399912682991,-5.499797383021246,-6.322029481452546,1.9069571081004142,-0.0002937637952982186
0.58,0.25896203651132055,10.459770347085055,-3.3566170315129966,5.9132388781158625,-11.012655325472451,-8.511324819833135,1.1800793698671441,-0.4814273978520305
0.584,-1.5585476988132996,7.379000040714686,-4.817053999269319,4.230284684811068,-15.719453638100276,-9.810296780526869,1.6357824624619752,0.18852468186969418
0.588,-2.0075263873452514,4.313930289951713,-5.423547052360163,3.1934829307865584,-18.773221181749477,-9.262216344083072,3.288902479979697,2.1272166802320953
0.592,-0.7656256384744893,2.0756471246490946,-5.466259251798306,3.119848643520072,-19.917022840335903,-6.787057034759755,5.555567758514144,4.750087630594635
0.596,1.588294204512863,0.9898774710312637,-5.589204905924817,3.5912944607014197,-19.592841194019343,-3.2759594558044682,7.45245301207774,6.985215013422476
0.6,3.949900095096382,0.899967203057713,-6.334885031531826,3.816803900462901,-18.63033185269967,-0.1322978785426585,8.072728069759933,7.806851082808635
0.604,5.3237166443225306,1.4327409859304225,-7.700376605242809,3.21138891744954,-17.704187105852952,1.476840166025795,7.076815872349471,6.800863050015778
0.608,5.324701848826749,2.303574579401811,-9.021345847578914,1.8102821168436094,-16.901056481932187,1.2279551920651102,4.9003904410808445,4.420051415231228
0.612,4.280078650511541,3.4457544936468594,-9.303732193525661,0.2601133923736825,-15.682532944171271,-0.2351901634101523,2.537955598938197,1.767186822386975
0.616,2.9060498272873474,4.900730616159763,-7.821613977111724,-0.5926910262097635,-13.270020829714326,-1.7263617114067529,1.0284833274643006,0.01825699203300246
0.62,1.8500367607264252,6.628172934620011,-4.602157650135268,-0.20870249043264266,-9.194616318709336,-2.219894547907643,0.9333458595172033,-0.18891208303921303
0.624,1.3775453128216668,8.400303517320935,-0.49728778194116785,1.3571927129053165,-3.6842294167156524,-1.4208027182853584,2.083315886800392,0.947066610480988
0.628,1.3693928682386058,9.880515414903243,3.2158896477629924,3.5468027832729376,2.335321735250318,0.12432989326771349,3.7362505967421384,2.5594266139048614
0.632,1.5405539778935236,10.803153624331117,5.452879870521201,5.644628127694887,7.59365791408527,1.4085240179438188,5.022978436032872,3.617657346354008
0.636,1.6840298571172525,11.122991631982927,5.81409940542278,7.1505710200134445,11.000459091809716,1.5875169050236764,5.407952143317289,3.4913768190526753
0.64,1.7614204983018453,11.027801545958937,4.691680098295706,7.9525531784527175,12.069735088646325,0.47056242145276883,4.92000006090052,2.24538531200983
0.644,1.8059224322253158,10.794491894053749,2.9529262347830354,8.220956971565442,11.031471406493097,-1.3995155299462567,4.040351456516873,0.524061216670134
0.648,1.7552146880261716,10.592560009712997,1.4244194566639408,8.155545777135671,8.624949772166588,-3.093638364617618,3.355291307641096,-0.8670027452060367
0.652,1.3600062784765896,10.352160479410145,0.47317403085207843,7.778111491175537,5.7047406189370236,-3.840127256958567,3.1850986952307494,-1.419781390519347
0.656,0.27295108992314,9.788202833866762,-0.09796201909261981,6.91398472464175,2.8701473538185382,-3.4259583307195953,3.403732067930491,-1.1538174894571966
0.66,-1.723570119514875,8.589923810969367,-0.8009427374015559,5.364360919518504,0.3098716477714447,-2.2424177930040514,3.5403616289546562,-0.5152106645521144
0.664,-4.494189210648301,6.658501142439945,-2.051743812157497,3.1367045186390214,-2.105197840046742,-0.9922994540920627,3.0835450066622343,-0.033155898124960004
0.668,-7.492769766487299,4.225639598458088,-3.8840484945568505,0.5563181572332496,-4.594628294377969,-0.25604365462413625,1.7919274679072714,0.03870277728788096
0.672,-9.965232089282267,1.7438721279743845,-5.970315207843328,-1.85144228081856,-7.27562793790338,-0.19965480243376987,-0.1815866802852497,-0.13391177416360733
0.676,-11.288373211082217,-0.36561539288658196,-7.8930182376036555,-3.612445759343018,-10.07835855336333,-0.5727870084117512,-2.39440206112954,-0.0954304986880743
0.68,-11.235692285706477,-1.9110784687952105,-9.431285127880642,-4.503910644060852,-12.740146243898266,-0.9402996122580589,-4.366794929905268,0.6014183246081757
0.684,-10.029268439014004,-2.947263054950895,-10.650318905742381,-4.578985427351313,-14.84451105213435,-0.9618119025294618,-5.830075972304144,2.101950731301258
0.6880000000000001,-8.16961997712599,-3.614857676650047,-11.734004670703598,-4.012820776737044,-15.88266318462712,-0.5463424583365395,-6.818873052401045,4.128049707634659
0.6920000000000001,-6.172621432402366,-3.9378963925078665,-12.68946773908226,-2.908970168173937,-15.353865355956202,0.18940234122010224,-7.569368078708862,6.081030333224589
0.6960000000000001,-4.367256273379326,-3.740110428568073,-13.161923392284905,-1.2253302296132915,-12.926500380124935,1.0847976258829704,-8.303410857726703,7.288246030919936
0.7000000000000001,-2.8503351380097683,-2.7369323237307412,-12.503400333751017,1.1324460738604785,-8.600162021415372,2.0820385882659593,-9.02416739469902,7.2802812207041825
0.704,-1.586662606655409,-0.756915497541172,-10.095002313880514,4.115886245449246,-2.8073887645496143,3.230362013568424,-9.447334424499104,5.964655185579204
0.708,-0.5463153961530338,2.0520465456559123,-5.746466241364942,7.389838203422528,3.6271639369165314,4.571946635570953,-9.12657004244511,3.6427111620992036
0.712,0.20385742151677277,5.16330726242461,0.05685615916422648,10.35972180401427,9.683162423525289,6.018242101069291,-7.707962024917947,0.8971775268646525
0.716,0.5101052643058779,7.81526236752768,6.225299527474306,12.379734096038078,14.437126534974254,7.323568471566659,-5.178397882913032,-1.605278160421335
0.72,0.239152026203044,9.31837104029546,11.455068846865629,13.043212617270456,17.348403973554696,8.196215983710317,-1.9721448579163052,-3.320388788279729
0.724,-0.6241574339779845,9.357321467235238,14.753251285195802,12.367893152328406,18.395424022518,8.46930073286751,1.1439526620558809,-3.993592287225397
0.728,-1.9541383432643329,8.121803181905818,15.818070436079267,10.765543782676787,17.986396336943756,8.197485019643864,3.356001127080958,-3.747185833907679
0.732,-3.537173957306152,6.198171349287804,15.07977243471015,8.81600455332125,16.687984978047382,7.60354133187775,4.123662886251054,-3.0376308331645987
0.736,-5.176784919915292,4.263352141694668,13.384499154545267,6.965261015925421,14.904726996356658,6.904170906602303,3.372714686749987,-2.4962204637134846
0.74,-6.76182260270491,2.769327837700075,11.526162842650706,5.333802008439989,12.702896566739753,6.143649297358024,1.474164352949174,-2.6945688970255333
0.744,-8.25844268858225,1.7756342130013536,9.87519529193321,3.738925419917564,9.864223430332117,5.154091084648712,-0.9703382220154708,-3.9177039813516785
0.748,-9.667068859038693,0.9840364923420566,8.287298774943679,1.8826295064781107,6.118133845209002,3.687273878389874,-3.413992677685769,-6.0426465462102215
0.752,-10.994294626305475,-0.07760475923601007,6.301948710352917,-0.43043271791168536,1.40130642457342,1.6469997378243306,-5.564396746412967,-8.588439205802729
0.756,-12.245320717578466,-1.817540691300053,3.5017438941536057,-3.155179177083596,-3.999596163297099,-0.754203413645314,-7.404150370630305,-10.91975476418736
0.76,-13.437328938809173,-4.385435000758889,-0.1638631208749075,-6.008491861700804,-9.470745670744293,-3.043640181575256,-9.039142488543916,-12.506846454368088
0.764,-14.583396088548227,-7.584599999423915,-4.256877052728555,-8.57257450137331,-14.231703429814388,-4.726046190149077,-10.506222894648317,-13.125054695282188
0.768,-15.618504003382839,-10.895560320041909,-7.968475997148914,-10.405893774475999,-17.523142079086597,-5.551948003752841,-11.676791675467598,-12.880021864625405
0.772,-16.300422986656088,-13.609217242626357,-10.42343499096728,-11.111912761389306,-18.764713838283058,-5.64490864570439,-12.302571768096186,-12.06307950076041
0.776,-16.18710252895022,-15.043905327626874,-11.020362245844126,-10.3826255540572,-17.66295039606854,-5.392722404723941,-12.17546124926298,-10.93721395614807
0.78,-14.733072036283488,-14.757255774374471,-9.636426523665193,-8.044686224369059,-14.256498638032383,-5.136804094307877,-11.266824333047794,-9.579514645460335
0.784,-11.523449385342246,-12.70539591423227,-6.64446246767551,-4.150758229775988,-8.943738347430099,-4.880943612055717,-9.758580980024021,-7.8923426668436605
0.788,-6.581096958978776,-9.304174030910474,-2.752420489710289,0.9077422432443427,-2.4883926183674134,-4.231828813629477,-7.944453621712,-5.77523483508628
0.792,-0.5833566579967169,-5.363199727866572,1.2274638954243073,6.349415330534839,4.03283098412038,-2.6430461725468604,-6.091751721057221,-3.346196450742468
0.796,5.172286529266216,-1.8933780785487215,4.573163504517765,11.103499581167625,9.393703882996704,0.1568089813026745,-4.38019649467185,-1.0611788746712136
0.8,9.128018622043385,0.19373015738443655,6.789645412396737,14.106616101148973,12.526836527769717,3.8187494742389845,-2.94879973745185,0.38363077642679855
0.804,10.03464834111952,0.3914774496502105,7.681515489030346,14.692692482095083,12.886214047608405,7.354859517505474,-2.0014793597138123,0.3468079122950485
0.808,7.495400332890256,-1.1989016749289476,7.378449956628174,12.89530343740887,10.705839998957572,9.527234416013698,-1.8281280093749501,-1.3973623889246483
0.812,2.2477837072948432,-3.859916367534879,6.312310804914205,9.512133569724313,6.999693258867808,9.468253886500975,-2.6520471417261433,-4.417851509402112
0.8160000000000001,-4.014584149955908,-6.495407897508301,5.106312673538696,5.841695826839725,3.226225991486615,7.19343593295639,-4.368896016628128,-7.672156830856011
0.8200000000000001,-9.234957904992655,-8.01595440933636,4.393228570598524,3.193355318542274,0.7402843998943922,3.7040304327249487,-6.363512047332961,-9.861796284283628
0.8240000000000001,-11.785706418178279,-7.7465564890171095,4.580339013433274,2.364208689375346,0.2445285380937321,0.5561401605465335,-7.624943302382519,-9.98179377316933
0.8280000000000001,-11.124250584747756,-5.6999828439678595,5.63722255852565,3.307335240069449,1.4814652975801437,-0.9105480058051398,-7.222691930623682,-7.836083124305674
0.8320000000000001,-8.033973429483694,-2.620380131002946,7.0061128061257705,5.129149546381029,3.313178044169092,-0.2926381854399551,-4.951842922040953,-4.266998379006509
0.836,-4.321320396894976,0.23428531279876097,7.708186929358476,6.41949930101697,4.15614359633426,1.5975831847757718,-1.7736558446036383,-0.9608082569048975
0.84,-2.0605250885552095,1.5326959046518027,6.670436031857605,5.8013389585493655,2.61369276248206,3.076389896370756,0.30766465308551005,0.14089201500507897
0.844,-2.6972122208638325,0.3877916009664659,3.1872827380973945,2.4988807798575294,-1.9390303293819215,2.4260632830433906,-0.9660451570264854,-2.371136070441139
0.848,-6.375377365252916,-3.2202590063168373,-2.6584561263185833,-3.2743346849690056,-9.038192912482288,-1.1835964028254011,-6.946347306079929,-8.695088876946897
0.852,-11.79133298701231,-8.315359731637301,-9.835708237594645,-10.255713245225706,-17.213645044032006,-7.1505833512339905,-17.11916766770696,-17.541016286793933
0.856,-16.69203455814693,-13.205976562324565,-16.606810892829344,-16.476068491677154,-24.461679519055537,-13.57900124902676,-28.932447706374717,-26.425415934049738
0.86,-18.806242027554504,-16.077966348160857,-21.095357654038025,-19.890804242404954,-28.900277237845415,-18.062655957754487,-38.60748591432815,-32.46214828394989
0.864,-16.822088055539894,-15.686314752927416,-21.954891186523554,-19.096163707345,-29.365972232364157,-18.7450254001252,-42.636878127440696,-33.37324118892104
0.868,-10.978679472143313,-11.863271993222838,-18.856038562980814,-13.87468281250841,-25.73824452331013,-15.140644391480578,-39.271515279893606,-28.332263096088127
0.872,-2.992514073950133,-5.622318625671056,-12.592162567772561,-5.345316704345464,-18.89612889899948,-8.332807148000597,-29.277754250106796,-18.288987257666918
0.876,4.636596367054807,1.1975831297211244,-4.767816565209699,4.363926381070144,-10.360138417564514,-0.4597684208893611,-15.585134906437304,-5.637810351921075
0.88,9.653445373177703,6.630579893290928,2.7955244960344032,12.832845672282474,-1.7669567540295645,6.249461491311877,-1.9983683003067085,6.639159496015964
0.884,10.956484854472848,9.328369826684366,8.673745275716357,18.186802123359087,5.607117525826993,10.405265200625195,8.371367241904977,15.995971612786605
0.888,8.944602762692483,9.0156075176086,12.211468266450623,19.695039318697127,11.098753375079838,11.898731108236007,14.187997256069195,21.094522885490562
0.892,5.192313066973412,6.474509282008768,13.529333524001032,17.89725984373058,14.626314878173105,11.679044423013863,16.028597137754048,22.037293034575328
0.896,1.6162722141411905,3.0671214059604495,13.217284550592865,14.198220563084135,16.426895069098293,11.03609446988088,15.630719080371193,20.007398361069704
0.9,-0.44419877813163566,0.07113177098423762,11.936584197995444,10.15438048371908,16.759725006101462,10.80871285197918,14.757635648775874,16.565725842105394
0.904,-0.7518391774154907,-1.8396346506572172,10.13629923314727,6.821991620740107,15.747245488552778,10.96774957913317,14.325467249775045,12.958994975293876
0.908,-0.0788401369775329,-2.73799242122152,8.008249603436525,4.471864601603556,13.431735027572245,10.789720884913095,14.195267547504045,9.751314783321732
0.912,0.40439298500257337,-3.1949534641059927,5.632125592066814,2.769827418656746,9.973149223543544,9.479964470647474,13.62488884548668,6.896106679095965
0.916,-0.10478923309585753,-3.8299505121298694,3.1528602620354604,1.2586400013105958,5.817573165581109,6.855826150508165,11.990976024716247,4.104664303273466
0.92,-1.5342019237215254,-4.897958656997673,0.8733177404947128,-0.1590285267342324,1.7121033931576903,3.659647731663199,9.309365548554183,1.2645029351651829
0.924,-2.983561289808506,-6.155491256862717,-0.8261346318660685,-1.0596130495367788,-1.5075755358569722,1.2755036365215346,6.256769112643951,-1.3704232637071527
0.928,-3.290744669468495,-7.049526274243135,-1.6806295159811953,-0.7613012832644017,-3.2581534989432157,0.9934402528181181,3.741528082813147,-3.3058223837198284
0.932,-1.7586904037223121,-7.082671068893546,-1.7166867209186876,1.166009803861698,-3.494810030187409,3.2377456584348465,2.3559884497962003,-4.142876147214679
0.936,1.3678291375796903,-6.151735937981982,-1.3001523385405562,4.458837629299069,-2.7805544348648255,7.211102668234162,2.0601778619849256,-3.8943540017296527
0.9400000000000001,4.933654319120365,-4.65879183977512,-1.0059879869278348,8.082971242078884,-2.063464005168612,11.180985684082543,2.2764403102731876,-3.0568749856122395
0.9440000000000001,7.40220654107236,-3.340640168527216,-1.3672573190362982,10.608325362512915,-2.2608612439615285,13.304111988028126,2.300090638798565,-2.3862435898383865
0.9480000000000001,7.614253681446371,-2.905667490798521,-2.629487317474627,10.868227478634708,-3.8450476042642663,12.553526300806425,1.752275422313005,-2.486183808363421
0.9520000000000001,5.369134474240354,-3.6720440624724233,-4.627641937034468,8.554167023391301,-6.626656374703089,9.236774835317192,0.7782279056127663,-3.4474684025667557
0.9560000000000001,1.517098239636539,-5.409808666776826,-6.848842786620708,4.408489432588794,-9.846613393343091,4.837355334949734,-0.10247665460917688,-4.7583803911225
0.96,-2.4631758617435935,-7.448135203027732,-8.633906798981798,-0.09447630243198546,-12.504065851022801,1.258255073672217,-0.3641087261512439,-5.545864713405535
0.964,-5.171655465417871,-8.984954086827202,-9.42637606471726,-3.422154978726894,-13.755213226981141,-0.1376362614462323,0.1770315516366736,-5.029445585909798
0.968,-5.9006933469224805,-9.439296940506665,-8.959214477380101,-4.664573655728077,-13.197616373905248,0.8290968308135689,1.2487504703135528,-2.956771358127071
0.972,-4.84148653398654,-8.675941665941195,-7.320544388334724,-3.8758141713069563,-10.94261266695662,3.140755313754198,2.2959150919061813,0.21164169953271994
0.976,-2.8468176310342415,-7.026965835801093,-4.8933115225117945,-1.9394222679418363,-7.49489722552687,5.179202491988235,2.808244139385806,3.4810572231835977
0.98,-0.9215204690062819,-5.1048382271893615,-2.2158200280230176,-0.053995368095911545,-3.535250458605219,5.589152178893983,2.604229901087365,5.770907753075107
0.984,0.28528406387999894,-3.500620320695134,0.1805837012259417,0.8748803990156375,0.28451617154428277,3.949091897620292,1.8971339341483144,6.404675518540898
0.988,0.7264575559790956,-2.5212844601587676,1.9019420821243784,0.6150553996465078,3.469353387527917,0.917389217660002,1.1227097015053005,5.388222418679561
0.992,0.8222829645208094,-2.109099080989381,2.7502986100062117,-0.421233653433319,5.7176805700866,-2.174899374170309,0.6572035706012684,3.3574788904361412
0.996,1.069308050380414,-1.9703157566082155,2.7158377782117213,-1.5509127077941685,6.9015696903830985,-4.030946225597745,0.5994756539289483,1.230340017549679
1.0,1.6694521231765975,-1.8178469862303928,1.9245270395924763,-2.283772349187302,7.039451912987261,-4.008951597382293,0.7296966523435913,-0.24847042792976026
1.004,2.3793750689878834,-1.5927744153614185,0.5671482603279401,-2.6133321969457484,6.264506807553175,-2.35598486764502,0.6523988191438548,-0.8422702813545584
1.008,2.676290941017214,-1.5112708259068768,-1.141663386590153,-2.961620826456965,4.793526343933877,0.010341661425627535,0.04210896202903314,-0.8589890145924528
1.012,2.1297531310460727,-1.9041078743998696,-2.9672950145052255,-3.830974098153092,2.8878252040690313,2.011347198522799,-1.1682243347086114,-0.8922872263851787
1.016,0.7234392821824258,-2.9637148216135074,-4.663799535271437,-5.416408056498312,0.7883169439473932,2.9122694860254796,-2.7648795320335466,-1.440245705635789
1.02,-1.0680027834712291,-4.548375727053781,-5.995352445154708,-7.422556143483234,-1.341484393142764,2.5746595743435137,-4.372453399074175,-2.611926948628934
1.024,-2.5142187670312524,-6.196829927227441,-6.782474626868407,-9.212890069433115,-3.4356971926334836,1.3881130537474746,-5.645868128428219,-4.072055241180351
1.028,-3.0594261728781476,-7.372458096535411,-6.976865636103639,-10.211412912325386,-5.503469615993936,-0.03671794043702903,-6.436107738897817,-5.251949196878741
1.032,-2.689868949144966,-7.80929260115704,-6.731208497961461,-10.315358754819044,-7.583255892179295,-1.2199896615384205,-6.838606359101732,-5.697678913888012
1.036,-2.0092128543210492,-7.745812383743669,-6.403712559967744,-10.045208282380372,-9.699381250055353,-2.0058343687696834,-7.1159320168314935,-5.342619272126285
1.04,-1.9384897394320433,-7.858589136098999,-6.452100408718252,-10.30245725191594,-11.828300308809276,-2.5309677359136913,-7.5518236249429265,-4.546637715497127
1.044,-3.1793433714847197,-8.883241105989555,-7.2402077392391675,-11.83993094322068,-13.883888965453252,-3.0351795361475524,-8.314384568015157,-3.891171988494989
1.048,-5.713113187267027,-11.089018062124751,-8.820538853196012,-14.715680119070385,-15.696450367211582,-3.642478919361565,-9.388189373405567,-3.8360849510913795
1.052,-8.655855677429827,-13.938942767948902,-10.82108224314743,-18.0730572100299,-16.997004204233008,-4.232673574389537,-10.600889736182125,-4.436814219363441
1.056,-10.604610078378073,-16.20099424557816,-12.540374861079272,-20.428870208540502,-17.452868430229955,-4.476737329935986,-11.721451464614802,-5.303089350934897
1.06,-10.311137027067389,-16.492580392322907,-13.214265647519369,-20.338843450086642,-16.746703789230423,-4.001682039384832,-12.542398787667935,-5.8092258375604615
1.064,-7.357758043010108,-14.0185762669405,-12.356178321350626,-17.130399820497132,-14.703576399849908,-2.5975771356015684,-12.929878306803403,-5.4537681984047595
1.068,-2.4660162276295523,-9.095826517602518,-10.013700422867032,-11.31081175624331,-11.41976804660817,-0.351206133341293,-12.835169413728181,-4.165678763565211
1.072,2.7431827167702068,-3.1536500691747733,-6.801933973046516,-4.4313764272023946,-7.336674493340979,2.340270112977123,-12.287554879156687,-2.403122053885454
1.076,6.454822529125977,1.8388044219027506,-3.6753432720936416,1.5382315837919123,-3.2005483169332365,4.890472080233849,-11.386023337891402,-0.9929010778951124
1.08,7.485294212985536,4.260950562029848,-1.5218918415123426,5.023400668139857,0.1370049100005417,6.7198262659653665,-10.302037707332147,-0.7737382534019162
1.084,5.794537578054815,3.5685461241723715,-0.7875230170102441,5.439021196189515,2.0006091773148,7.441941063646027,-9.28747766579454,-2.226286664233612
1.088,2.439180204664126,0.4996801537192823,-1.2983008727549077,3.301842286025021,2.154983831096615,6.970515657662872,-8.635669790727661,-5.251987231536532
1.092,-0.9795083325400356,-3.3320880649259834,-2.35778589467418,-0.13892633065552218,0.932237027385554,5.523654443518808,-8.580886807849765,-9.181868146461056
1.096,-3.109127102961793,-6.259028465476376,-3.098578416816281,-3.541582556629237,-0.8827596733281098,3.532394304432273,-9.177929081764887,-13.00629419432289
1.1,-3.4693268675325726,-7.352008937770279,-2.9156276036258078,-6.041811463738213,-2.375981719692163,1.493512220096818,-10.223273574845734,-15.72087166032179
1.104,-2.5908077665155815,-6.77503205880862,-1.765773058581999,-7.484304966431409,-2.899195009678351,-0.16774467347386235,-11.275238057223305,-16.650206379138126
1.108,-1.6296940651791374,-5.5349735349232105,-0.1796445656962078,-8.259575564322859,-2.3422164957453333,-1.1967019404301027,-11.789610179625925,-15.638707506423088
1.112,-1.7044155991766274,-4.819802342874937,1.009776842820429,-8.90598274031754,-1.1522475644821952,-1.5509065853930224,-11.328127405628038,-13.057277274613625
1.116,-3.3086083402281474,-5.32315023560659,1.0764658249859167,-9.733840157726263,-0.10293137135272445,-1.3926686485028767,-9.756432646717258,-9.65096149599185
1.12,-6.093302228536686,-6.915033940920239,-0.24921298924277835,-10.674212871032523,0.08333706955318121,-1.0488087062130944,-7.33919828036187,-6.295700237127221
1.124,-9.114103797450298,-8.815249899554146,-2.659509744684101,-11.405894119961431,-0.9274708121404274,-0.9279812918803145,-4.66704693498923,-3.753652226635495
1.1280000000000001,-11.334130724040733,-10.091411695419083,-5.40743163232014,-11.618499254593189,-2.9269755671436997,-1.4012471094638386,-2.435258066611368,-2.4890082902784343
1.1320000000000001,-12.101968707376273,-10.175057303625636,-7.637513170368948,-11.235913497281672,-5.265372257413901,-2.6639309909305666,-1.1716517797749475,-2.593787196330595
1.1360000000000001,-11.40021340205476,-9.121472419023348,-8.7435416202743,-10.483416239967482,-7.15411774030531,-4.634772770817108,-1.0372966786744655,-3.8302459885017015
1.1400000000000001,-9.749094824597705,-7.473356068140674,-8.572201950618819,-9.760659298905011,-7.9927894075494805,-6.926405064321443,-1.7811820389288187,-5.741976747336594
1.1440000000000001,-7.886491704483888,-5.875551115430881,-7.40969638891147,-9.424272498502887,-7.576296277871052,-8.941062359099305,-2.868338159805262,-7.7938562801646185
1.1480000000000001,-6.42708002562631,-4.687672301468865,-5.761919337128802,-9.608004921269185,-6.08959663761334,-10.09163912888107,-3.698283939542762,-9.497800769429887
1.1520000000000001,-5.639730557243183,-3.803771096363107,-4.04983621787278,-10.15142349167445,-3.9115078432089376,-10.058083400436772,-3.813092046395468,-10.479346196506413
1.156,-5.433642066619086,-2.7918099311027618,-2.4112742850543327,-10.672062082738194,-1.383291849530906,-8.966967091406332,-3.0323044507917984,-10.49758895184641
1.16,-5.492968050418767,-1.2206251529423753,-0.6841354119119387,-10.716659185797198,1.3478327324651218,-7.380469619688483,-1.4588036238819768,-9.42511242906312
1.164,-5.452158920437796,1.0273650880399146,1.4176873055794204,-9.922425600165298,4.323918748620599,-6.07530996918922,0.6093471984404459,-7.23625990702385
1.168,-5.0477572103218336,3.633196989148928,4.032277917375268,-8.149452786127767,7.6233352343119805,-5.698291649640851,2.7928189618232864,-4.035622729448733
1.172,-4.201250245097526,5.974841077928886,6.953800591235449,-5.549986028044259,11.170149627475439,-6.4522866439601785,4.742093915062469,-0.09609290646585578
1.176,-3.0500647458652566,7.402322720043685,9.606102286635632,-2.571181220703238,14.603742061331559,-7.992824655478216,6.201029229511732,4.120155635505398
1.18,-1.9252298098945175,7.510799613474774,11.227428143043198,0.12612177014671033,17.300183014818685,-9.594594210206196,7.026704756355684,8.001925041599861
1.184,-1.2706089299895211,6.283029540195912,11.192001936104589,1.840056927722344,18.553735437217256,-10.508301312380354,7.186251272834852,10.90393026941274
1.188,-1.4764629384694672,4.082368221925208,9.325820975563602,2.082125915542747,17.85760774193841,-10.334744380495067,6.744496907514986,12.318143284990583
1.192,-2.675343425299161,1.5284858391055423,6.055643705021339,0.819204984458338,15.158394296320694,-9.224314299690377,5.838717901452583,12.041538436798874
1.196,-4.602701404024174,-0.6946260390300267,2.2935424359975514,-1.4259708406461868,10.94956088431718,-7.782621337131786,4.6262775919958585,10.26379764893045
1.2,-6.60150777463241,-2.0141589276004197,-0.9008266374512459,-3.688034249908924,6.161963002151424,-6.7213219458426465,3.237629767307226,7.5503121922911305
1.204,-7.858769292005491,-2.123970380940591,-2.746558956680019,-4.912112742008503,1.8675013315073556,-6.4603108451874505,1.7455643916646295,4.698895851549423
1.208,-7.766259130997241,-1.070555700085606,-3.0489890215121704,-4.404446669585013,-1.0813680322485197,-6.899404050524936,0.16567373822181253,2.504778314637406
1.212,-6.226730656461768,0.7568961027091063,-2.2336896815586442,-2.1608584308978607,-2.3209401143358264,-7.471650913551457,-1.5128968074504883,1.5194128875873503
1.216,-3.737307228712325,2.7308954379564057,-1.1038607586347098,1.104171412631331,-2.0546136205584844,-7.461167222527365,-3.25110761034648,1.8859082547041908
1.22,-1.167634661449938,4.192076992997045,-0.42618717279674456,4.274965446484202,-0.8916647793894299,-6.40888212507889,-4.896008738181081,3.3098978366615484
1.224,0.6962407619894293,4.705727750209007,-0.5467744297052377,6.361924846669353,0.48312200201462474,-4.374758152142931,-6.173899938407885,5.182912449229661
1.228,1.5734548785862899,4.2732705211933535,-1.216042142751121,6.967389500969148,1.663896814975942,-1.919263044863328,-6.744202590639361,6.82014912977138
1.232,1.8159256545586686,3.3736494512527315,-1.7147188202079633,6.431811411326635,2.717594160164481,0.16626867860395578,-6.311404636053339,7.71175613568812
1.236,2.142185366575177,2.7692720364252637,-1.231526220730757,5.569836924814808,4.1002621273587465,1.2474186171293695,-4.750515615798577,7.69412275558534
1.24,3.12123940674428,3.1402206207612835,0.682611485900452,5.141471187971547,6.321938350515666,1.1329256893013735,-2.1976101256123,6.961012188701716
1.244,4.709536804977688,4.7028496300044935,3.8143946742320622,5.3717675931684425,9.536437880311496,0.10831986559242068,0.9401495446509216,5.914648072498494
1.248,6.15353729474009,7.0339986165822665,7.305627352256124,5.812084250785119,13.303266580158834,-1.2627103735148921,4.06951993896746,4.938253538351091
1.252,6.377055035009562,9.230007483587087,10.005380494754718,5.645690535102403,16.690198452643017,-2.442027134968157,6.572737130520181,4.203411587455776
1.256,4.654911233996245,10.329207182714526,10.984886762507358,4.2642155863641165,18.687793011887152,-3.151813259721166,7.994527481578189,3.6135062446619486
1.26,1.1702566798694534,9.78788162968931,9.96302089218716,1.7556339255133935,18.727771120431953,-3.414608885634152,8.189271007716343,2.915269518904097
1.264,-2.892634896119489,7.762156709632109,7.446264511081608,-1.0011352475448803,17.021861448576146,-3.407680559605069,7.372680975654475,1.9126304019500822
1.268,-5.827157909118796,5.0478600375795395,4.520594617379629,-2.7221337093869806,14.513984388574045,-3.2527980220202153,6.053843778357077,0.6535457928284814
1.272,-6.238020376987151,2.6969892566985436,2.3824101194459217,-2.392651561385719,12.435029431998828,-2.893964088341818,4.859173822347657,-0.5286411270753888
1.276,-3.791281740546765,1.4982047032126502,1.8163920839651837,0.15248283363780502,11.674520649698934,-2.1336469064772245,4.298009549945164,-1.1593437637111492
1.28,0.5363425589657709,1.59746020365219,2.8547235679266123,4.07213705984941,12.307429110304383,-0.8061151183592301,4.554915111775699,-0.8867345948456204
1.284,4.887035272695357,2.467659387133608,4.77642538306327,7.904341138223572,13.551335756102617,1.0328084597495035,5.416497153417367,0.29350797682855045
1.288,7.42442957980893,3.237502887244318,6.444059107077919,10.285192070533412,14.19918323450429,3.042278728513338,6.369887185506741,1.9858236854452116
1.292,7.24239591177593,3.1993452134875042,6.832725333647431,10.609294540716292,13.309328891213227,4.714538630278184,6.850392728724728,3.5664043242522894
1.296,4.801894639902457,2.200863253510761,5.503794665276473,9.273158184840213,10.762972001172784,5.6147096194854385,6.5334010577080335,4.492345464217578
1.3,1.6659190068439784,0.7027801981930679,2.7964484639242073,7.379079520986124,7.3637396710551,5.6018371134778135,5.519331129016791,4.575994188457116
1.304,-0.3226711094703205,-0.5245318622364721,-0.34876501734652265,6.092468510237268,4.4167067284784025,4.890918349985441,4.310347189680215,4.064783341294969
1.308,0.020502896040852647,-0.8618459024783078,-2.819272704507057,6.039296894251493,3.0371817318882677,3.9257020062213996,3.5816035334091794,3.479633373743127
1.312,2.6545590562391226,-0.1866771135773888,-3.809826228361999,7.071586641508475,3.577153530304713,3.1383798837032373,3.8512251168904186,3.3025460461849434
1.316,6.391253352444437,1.0834464759718685,-3.1327751082390023,8.498043411434992,5.49063517685363,2.738533172532698,5.214791094134853,3.69605290940126
1.32,9.526849664156543,2.2602885069018157,-1.237146332935481,9.577870710222669,7.694388393333611,2.6433883694480755,7.2862322736245915,4.405226152615796
1.324,10.692884794601014,2.7988511818557527,1.0549628211992967,9.961841878788618,9.208835557611565,2.5816980164509005,9.392431295946153,4.896292347135386
1.328,9.480756325809125,2.60423579084636,2.9439999077067114,9.813796865741097,9.698062782448687,2.293119575764649,10.908023548459823,4.635604644443447
1.332,6.54596228252467,2.0585457453989875,3.984624581580647,9.576086977003797,9.60498052235198,1.7017524115472042,11.551354409715714,3.360387135608107
1.336,3.2059837689694177,1.7600077127963232,4.1992942510441935,9.579468203830402,9.815759753598286,0.9597882701327762,11.48588789051064,1.202595344337169
1.34,0.7768130099038899,2.1413211599028728,3.9475477967434927,9.77369435372475,11.064273802805474,0.3489980536051007,11.165558308408436,-1.3907969360061543
1.344,-0.016326184624631424,3.192888914057221,3.654356508222918,9.761329317502714,13.431433385460878,0.10497505371313309,11.036423960555112,-3.8674347302548995
1.348,0.7329677174839162,4.475046358202235,3.5845579988008467,9.111261529147669,16.252561021785368,0.28275559600660927,11.28424458221707,-5.772144366937937
1.352,2.3012328851782513,5.396833234841324,3.7752967186825117,7.719856885363697,18.465545331713656,0.7396026604710642,11.759404479898876,-6.858444833846079
1.356,3.7651461252626177,5.56241207846233,4.124863655401896,5.950361573059126,19.168408474559328,1.2007237480938784,12.11341519121197,-7.095310977629197
1.36,4.470166966247234,4.986923594182372,4.540707314316933,4.4598115067037725,18.064794872483617,1.3725678679220437,12.039103659299144,-6.622850032390488
1.364,4.316870793119961,4.058322484962446,5.027159684841536,3.825351633644459,15.561465895160836,1.0398008584998024,11.448341646693734,-5.700081155879161
1.368,3.746001333021013,3.2885857629571547,5.650741704461325,4.2086830977150385,12.502113026496772,0.09747567814520153,10.482223595954565,-4.665143292912035
1.372,3.49779483265047,3.027295599500576,6.417926989291118,5.288793912219262,9.72949685828462,-1.4454748851330805,9.360394338949845,-3.88882931626722
1.3760000000000001,4.280202660236682,3.310012181618731,7.165330052303034,6.509852123177552,7.737886120123221,-3.4523854141643824,8.193371107026906,-3.6675644515216845
1.3800000000000001,6.457766404293579,3.912305293129066,7.5641118781823025,7.445213329960097,6.581261539252409,-5.648318175753957,6.907976553085973,-4.0835695724599645
1.3840000000000001,9.871277784362974,4.5430430048782,7.26166158376418,8.027878506054549,6.0274308910657055,-7.642901394552609,5.3409228091804835,-4.90605712370234
1.3880000000000001,13.853809453047688,5.046188987936148,6.10313684576704,8.499084553986904,5.817741958858278,-9.010824911911186,3.43996364051236,-5.6175487692780735
1.3920000000000001,17.421916991195758,5.470667870261423,4.2935320173237415,9.110903863735075,5.8450408869903185,-9.43265573813369,1.4362865240000247,-5.606439518160187
1.3960000000000001,19.607837686245148,5.971271251692087,2.3722465511509654,9.814832744184969,6.142643674704232,-8.836114236286448,-0.16320787481890875,-4.460756724030944
1.4000000000000001,19.79859287022191,6.623688615307401,0.9866537106390751,10.170395080122034,6.7430867794573714,-7.44996320539758,-0.7835853449541901,-2.197830128150599
1.4040000000000001,17.982665101582825,7.299171827733517,0.5763432827234283,9.584187455160645,7.541136494920465,-5.711813230782354,-0.07032257844184642,0.7166509413291351
1.408,14.788002490136932,7.70480564367972,1.1456169069861062,7.745561762585567,8.286489852637715,-4.060430315534177,1.920520860943725,3.5953697130571527
1.412,11.244747494348303,7.5574233924044165,2.2463483790052123,4.947475991657484,8.709827527503876,-2.7253111054469628,4.730647155756742,5.872766396900261
1.416,8.368079462561582,6.76840708646796,3.1757660982702873,2.0560758037936466,8.676741359066,-1.6660545811246266,7.681605371502883,7.359651437589491
1.42,6.746683874178416,5.525254766564103,3.303186137886769,0.10598889592256455,8.266510001920324,-0.7003778330872592,10.130569230632318,8.266816001076222
1.424,6.290777779236123,4.190451978127385,2.3486815773394483,-0.280252092412411,7.701838644040436,0.2518034103741229,11.648153982334406,8.980761592652925
1.428,6.335089302237066,3.1227616293708707,0.5013860887638657,0.7436637291320949,7.209662522074723,0.9951219012509682,12.054509540934305,9.751600567273272
1.432,6.065304466485941,2.5434222314333965,-1.6624283200380887,2.3447248736483743,6.923527014808315,1.1059023652342148,11.365485188409366,10.515502794245549
1.436,5.019622219243502,2.5067287163519723,-3.4095170577829776,3.523070966522937,6.883471751822071,0.23062865740575944,9.752372847065999,10.98711859638206
1.44,3.3983290899923304,2.989975502467132,-4.107070588996976,3.7460355058083223,7.126579362953635,-1.548690998037273,7.575338367620134,10.962822355320895
1.444,1.9942210709841675,4.001432627590475,-3.422781167595531,3.297599137533325,7.76015486309916,-3.546245311948951,5.412654848994862,10.600140876602381
1.448,1.7507902372763056,5.602611566248015,-1.4169812060044933,3.0976495048744255,8.920788676733537,-4.676937046047897,3.9744859174570593,10.430238192882825
1.452,3.1630951888273557,7.794030387607563,1.4535455878703942,4.059287795873388,10.590164826861837,-4.0172615974133805,3.825069377464388,11.023989774554138
1.456,5.860834090386561,10.32340065884091,4.392728011284817,6.364994006647976,12.373133952909484,-1.431540072111602,4.978381317388994,12.49105237056392
1.46,8.630979752624626,12.568674525061397,6.3885616236557325,9.110965143803696,13.419685992254017,2.127890524743634,6.593727499999659,14.131316267590591
1.464,9.894785482752013,13.615715875743263,6.417062197951964,10.57570603365275,12.617461769888905,4.883849846530211,7.055155207301141,14.52384075440932
1.468,8.438918132299477,12.57485264967545,3.7365229497663677,9.040778629447232,9.051303232401551,5.025555465095749,4.538979432718406,12.11498589326402
1.472,4.0318185738524335,9.016993308669043,-1.7874198642821284,3.743422091123648,2.540204428528341,1.6462359158576874,-2.098380754598111,6.050286484247408
1.476,-2.4142845311835117,3.284127771691601,-9.474754672658491,-4.578863693011954,-6.052608472516113,-4.675918186143463,-12.526113383451957,-3.2056280541746673
1.48,-9.188096114052314,-3.4810309101985695,-17.867756171887777,-13.846639305264034,-14.935071571594563,-11.988886155648288,-24.69504779739509,-13.821269665306318
1.484,-14.45047857147074,-9.632385843619886,-25.062494550005795,-21.438531007628626,-21.92697976558702,-17.755678968331267,-35.37609983102266,-23.205074868259544
1.488,-16.900156121249893,-13.529794672273056,-29.261583497255742,-25.232197670749883,-25.201752262619266,-19.946722754497387,-41.31639681382512,-28.998719299090226
1.492,-16.12004719046854,-14.042218153078466,-29.344064431496918,-24.36388896725657,-23.900406794182345,-17.883673872382133,-40.500485469430714,-29.96181964034622
1.496,-12.509989295107516,-10.872479828166433,-25.250595283403527,-19.393853153926102,-18.38565756270873,-12.414484747590905,-32.94892339850594,-26.336426686459163
1.5,-6.938316229745396,-4.612065207896194,-18.015391570201245,-11.877783851083223,-10.050805113471142,-5.373826328395808,-20.67517480715469,-19.556434738446114
1.504,-0.3731950365290686,3.448057009808508,-9.422105262230616,-3.6460400435025804,-0.8074973558659622,1.3244673923818482,-6.846147812913841,-11.517284487843426
1.508,6.348856150309075,11.680917218591276,-1.4109154359921376,3.83558256302058,7.519485524112497,6.471455238879571,5.420160083616793,-3.811019546672469
1.512,12.541220213521228,18.51872838635245,4.515002347781774,9.732449524135518,13.64569262268924,9.83938167377346,14.04724664765672,2.696229934135772
1.516,17.540191641530328,22.772617490846642,7.6591920330502035,13.707948880179174,16.99875660016096,11.872608429606771,18.386154752563016,7.811629456104129
1.52,20.67906597086585,23.874670742113267,8.202014120386593,15.64925808245971,17.6667157036527,13.093548747805471,18.97445168762897,11.66223883985731
1.524,21.445415975153082,21.990683834794254,6.9840508196393785,15.504547829228613,16.219091685751664,13.635412065999844,16.94173926117037,14.32521471408836
1.528,19.756275510633714,17.978291304314553,5.129416763182235,13.354203480626893,13.505126697164997,13.184508045582334,13.447788715915522,15.685565282215975
1.532,16.17961636977816,13.186096554065443,3.6793888245665585,9.64283089039236,10.486068285301371,11.326435748138465,9.430948076356799,15.583854877499107
1.536,11.897868064601425,9.077854156661488,3.3242803824341536,5.3190292769413645,8.059899597872572,8.032642001075146,5.636983365511696,14.081961515992589
1.54,8.361759937582974,6.783236941048926,4.28656751077142,1.6862123482169409,6.867610367278758,3.9347763698460767,2.7366170603145292,11.623983950110414
1.544,6.724534144072095,6.712041859306737,6.334719028749532,-0.0621966299986525,7.108800510095534,0.17230468420893885,1.3172195491260936,8.943376087860088
1.548,7.350929561705925,8.425472056402214,8.906831549102208,0.6100743684037297,8.47641638377172,-2.1060895308874024,1.6830066675174749,6.768642508697667
1.552,9.68432264977855,10.863392921655759,11.316149537717138,3.291073249942201,10.284891971827165,-2.3018372959268163,3.6227299336133,5.509498645787971
1.556,12.501840427463321,12.801805935141601,12.95314001085535,6.756353776392643,11.743285146756534,-0.6602716628476628,6.353688812798282,5.10384375614376
1.56,14.473756212726585,13.362577757510735,13.445216083797277,9.521895970892729,12.279102910944857,1.8748700643300253,8.77261562953936,5.12414619644187
1.564,14.758283574396046,12.343585707987586,12.740989885696763,10.545199481297459,11.754194701934466,4.151901639503194,9.917802069756362,5.051369735505432
1.568,13.311687000254096,10.204106253702776,11.081012958809879,9.680432930477764,10.454169101089064,5.353489001041453,9.396463111434059,4.5415023224268225
1.572,10.816075858198019,7.758141942489601,8.889969117895816,7.667614470803528,8.877655870293893,5.291487523008982,7.542858148779487,3.5415149617438146
1.576,8.294772698405723,5.732444071029022,6.620168171630212,5.667679917371061,7.439733688315755,4.344410860150674,5.189288406440028,2.2066622240927245
1.58,6.623106700244534,4.429857444007212,4.603574788194237,4.612707909824167,6.2670925370202895,3.1229889732057927,3.1910814135881083,0.7141702952649212
1.584,6.196638323099251,3.675727380981698,2.98011567071444,4.756613729998207,5.210559503422701,2.091589136449329,1.991671160885744,-0.8665142570389435
1.588,6.902426820945038,3.058103868495891,1.7281837203026953,5.668188386283873,4.058665954049502,1.365516119156382,1.475269302194647,-2.5694907711804262
1.592,8.337935543389904,2.28287166737573,0.7617929424686736,6.623762328399607,2.796213121362598,0.7644776465058385,1.1674939194344915,-4.425245112288394
1.596,10.080524529239938,1.3930273394198593,0.02070477146526173,7.116605769428588,1.7088274610305234,0.026771885720336286,0.6270144931131654,-6.350916885417064
1.6,11.84984572286794,0.7212919862186027,-0.4880000084358471,7.1551521435822,1.2492762060469431,-0.9814360004556875,-0.23448454157642118,-8.129838761541578
1.604,13.466610278230291,0.5914057690060872,-0.7246729824382783,7.152647457289277,1.7224201304215967,-2.1989066134556197,-1.1126270954337087,-9.51258913793572
1.608,14.684951928200462,0.9829812097304966,-0.6883529747501598,7.497636075306218,3.000796257501861,-3.452010023967887,-1.5524858055869117,-10.358068473960884
1.612,15.076107476004836,1.3997457402474538,-0.478837080861922,8.108518351888051,4.465508417271849,-4.596693512208731,-1.3050084914648323,-10.70588524685445
1.616,14.111647151328725,1.0679843959806021,-0.30277380643565266,8.297128167574556,5.245055019968277,-5.578116739663528,-0.543348378749215,-10.702445942861232
1.62,11.456471899102326,-0.605338267143452,-0.4020223242332577,7.08812931742068,4.657311504759491,-6.373003554035677,0.20981587238929933,-10.416203512402717
1.624,7.289336067960903,-3.5944928584085574,-0.9486689487912372,3.8234713923557138,2.601484180522675,-6.89108481319272,0.3880665770666383,-9.684152675101359
1.6280000000000001,2.4375938181947276,-7.101672815602797,-1.9450310044758226,-1.297001225530039,-0.31480040544920485,-6.9384284197876696,-0.2793684779317118,-8.125160146788403
1.6320000000000001,-1.8317887256453105,-9.828915628293544,-3.1787634820466337,-7.086174967485931,-2.996028646703053,-6.310024364309356,-1.592335658866432,-5.357484632259002
1.6360000000000001,-4.327893568619402,-10.596264156445613,-4.287403935901239,-11.792395563590617,-4.351655096088507,-4.983089276614919,-2.9902885399151273,-1.3388765501076705
1.6400000000000001,-4.4900709439316415,-8.9704213025434,-4.904529443901993,-13.866332443023566,-3.799886716853507,-3.2760390160437964,-3.8762389805360726,3.3768304643999727
1.6440000000000001,-2.652271887865936,-5.5345844760704495,-4.804545875485928,-12.65405035727963,-1.5043713752911572,-1.8082021753871231,-3.9412335381548473,7.673397040573036
1.6480000000000001,0.12724136642827943,-1.6413283423298708,-3.9930097106771427,-8.678373468079371,1.7471968231684514,-1.2413279143802356,-3.3105607668348966,10.220777278860623
1.6520000000000001,2.6396677143238776,1.259928484968441,-2.6867648621664557,-3.348194060861715,4.953979112274283,-1.92036062711486,-2.439646875793187,10.025977159151807
1.6560000000000001,4.160785883006611,2.330747766188324,-1.2047827882397542,1.7058235350959876,7.345360022992281,-3.6312734113816987,-1.850010412004849,6.916994245908427
1.6600000000000001,4.764899050000167,1.6993774708207638,0.1779592083676107,5.298604077273922,8.627778599221529,-5.647680859048705,-1.8590933385967219,1.6989986536209472
1.6640000000000001,5.135735494786786,0.26595313140933285,1.333017710774584,7.026175646798947,8.927663476586531,-7.075630312818248,-2.461561627285846,-4.12046321732123
1.668,5.986074500480754,-0.9308921202145939,2.270810853195144,7.147644634902463,8.501937863151397,-7.331314223170921,-3.422596320124285,-8.930214400075783
1.672,7.449538340411891,-1.3856448831829766,3.0468765280729713,6.17562875220392,7.445190651376834,-6.46983153684414,-4.474971354649824,-11.647976549298619
1.676,8.858223923245532,-1.420916858428427,3.647229728705497,4.489100570322989,5.601433628899031,-5.166843552116916,-5.491201482329416,-12.088361527734378
1.68,9.092448229566799,-1.9192972570499478,3.9281772805406945,2.2086360672656156,2.7422706060579003,-4.327817997767852,-6.531242618342731,-10.906911895304802
1.684,7.3076024572546885,-3.673519722128731,3.652264122296401,-0.6440227225666604,-1.1268114161011908,-4.5447077590324625,-7.734996041528575,-9.172731404451042
1.688,3.600317421833097,-6.763452723854243,2.6148954478712767,-3.869262888078083,-5.54912471073294,-5.712129836831082,-9.160209435658544,-7.807418814350967
1.692,-0.8580980892074876,-10.381794214493311,0.7823695154320376,-6.973405019998609,-9.676798408516333,-7.030002120696736,-10.691175108671814,-7.208014063558949
1.696,-4.373955186449166,-13.247863188244992,-1.640718785158242,-9.349862593124271,-12.62387028147532,-7.432646985274914,-12.071376593841705,-7.226224581878341
1.7,-5.678341295450082,-14.367940131315663,-4.244287579787851,-10.651237575260893,-13.914905494739287,-6.219476359332475,-13.025893424506648,-7.4504900984647975
1.704,-4.727034201998322,-13.690681251625392,-6.552402991096642,-11.099735312220218,-13.778772336146176,-3.529108572336554,-13.401898586633251,-7.589216452313849
1.708,-2.85641698926338,-12.227911350393697,-8.18046135804525,-11.479007189618642,-13.076480338109832,-0.3853037448552641,-13.223637210945526,-7.693143791540933
1.712,-2.1212100340926554,-11.504719835147625,-8.910831286862049,-12.728007919655283,-12.8536268658263,1.7261001714541635,-12.630436126961285,-8.092417508127255
1.716,-4.146258838674839,-12.641328673680619,-8.674007234410055,-15.342264670000077,-13.758292489265841,1.553301116297007,-11.755130229183123,-9.114338576539012
1.72,-9.141392254477068,-15.617992112476713,-7.478705582945622,-18.94152134541946,-15.656495773071583,-1.3029180768935475,-10.643088010616339,-10.784419307357894
1.724,-15.650827020426732,-19.189617828063092,-5.3768787604522,-22.30756759813812,-17.696767287935472,-6.15684781058917,-9.29071240191115,-12.731351228527274
1.728,-21.19594027947187,-21.52279526683924,-2.5068724420771105,-23.92191294337681,-18.80280791273799,-11.509624815913412,-7.7829836642140435,-14.378920022396414
1.732,-23.44517579379226,-21.17843685468688,0.8344976282151038,-22.716807575441635,-18.29752996433308,-15.67731416026254,-6.419218181788892,-15.287544893657468
1.736,-21.28639747368743,-17.884321106840616,4.168296812214976,-18.631751611717846,-16.294297515129074,-17.470215857938456,-5.700209260596239,-15.419708199122397
1.74,-15.262195622701256,-12.661169541554045,6.931799852656695,-12.662922132476524,-13.614120952940539,-16.61255223126318,-6.1341902223430225,-15.144117993177133
1.744,-7.19360643859909,-7.26211073628474,8.66860681331491,-6.387506619503256,-11.292373966806736,-13.738723566952103,-7.949137928248092,-14.97036199300419
1.748,0.7168503390767,-3.2866522921367505,9.210769666560736,-1.2417208633632981,-9.983700211230826,-10.016206184929615,-10.87796924704162,-15.191200718840264
1.752,6.7446738509434,-1.4932689373399626,8.737686361489978,2.0291732115510968,-9.63371074009774,-6.620940676690225,-14.16633880826339,-15.672789098338399
1.756,10.057397741611567,-1.6762322384656727,7.651369684391284,3.4710330791658635,-9.6288760277057,-4.30341322588356,-16.847136393196706,-15.93674310294955
1.76,10.593615497168685,-3.0944596329272827,6.32300331519491,3.5790696993481106,-9.321875552534948,-3.2073654949999764,-18.16627717594747,-15.476996801913629
1.764,8.666221067575862,-5.100844431482983,4.858271217774927,2.7892149595299998,-8.589250107213957,-2.9794931118103705,-17.926835779369867,-14.084633544094686
1.768,4.670694623331656,-7.520749669060024,3.0550496741088864,1.1691680168296443,-8.027384131065446,-3.0527349434305506,-16.54735377371253,-11.949170476218569
1.772,-0.9152201565048017,-10.545186705950982,0.6060527782083227,-1.492660652311315,-8.61439291361512,-2.944158860031166,-14.793704533012715,-9.47404293411455
1.776,-7.3178420590575115,-14.262793715010048,-2.570060538044345,-5.282905282987485,-11.017291675777415,-2.426691171609491,-13.331174411365282,-6.937518558988813
1.78,-13.34876819832698,-18.23099227237799,-6.0892741583775205,-9.767443251594159,-14.98200906315833,-1.5421493878438923,-12.348980269738604,-4.26186316978783
1.784,-17.649565537770286,-21.468325414783976,-9.162625004684742,-13.94782167797166,-19.239264845628895,-0.502956581496619,-11.504268158827472,-1.1015158145546593
1.788,-19.27277258455797,-22.93867661503191,-10.967814802042994,-16.66323344599732,-22.046781237900177,0.441709207927488,-10.212084131078882,2.7807006848397577
1.792,-18.263288414575072,-22.216063526736434,-11.114835561580549,-17.221589336859324,-22.083250004148795,1.1086273875298502,-8.084045551338932,7.1143574965153675
1.796,-15.825170991872255,-19.87339040754705,-9.92515721489599,-15.874669538397939,-19.188607103033974,1.4244788885298476,-5.253608033513956,11.008698066856596
1.8,-13.836036157886156,-17.264273390225753,-8.30463793630588,-13.775222723015759,-14.490955336699699,1.4046339951510163,-2.352626078460162,13.28827495814403
1.804,-13.900471792162534,-15.78698467330014,-7.26388260951353,-12.393194174146629,-9.836368379139458,1.116258380759973,-0.15946958567110414,13.119335409866835
1.808,-16.457134490981844,-16.06207864789667,-7.355308672854335,-12.702937864909472,-6.838612836430002,0.6528742900300131,0.8586708714028646,10.553273474433809
1.812,-20.481022041478354,-17.53917265455675,-8.36160537741489,-14.607870653197097,-6.091794871511411,0.11209821469310555,0.8200513586907618,6.618779765853105
1.816,-23.999024468500465,-18.81599919403925,-9.446320818077766,-16.962676380819175,-6.996288708922293,-0.41974902860783914,0.3261191402671102,2.8266647712571285
1.82,-25.145522890747998,-18.496725069790045,-9.684171937346036,-18.20017409602042,-8.262067538673364,-0.8738264203857398,0.03812189408563427,0.3505619922107144
1.824,-23.180570840113432,-16.085769321631233,-8.671071190721705,-17.229956873490664,-8.771529231111344,-1.201055880785134,0.1919072372638766,-0.6266282677133859
1.828,-18.88436873738374,-12.352217838802062,-6.825853118717532,-14.090399049986445,-8.258452955091343,-1.371960266300448,0.38081774739293905,-0.9890184378964477
1.832,-14.09418101627125,-8.913174541706212,-5.1815208136195,-9.96214325010169,-7.390177928165031,-1.3676147678525012,-0.23074955292941013,-2.0982924461641232
1.836,-10.677462986998762,-7.286163860153465,-4.790226939690001,-6.544053332409021,-7.2418106731583975,-1.1674792745670857,-2.3898884863156127,-4.88555687558619
1.84,-9.545549573891549,-7.985625903067557,-6.104223803865352,-5.144239266032855,-8.52658889804934,-0.746567323578347,-6.242112514413748,-9.173693451410145
1.844,-10.280098698606707,-10.233941826253613,-8.735686090571107,-6.015951933951328,-11.105653767654985,-0.09000300082152535,-11.148588267129526,-13.665107292532412
1.848,-11.537921758734228,-12.446586505036976,-11.71858606537171,-8.291967255778218,-14.068673010070597,0.7757906557144452,-15.951813509413114,-16.628469003362625
1.852,-11.940067957259089,-13.175110457471419,-14.084416178871834,-10.512801348893845,-16.29674532178251,1.7545702751122008,-19.5164205283545,-16.860149178650317
1.856,-10.9099933122543,-11.941492457318418,-15.393005890673521,-11.441218099789694,-17.13705039474553,2.6836418188686366,-21.22682636193349,-14.340084745159402
1.86,-8.945076676551253,-9.44535522418937,-15.873701856480693,-10.671860278182976,-16.729437596519347,3.368833483193157,-21.159079348042724,-10.180037972040736
1.864,-7.217087656570584,-7.051286390992573,-16.112966525097363,-8.721732301393786,-15.78597007418648,3.651565717662379,-19.846080982033527,-5.8952739005108015
1.868,-6.822289156076295,-5.916498249161123,-16.52502977025688,-6.625036967903725,-15.005133473326168,3.4812429547437205,-17.83258805787409,-2.4737989784553065
1.872,-8.134282353541494,-6.299545544172361,-16.97557645060442,-5.301269946356115,-14.514195470004779,2.9567171986072935,-15.336587845046779,0.1686994219344342
1.8760000000000001,-10.630772737084953,-7.4605175262959165,-16.81390224684037,-5.082549583819855,-13.716073061841598,2.318601261531512,-12.225188754139708,3.013797707963022
1.8800000000000001,-13.253863487429953,-8.19494620937985,-15.30898860572961,-5.655712922083694,-11.66859413394468,1.8861896205635276,-8.303839165402678,7.156885924247035
1.8840000000000001,-15.038379908197385,-7.650194009929692,-12.21172527302133,-6.403211045348144,-7.766608208843081,1.941177191261886,-3.6854007859437843,12.928644042465748
1.8880000000000001,-15.598382917555682,-5.889920274683391,-8.050486720558183,-6.875253456932114,-2.272187401436895,2.617813036074949,1.0409379017428364,19.502824975210387
1.8920000000000001,-15.204907664632628,-3.853836321921335,-3.9439414492835567,-7.071818024232925,3.6636767815989515,3.8168609681870294,4.977945473498039,25.25080545116907
1.8960000000000001,-14.474082138826816,-2.762686934366684,-1.0348695281636537,-7.3743725556396384,8.516366398446735,5.201051523519709,7.344009817123151,28.640706849810158
1.9000000000000001,-13.919896209163198,-3.357851607242992,0.10583168394805398,-8.203439501244247,11.137861418694683,6.287214410907836,7.872527722145605,29.112699254115796
1.9040000000000001,-13.666048481464713,-5.45130933206201,-0.2563933898372852,-9.646678853085177,11.30063769557728,6.615950422576134,6.935803639667938,27.38110568394768
1.9080000000000001,-13.473094090704762,-8.047308366722973,-1.2443996553984107,-11.318337584832989,9.72182793719685,5.941410777297278,5.309408788863038,24.956801131784232
1.9120000000000001,-12.972917032854639,-9.915490116150977,-1.9230775558644382,-12.520423811592082,7.5938631646263275,4.374197523484327,3.7376603033117135,23.187728013186643
1.9160000000000001,-11.914066513802027,-10.25201702829736,-1.8302096477141276,-12.611675214409843,5.9203972437962875,2.397179564488397,2.569218496749272,22.40666227344809
1.92,-10.258453739254037,-9.045294134871256,-1.1720394203930482,-11.36503113254821,5.041175235451647,0.7257149397210014,1.6828602345131003,21.72518283548925
1.924,-8.108744994614426,-6.9755906145483095,-0.6058798812746318,-9.102013938384516,4.58042739281791,0.04211494200535526,0.7191535470910821,19.6250197125064
1.928,-5.558758098042745,-4.949332721525479,-0.7621551832276054,-6.528997282988712,3.804299421945416,0.7115478126361268,-0.5637236043839948,14.990164055257083
1.932,-2.6340610384522734,-3.581215343713211,-1.8156979001055333,-4.384353712083794,2.14661100569856,2.604084196682379,-2.0495120943032816,7.97126339339502
1.936,0.6161172915126372,-2.9302200839952093,-3.3719104463307303,-3.0959840133491525,-0.4218138385667771,5.116422116770991,-3.2946550014657987,0.15693207925050956
1.94,3.938098656971306,-2.611840262307396,-4.7179511808126335,-2.6445026188939664,-3.3824092431154895,7.404840803089428,-3.8019516084468705,-6.086126802301806
1.944,6.771477592328665,-2.158875503117997,-5.249458013531239,-2.6873531469882437,-5.9774765533893515,8.742483844954222,-3.3389214222897863,-8.755756729840869
1.948,8.33290664127344,-1.3761551863199202,-4.803318542528359,-2.847371924071922,-7.612476814813817,8.834698816617674,-2.078053866409391,-7.20715950729209
1.952,7.926196371698097,-0.4471645862904552,-3.6964087211158585,-2.967627370317132,-8.098925978808438,7.938598944911973,-0.4703712919172176,-2.4691253348310056
1.956,5.316812075378039,0.23468293605992585,-2.4868975742242583,-3.192476203997103,-7.63731942190725,6.717585808460171,1.043755669867096,3.2592607942870018
1.96,0.9338965748529517,0.36881100992331994,-1.635263576023135,-3.846334476326774,-6.595790595689323,5.883532849460607,2.2920120587896236,7.648825528456655
1.964,-4.203403935730421,-0.019038886560338142,-1.281193893307318,-5.175347802697615,-5.250860722507241,5.8166510109185765,3.4248621806673327,9.267117045145824
1.968,-8.82824640296485,-0.5697211586470985,-1.2505538181740121,-7.113093853608916,-3.664733972488648,6.354167311606943,4.72808340876054,8.082939839501705
1.972,-11.871630029856533,-0.7841326010161538,-1.2331383604023358,-9.19992906751213,-1.7353899615341106,6.873404530520929,6.335728502142956,5.276830618316126
1.976,-12.813111172861227,-0.2884817005087825,-0.984476219784483,-10.711684779597817,0.6413098860448372,6.625548713178432,8.054384059451877,2.525394499093636
1.98,-11.803046267202717,0.969006252661984,-0.437027206447965,-10.950679531000787,3.4064463377785614,5.148866331465797,9.398912600518088,1.1681235576152176
1.984,-9.536239577542347,2.677419631527755,0.3109021681902959,-9.565511290238646,6.2662710163381234,2.5546683140964888,9.83014226384148,1.677994349463006
1.988,-6.958357350059032,4.285941367290434,1.0805327009579742,-6.735873175834058,8.749541566360222,-0.4787174309440161,9.057949558286055,3.6302455336735875
1.992,-4.937888285481677,5.215110587384061,1.6777192401227694,-3.1336680171561966,10.353720824206448,-3.0073991168865177,7.2052288885770395,6.084173438578546
1.996,-4.000387100134503,5.064856620475894,1.892285166232341,0.3322995075786821,10.697063011423324,-4.269947186564423,4.738169210475462,8.097475096207745
2.0,-4.184586328785372,3.7523080160085556,1.4780007563513209,2.8857203950656185,9.623411308647974,-4.045513455283071,2.229674429709121,9.0967537977549
2.004,-5.079414703498969,1.5252860158980184,0.16114185257129066,4.169749645627235,7.214694396941468,-2.7400303257500127,0.08160162254625902,8.957592815517273
2.008,-6.002997968633736,-1.1172630532582843,-2.250390398774016,4.339755633356162,3.7493944586776706,-1.1533889891661602,-1.6354401919379598,7.845448229762042
2.012,-6.277499011642249,-3.5653948930007573,-5.6959196034536035,3.92017895902336,-0.35882545595859483,-0.057750632077841146,-3.131961067158045,5.9854429002334655
2.016,-5.512001483664335,-5.264352268899984,-9.741532065146203,3.5100986698012093,-4.6224146474392,0.17852468059300008,-4.684020688923738,3.531793914062291
2.02,-3.772167139049543,-5.854416016481537,-13.602888049398643,3.4906553023665765,-8.528138645028775,-0.2608317040703696,-6.390618722766703,0.5952987346154259
2.024,-1.5757364327946561,-5.268868038006985,-16.366036987678854,3.8559412044560304,-11.603913268771976,-0.7958197171847132,-8.059626446148286,-2.6348382306387066
2.028,0.3111024258469115,-3.7477467519292986,-17.33507341034283,4.2430734766926435,-13.511130131796563,-0.8234079883050072,-9.291684204597914,-5.805783116064049
2.032,1.2245763362921025,-1.7367457944524176,-16.329876005531787,4.143796471041242,-14.128639487785676,-0.08697654751722439,-9.700306942165298,-8.429994192756567
2.036,0.8894310281980324,0.2700666666723919,-13.788260013674062,3.151663980894682,-13.604133913210717,1.157642279544234,-9.141582473238486,-10.04192558192426
2.04,-0.4754942501631376,1.8923693019432903,-10.609202297772754,1.1427472303266768,-12.327344586572508,2.2840098985252553,-7.812580989745584,-10.391243118018792
2.044,-2.290442343161885,2.9582391993480996,-7.798948641227071,-1.6824460239567998,-10.818283094077515,2.6594960151915075,-6.158807613440786,-9.54898944670822
2.048,-3.91271831988297,3.511358639660102,-6.062163120140667,-4.882856668953536,-9.547689388685285,2.0311996107902814,-4.626603774843261,-7.855987962639119
2.052,-4.9250333843729095,3.752440556295369,-5.510942258481464,-7.917595326162427,-8.746135987557864,0.7193238993058912,-3.4080013416260044,-5.747414952562394
2.056,-5.249274621071891,3.9575506409150876,-5.617054608856051,-10.261552177655176,-8.293829366361933,-0.5112996645138992,-2.3284073572303896,-3.5586273879343935
2.06,-5.041956943277,4.403612742883752,-5.437659234791681,-11.471614107123514,-7.764118775308134,-0.8442557431972091,-0.953970461271183,-1.4249034914701042
2.064,-4.483331351265406,5.296900155746698,-4.031851166243996,-11.23514770651218,-6.6367769269552355,0.1475229130110165,1.1212523449662513,0.6737915816602253
2.068,-3.6408037988794604,6.686669655791775,-0.910016854433934,-9.435777195938044,-4.602654838354056,2.248387428206115,3.960147303539543,2.7654839384431398
2.072,-2.496427515341111,8.392855270402379,3.6859856189348648,-6.217353881838335,-1.7929912531024002,4.685592356672714,7.135762822962988,4.76732345783239
2.076,-1.1115674605744061,9.992164587308935,8.807623328125601,-2.0091082972976437,1.2010718925457695,6.530271027399522,9.8691835499435,6.489210808278585
2.08,0.22115452190291762,10.90856231757266,13.142815194708646,2.537033012867596,3.5584261078884083,7.189659180815852,11.391506164093698,7.757660703951842
2.084,1.0153516912778286,10.614262320217449,15.539680878007402,6.71147979755051,4.600768974124776,6.712225517516799,11.335209864556873,8.565922496966778
2.088,0.8400326708037937,8.880143477701267,15.491064969877698,9.95042005903042,4.120322467640108,5.7216230861622535,9.92653282684114,9.106397459082928
2.092,-0.36232543538108075,5.940581147860939,13.333211445427878,11.966272365424174,2.4528799576617075,4.998848273636668,7.822819742174488,9.593421774075978
2.096,-2.118200044481455,2.4479546347938594,10.032857494802101,12.73330438580524,0.22822626910010513,4.948904902592858,5.653449179525978,9.957860771768537
2.1,-3.616786754959321,-0.8166264200281148,6.647945811118916,12.324398775508598,-2.0768183470920576,5.250707459490059,3.522884995397362,9.608818613786752
2.104,-4.207395292312867,-3.3538415799275754,3.736188279524413,10.711343100780141,-4.518551222111682,4.925110629737446,0.803513338682933,7.476391117279945
2.108,-3.884705044252314,-5.226417254980788,1.0606944128378473,7.709384696865527,-7.716513419730063,2.829095550864622,-3.585707677339542,2.427966296525483
2.112,-3.422111613167999,-7.001140546939041,-2.2046467855170704,3.1500063717508056,-12.443767430934258,-1.6634615582556762,-10.490052723131157,-6.06635849963277
2.116,-3.9961918108426744,-9.337892257043904,-6.843779277608746,-2.793453172394038,-18.973438443901614,-8.17098914790904,-19.764741800154297,-17.350700618078008
2.12,-6.442038569741499,-12.415369620815682,-12.857737594815035,-9.316872524254904,-26.53702388512329,-15.277405289660237,-29.89148638694178,-29.427347802922213
2.124,-10.571603139236004,-15.557814402092845,-19.083019402157333,-14.982184772736673,-33.28189845961242,-21.03222207115232,-38.2664747852009,-39.42232366660119
2.128,-14.996381647546059,-17.34598595240459,-23.458897570962563,-18.099881277275017,-36.8554509161479,-23.747975354829578,-42.103230037444064,-44.55446141394714
2.132,-17.6430830595325,-16.230478945845334,-23.880952887762078,-17.36840763286773,-35.38396340194436,-22.696328387612084,-39.55803334567781,-43.18362175569018
2.136,-16.766197369013298,-11.39107688741501,-19.260641860473243,-12.494035342504958,-28.39516228800312,-18.36951894473259,-30.565868090466665,-35.48011910961168
2.14,-11.91777559516322,-3.3617775688298934,-10.221179418302427,-4.4535991408788504,-17.188179061801065,-12.192566002961485,-16.951284181392566,-23.376996927830533
2.144,-4.31702968579566,5.973756486648881,0.9884585015029188,4.776703398981681,-4.423209896388471,-5.860088169879873,-1.7460810458373999,-9.809407430560896
2.148,3.6176863508708266,14.077328773293402,11.356937715815093,12.9298478167766,6.889529304640746,-0.6560772838711273,11.938517774419324,2.388017635408687
2.152,9.367012959284693,18.84656300508709,18.352325179181662,18.289145635378645,14.53186467664841,2.914434192070985,21.964874284387406,11.43425042377612
2.156,11.45145994023369,19.54125880465449,20.928624698475687,20.263358392879127,17.807689107066153,5.0378419832159125,27.693322656912414,16.980770894672332
2.16,10.007104964064865,17.05119643937178,19.784206115841016,19.442398982439954,17.54598814827284,6.174425554696427,29.802529339036482,19.806113217297025
2.164,6.529264450979099,13.362279759009652,16.772382558519894,17.161204193013873,15.453554090048783,6.618351980589068,29.618590818714438,21.084512022615854
2.168,2.9838975836846657,10.514168505317912,13.826246912686884,14.828160814556668,13.204918486650286,6.313109675766555,28.370763053413157,21.646626953214763
2.172,0.8120223755240659,9.617586458831738,11.997049793863653,13.360681189222305,11.754709254603995,5.010808436667958,26.738222435480566,21.61287396345051
2.176,0.3618963375961357,10.442456021998282,11.103843604473923,12.974756616795275,11.162957836769806,2.6341932210834784,24.84326169527185,20.54908023536973
2.18,1.0112692227799016,11.771399546826046,10.134951111989608,13.3635854619979,10.919549959326218,-0.4250595303406044,22.574753927327947,17.979642381971644
2.184,1.8069097168231565,12.25662843681971,8.097603410740703,14.08257066961869,10.479677291536973,-3.3026831327713353,19.95144400236677,13.904375782633679
2.188,2.165894529069874,11.259217367139854,4.780305905976775,14.884592356420171,9.657319866518037,-5.00022903791114,17.265118963504165,9.003635157640247
2.192,2.2060744731627437,9.194741827204098,0.9744829068763465,15.820915900334057,8.673048646112193,-4.871790627940754,14.955383813538674,4.420555851513882
2.196,2.539384815249605,7.210606897291655,-1.9576168079629497,17.08503395423577,7.8919066602350085,-2.9916547973714387,13.323741808571185,1.240595634093097
2.2,3.731611724748177,6.436759834205077,-2.874529693874706,18.74678051408091,7.494561275697379,-0.16325948534040435,12.313251786242972,-0.023946183905309226
2.204,5.8420836183997835,7.287628426882293,-1.538804527558682,20.57550094768203,7.310569053792506,2.4638022773535795,11.512120775417316,0.3322039234899421
2.208,8.34139867123804,9.232238145169845,1.2099777654516402,22.07203216610924,6.922828532812446,3.9582955814930756,10.39866652290334,1.378688845338047
2.212,10.448853802525718,11.15515339016713,3.892220069926452,22.693571226153608,5.962049649979463,4.048951498633414,8.666476820917751,2.0256299392917754
2.216,11.634874069892135,12.047387090663051,5.158906748878053,22.129909542816904,4.37549284766601,3.195766325378372,6.429191257832372,1.5435818092682894
2.22,11.923684124062675,11.605245922937229,4.475309374450717,20.47023735421226,2.5052474391566193,2.2641949926269263,4.2034875168883445,-0.12190012121436666
2.224,11.779621605198145,10.363455398293013,2.3450162261433434,18.157186410467602,0.9253134843204407,1.9942959269264975,2.6828689905837564,-2.382692029930695
2.228,11.66173975572542,9.305091035599162,-0.016671932703502534,15.75211238789484,0.1568401358385927,2.5674852037614073,2.4338166116192497,-4.337962794233135
2.232,11.584396908034023,9.217163509295233,-1.338578217531449,13.655249436300778,0.4418703252938485,3.5270824023309615,3.659391677017993,-5.2132000086471635
2.236,10.989186586020878,10.182540751095303,-0.9119380872890588,11.920976278870398,1.6790360626126812,4.081612655248591,6.140006191914267,-4.694017609869206
2.24,9.081230638060902,11.533229189812118,1.1442467048102571,10.283931142053689,3.5329667188469784,3.605594200204905,9.351819617671936,-2.9994066067583844
2.244,5.442647524262156,12.269393145220874,4.052600754481205,8.379304346030949,5.609338564751965,2.0348774940305248,12.677529997369902,-0.7056729173302756
2.248,0.4958806250683665,11.653417142218132,6.808152597708613,6.0075432503087995,7.559135430152196,-0.07467111903133627,15.579367865156428,1.5372148825131262
2.2520000000000002,-4.515744828689208,9.616691798509123,8.608770166120735,3.291516398133467,9.076541470356915,-1.8570226790502602,17.674747317338188,3.252444202652896
2.2560000000000002,-8.061844454398283,6.753611045147068,9.077173671247408,0.6515294483058369,9.844678944812244,-2.6295580113696815,18.71930462390742,4.242819634027001
2.2600000000000002,-9.104896533521014,3.9311396894292443,8.223446951244057,-1.3911249335765206,9.528488150682222,-2.2706582313389845,18.56060183227237,4.528206855043436
2.2640000000000002,-7.683338643253933,1.771349882954155,6.257609908251652,-2.4714474085956226,7.874346108737598,-1.2601360336304879,17.1275800370654,4.213988426218862
2.2680000000000002,-4.934029832610577,0.3374515444360213,3.428757635146326,-2.5522661515371965,4.880925249059942,-0.36997874095550287,14.468686999285183,3.396046233221341
2.2720000000000002,-2.4903857251976547,-0.7810622628701935,0.011037031728392321,-1.8943504884173308,0.9486039055844913,-0.1852237152941143,10.823648623784038,2.17100350340138
2.2760000000000002,-1.596161740079026,-2.075551129038047,-3.596723219632395,-0.8564087625859429,-3.1267438265911096,-0.7553171377255694,6.666634281676124,0.7265212035633795
2.2800000000000002,-2.4325117390361584,-3.6869810385065875,-6.802390674481671,0.34773091928445865,-6.367181334678037,-1.585668700873839,2.655647420533114,-0.5904345528955446
2.2840000000000003,-4.043433813517993,-5.237682611624223,-8.914510027421215,1.7760310326064541,-7.9721527511864,-1.9592895940597828,-0.5268358794844517,-1.3172936461819518
2.2880000000000003,-4.915357720181817,-6.045187137024527,-9.421911742906673,3.6712218638398895,-7.671638263465866,-1.4064647196914848,-2.3934874372093873,-1.066932720152181
2.2920000000000003,-3.8623255538628882,-5.565628397683213,-8.303445204817763,6.2110532831495675,-5.8746562242557445,-0.02721816423081691,-2.8370544244133384,0.2244809000389978
2.2960000000000003,-0.7408463478815293,-3.7991021426830116,-6.1741907202691095,9.242824569570473,-3.5385456520965306,1.53253215097061,-2.1861259406789486,2.1472681690732998
2.3000000000000003,3.3971109674602076,-1.400580575217731,-4.133659236070315,12.169834755675765,-1.8094117109524461,2.432888622488065,-1.1030357531806771,3.8851752279121
2.3040000000000003,6.830839212387332,0.6081199677912252,-3.3163096864531383,14.126078140821448,-1.566834706925306,2.1172876367631943,-0.331044857224299,4.5295827884672235
2.308,8.04841928981449,1.3504414698610105,-4.3531884291978145,14.359010622865071,-3.076016346627256,0.6256845981283732,-0.39249215069565935,3.5102381220450525
2.312,6.516855072934618,0.5552551200626681,-7.0177981580597475,12.635536427498494,-5.880696892962106,-1.4284977329112962,-1.3694899431741874,0.9303947504253074
2.316,2.959589132908377,-1.2970779545360642,-10.262318138833791,9.442783666404694,-8.973438778588928,-3.1925197123144926,-2.861284011839757,-2.397806906867345
2.32,-0.9951493691168025,-3.205575092987658,-12.636565919110467,5.845288780806015,-11.150329504328283,-4.019615214156943,-4.135451141315855,-5.253557122882512
2.324,-3.5880765953171476,-4.1251833705501895,-12.901893565945727,3.0477216120987123,-11.418738971114976,-3.7584853379519245,-4.4105406240621505,-6.523191919804958
2.328,-3.7235818278853685,-3.44787195135018,-10.55473960996079,1.8649266602585612,-9.32534588813786,-2.740716915753751,-3.1716138536241942,-5.6979288599955
2.332,-1.4134980904582335,-1.2528445980851188,-6.020264950067144,2.363408701376045,-5.104547863851678,-1.509716805634298,-0.3915507488310368,-3.106620304150397
2.336,2.3010165848803013,1.7648260763918415,-0.44913181571916994,3.8548874375570676,0.38099977078059055,-0.4860530299256425,3.416246595292023,0.21179475605038078
2.34,5.874003142237541,4.621225906920529,4.766274574900535,5.250962096622175,5.884682708660193,0.22268924815898572,7.337138964038672,2.9405722804962124
2.344,7.935533272412897,6.43622330277708,8.493037635572307,5.5868327277871686,10.116061845273293,0.7755501714511865,10.333807520856567,4.010265106963516
2.348,7.809450770659794,6.726179909609357,10.169103290491762,4.457776973717273,12.089177202391,1.3759562622884687,11.576199124716027,2.9874635023990095
2.352,5.669444774817521,5.507381741517008,9.838057704620837,2.1652218501319567,11.385847391335119,2.0514290314386017,10.717483455836032,0.1887874289843694
2.356,2.336263978290731,3.214570869716681,7.965267725081446,-0.47091222537289923,8.255411155143065,2.604742320002856,8.00391065834242,-3.4923456393663628
2.36,-1.1346330646060778,0.5231775265025931,5.19225234970429,-2.5089042503315113,3.531755835567367,2.7629585567410686,4.202415527587391,-6.936105960151281
2.364,-3.873315745870684,-1.8644359466294418,2.1340046339282708,-3.297438499165196,-1.6329048762440834,2.411509066591748,0.32573072115474133,-9.185829766429265
2.368,-5.47105539730461,-3.4244366205696224,-0.7327764190903281,-2.721381618973396,-6.141291363009486,1.727779423309812,-2.7414242721586106,-9.742978453869569
2.372,-6.032537259917433,-3.9492943468778776,-3.0912903064979673,-1.1970925306947038,-9.286350321133625,1.1044761364495344,-4.556944975571355,-8.711224864040219
2.376,-6.022527269816976,-3.5946335636881486,-4.77468703430884,0.5474994343838944,-10.92552134338382,0.902276932692871,-5.243371446489618,-6.754939043707395
2.38,-6.008427255222216,-2.8067975577939137,-5.752142296644934,1.7910847766720508,-11.415739518817588,1.1916617007137802,-5.3384785878080265,-4.859522331259882
2.384,-6.393063681251647,-2.133042864043034,-6.099376882697754,2.1009041321806308,-11.351016174388235,1.677882378251411,-5.441533816068954,-3.9627180124002734
2.388,-7.237705278650196,-1.9742248280430204,-5.92584790146168,1.4787745208740262,-11.219801043561802,1.8830083895301186,-5.816414317698332,-4.557560556123235
2.392,-8.214267730643996,-2.370919463814232,-5.272918580550197,0.34892406720462077,-11.137105632185865,1.4755428420979797,-6.180088802100613,-6.413199865737511
2.396,-8.717953552286758,-2.95162939010703,-4.043115819293348,-0.6102471838955807,-10.789365716597615,0.5403264730268802,-5.822823291546001,-8.57036619265864
2.4,-8.115753207962598,-3.0901700310985802,-2.0299893153007815,-0.7385504105739074,-9.623507620664839,-0.4027855957076554,-4.01675096504232,-9.696182914894962
2.404,-6.0668220425594654,-2.2277291612893464,0.9236698560109176,0.30517188796386563,-7.194138248256024,-0.6879630834077943,-0.5220186697276858,-8.699948539198886
2.408,-2.773419591144034,-0.19968247246453075,4.703947189202154,2.34652226692549,-3.4869375405775713,0.05697273257896995,4.098595884240012,-5.338811895003801
2.412,0.954815977962653,2.612867186328458,8.794074300420107,4.696707730179014,0.9631675384819118,1.6058431465003196,8.580010166381044,-0.48195978177227516
2.416,3.9260771990988133,5.417041045725625,12.361647529619063,6.402997225566537,5.2413014647428895,3.1759507296105767,11.476807963347142,4.170453166527295
2.42,5.036305099149558,7.381470446239746,14.57176394139799,6.674279876802643,8.438019935925809,3.8211324237931876,11.870540663148063,6.836132774978523
2.424,3.798186180672701,8.049806957312853,14.988913964230619,5.2965270875311035,10.053134023935172,2.973897269051122,9.880932602472967,6.51944359213644
2.428,0.6825636584559334,7.56289022204146,13.847245675974364,2.8248275699004353,10.203463971328915,0.8147901246823039,6.68330240499381,3.5391786851912457
2.432,-2.95917477420619,6.552246824554004,11.996630579134035,0.4022367560617113,9.512763227060134,-1.7710290175446062,3.9879322159965795,-0.5992706832573731
2.436,-5.426926861054767,5.751238754687051,10.50478410783478,-0.7536573124273218,8.729944813539191,-3.654669300249452,3.2208989897843594,-3.957387440046432
2.44,-5.459989148013733,5.545277507204901,10.09986504062499,0.025252517138255826,8.278819785616406,-4.082390715444944,4.811313015321161,-5.163950135859068
2.444,-2.9164392784485926,5.7221745458659825,10.75406805216278,2.445976659414214,7.997210910725926,-3.098409551303348,7.964354083102762,-4.111294733377235
2.448,1.0351886218265918,5.5862779428072145,11.659315616407412,5.310745292928232,7.222782520059241,-1.5204575992638638,11.038547291850136,-1.9539617530060696
2.452,4.390003923397444,4.403102026683996,11.659264264766648,7.066689951250623,5.209186272972715,-0.4641105732205233,12.34236375212754,-0.3959142939456797
2.456,5.263417602785239,1.9094004456236462,9.910416293532307,6.592684236788045,1.6450325822665945,-0.6822701240066635,10.94473249470093,-0.6682514302347045
2.46,2.8862375825909794,-1.4030559358540131,6.406858424663824,3.8259814720396434,-3.0194988973324826,-2.115124333895892,7.1035770112434875,-2.7875426325567787
2.464,-1.896120091726175,-4.423137446423993,2.0723297192261043,-0.12868271247816665,-7.641209816323567,-3.9152835308771046,2.11868717922016,-5.530962552858
2.468,-6.947367207668663,-5.931845027823783,-1.6463060120489672,-3.503884692693873,-10.842996458940206,-4.942796750597381,-2.281872210043275,-7.138033133416911
2.472,-9.888602013404125,-5.228167329468874,-3.4799522754003647,-4.759353481887047,-11.635809156254709,-4.4371047666174945,-4.701290364567512,-6.333411940354836
2.476,-9.318018181991192,-2.514657011400459,-2.9599443359458064,-3.382717579827613,-9.884166558154106,-2.4658752146908682,-4.621106400197277,-3.074243642940246
2.48,-5.580974721905818,1.1743632646370088,-0.6198556450852948,-0.18162227602601888,-6.3610881275775455,0.10292414950208695,-2.512571859700529,1.4082893731958848
2.484,-0.6363511079400723,4.477641791643009,2.321438029857518,3.102903699699027,-2.359745249275761,2.094522102011524,0.4733061286412976,5.280792113267353
2.488,2.9618197972417875,6.370451463710992,4.600311343537214,4.6823119065434184,0.9222849868252752,2.686011287286874,3.027894148270434,7.085390611750881
2.492,3.420270408190845,6.630518079034118,5.524846984184592,3.6347486730053333,2.902560246350731,1.833031273411052,4.185511935982049,6.46235075450204
2.496,0.674115139134301,5.85322327008771,5.232750130953377,0.3678605365282692,3.7625976392134817,0.24111872107687304,3.6158064938867938,4.230818436928303
2.5,-3.579878070814516,5.028665243994169,4.4853555660502025,-3.5960330246302874,4.181097302966464,-1.086578243710619,1.6501097528669106,1.8387461439115214
2.504,-6.821533943812028,4.925049768045824,4.146758581226209,-6.391882820422325,4.8262367456369475,-1.4320078317150546,-0.9062786882402634,0.5512046415760778
2.508,-7.096839368280939,5.639974783465732,4.663247199989655,-6.733972205587406,5.909699513809528,-0.7173533397919982,-3.0769776054610247,0.8632521087906753
2.512,-4.086524356540622,6.574154521920377,5.836607219019811,-4.51273676774349,7.059742679064925,0.5637801288862647,-4.04013531924079,2.434048262844044
2.516,0.7369347194629654,6.815149911189565,6.985039866056354,-0.7842609998133412,7.559168749145101,1.7578783599631151,-3.393722449541201,4.481681612844341
2.52,4.970073274250012,5.7184243113981665,7.381413715536837,2.822429096971291,6.802333638222649,2.518557408216793,-1.2864783889090177,6.320014659052276
2.524,6.639831223463034,3.3271808594442973,6.679241135001121,4.928916605872473,4.678917901061027,3.0158102186371707,1.618908256173654,7.670124554029826
2.528,5.277923916074201,0.38210501452419976,5.078388329981522,5.021069355157579,1.6571094669137665,3.7513013267991937,4.357075838018773,8.583073488047376
2.532,2.1196732599280494,-2.067479045371897,3.167258480964165,3.572225211804607,-1.4574362360416444,5.116308311098919,6.005232727455223,9.11274881196664
2.536,-0.6678496064301953,-3.2290665841289865,1.543366882319333,1.6525837557692284,-3.9441353138829527,7.005210118480818,6.0259552142877055,9.041300123642259
2.54,-1.262502659481811,-2.972695910866946,0.46802347404513966,0.28023842619654715,-5.502263871655941,8.764512341914042,4.470544297087599,7.9177895528112
2.544,0.7995456758804949,-1.83709440352402,-0.2292773034333777,-0.10575535022280746,-6.301751245297737,9.527756627288454,1.9582133981330117,5.421243866710938
2.548,4.436247189393953,-0.6551909150746269,-0.9680735148766644,0.2059032455781562,-6.756178626843507,8.730089580242748,-0.5804353273344987,1.7823290818319037
2.552,7.738125972478883,-0.022235899038378193,-2.071953712305799,0.4793394191481184,-7.168710221799984,6.486022312497653,-2.2700285784308107,-2.079198653496178
2.556,9.114334622002161,0.059155352938319083,-3.494471885528924,0.041160299569583,-7.49116128570779,3.5731567730506413,-2.604673296945748,-4.871696776083581
2.56,8.19548960088946,0.16352218534120766,-4.7759493717492205,-1.2675901327852444,-7.332269799132632,1.0279652441784037,-1.5817194916421613,-5.575210227559637
2.564,5.951536769561926,1.0565202377224523,-5.26380591754139,-2.956341774758357,-6.203173100928211,-0.4103515560377673,0.3843942264136331,-4.035834628133216
2.568,4.009575664887279,3.180650859273328,-4.459106016469605,-4.125897555479014,-3.8371174048470493,-0.6777403564856286,2.6988985748448613,-1.1387557944976834
2.572,3.6302138251041924,6.330618146501365,-2.295163874667651,-3.937989546259587,-0.3816783029907356,-0.354139065738309,4.820974576034359,1.5891551719096242
2.576,4.962625034050461,9.703972308258699,0.8020872346689885,-2.0620215995991202,3.6374604960828947,-0.2629490285198699,6.3973145743764235,2.747926729719893
2.58,7.012216046196045,12.310473905784079,4.1103803305447855,1.1373329033829123,7.551665271551201,-0.9554915750795772,7.28481754946165,1.7755147065290657
2.584,8.311887703459433,13.50044393225528,6.938797038302937,4.765155838515284,10.827044669071483,-2.395429676621461,7.5090885498264015,-0.7886601113282268
2.588,7.8282069517422315,13.288995459481157,8.88420326497544,7.795495783413116,13.198302393288486,-4.024112804033848,7.212170078052623,-3.647386909429315
2.592,5.5431966738915435,12.292831312410499,9.890420125602986,9.497243323124849,14.603646007807242,-5.144745957488794,6.607762869721682,-5.492634094249297
2.596,2.3884197533056977,11.311097100353663,10.082794368617897,9.679923440538232,14.988483274368377,-5.376610316356619,5.918905923926104,-5.72306326140324
2.6,-0.3678878715290921,10.822093229720394,9.53158061635645,8.670326890373872,14.165147607977246,-4.89106759975175,5.298477472802915,-4.721935415120242
2.604,-1.8832911809529378,10.681889630436899,8.108487514219632,7.05871015416983,11.855575499898464,-4.295157182190906,4.738152342344165,-3.564304001689379
2.608,-2.171899368514687,10.214222382509433,5.548461897428751,5.377918212407849,7.9196933159494165,-4.2493345658585895,4.037251760573781,-3.348167720303536
2.612,-1.9225542206725095,8.669660647507271,1.708458645131259,3.9185741296169,2.64800299824401,-5.05626075535929,2.9019023846140044,-4.53714934305799
2.616,-1.9059010380010477,5.76002601484106,-3.143362488978937,2.7260088090908994,-3.1095297026201933,-6.474119534685542,1.1439325470296353,-6.701093027077604
2.62,-2.397146165582626,1.9500487654102017,-8.210100137261406,1.7351892450262767,-8.111994150825467,-7.868203362876557,-1.103694330458893,-8.77092463084955
2.624,-2.989129632205504,-1.6749104482091752,-12.330005634009012,0.9296637283780456,-11.151840568391208,-8.588888210475488,-3.2984065675091188,-9.632442022275882
2.628,-2.906159624404154,-3.9145986700580124,-14.387995807034486,0.3984940854438719,-11.545567167363743,-8.345048360557485,-4.645622367435408,-8.727332669359384
2.632,-1.5950560068181403,-4.050383436270977,-13.779976242536804,0.260064247655464,-9.418194939215027,-7.358865795485599,-4.462964059230671,-6.322063424745011
2.636,0.8044431685796098,-2.2149903085439746,-10.70333117142809,0.512522034461881,-5.630493116750358,-6.226052716447612,-2.5562681396068,-3.3233082064070913
2.64,3.437131390267723,0.6771021882495916,-6.102898797218359,0.9391966076962035,-1.3682099601073787,-5.573344171797544,0.5965096628760875,-0.7778867816123238
2.644,5.205819616797044,3.4053653754476727,-1.2805477245233305,1.1687016613407195,2.398232689027054,-5.713638681538214,3.9950306113937586,0.6561195030290037
2.648,5.434133907979231,5.054036497203242,2.6340879619942825,0.877346778279616,5.288068484138648,-6.490736439337525,6.557419283682975,0.9904780353508613
2.652,4.2846491541045,5.417569203023504,5.095276459975594,0.002894726908152734,7.529360656487597,-7.385881679887916,7.627640535596129,0.8115722988304697
2.656,2.675521035500651,4.989547520664701,6.244747347681368,-1.1697255386329743,9.641067079812046,-7.805846378815659,7.262057596039995,0.9030699637219186
2.66,1.737861315154987,4.568906696705881,6.685778099376648,-2.1227671357733016,11.991229026072006,-7.392748450967247,6.122300465200169,1.8070848398474482
2.664,2.1496033938908568,4.743005377499912,7.0889224814468434,-2.3667088243696526,14.506428125897628,-6.190034434527206,5.062753418304965,3.5695470359091814
2.668,3.76362780724844,5.563138473031131,7.837713568315621,-1.7004203435403724,16.68813228774229,-4.594896177080955,4.640387894604373,5.764260072548041
2.672,5.767400665212335,6.599643010993077,8.89054483239579,-0.29853292834832246,17.91465438794171,-3.1381211332691237,4.844782237103573,7.755359757655242
2.676,7.231288996692456,7.294401184139588,9.877350458110186,1.412199626171514,17.80968542747746,-2.2249113547527486,5.179447034522127,9.032080624993341
2.68,7.675000990258695,7.368633166873906,10.336100574625561,3.0028930307867086,16.44071053884568,-1.97321299126952,5.016602698671704,9.437100516903229
2.684,7.312189670961516,7.018678419254229,9.92921767782832,4.264989145458912,14.232739783968782,-2.2183296481530306,3.999637427770722,9.194907216581669
2.688,6.820673918924967,6.763651546596293,8.5314291373154,5.25643023744351,11.67772147880919,-2.646908471100687,2.2570295245968737,8.756700966631797
2.692,6.781906896788087,7.03782256829345,6.19313105590777,6.1254722685803245,9.052320394743674,-2.973037292812478,0.31948951471258624,8.558764262720615
2.696,7.199502069926439,7.81412552190659,3.071354578128876,6.853338276729573,6.3502712612284995,-3.0586307274079445,-1.1706534337899939,8.831661964714385
2.7,7.445327831074337,8.530065546495734,-0.5812453716739583,7.108553996271894,3.475919236866048,-2.929013897101413,-1.758368770486868,9.53045775476312
2.704,6.68094004358818,8.388925089672057,-4.359014592762378,6.340742559741102,0.5520316674478636,-2.694998808105993,-1.3151799131615007,10.39081148067089
2.708,4.484325909782001,6.850570572356673,-7.67867388095533,4.081394845484283,-1.9204389252015517,-2.4552166558137287,0.010718137169078545,11.043627708308577
2.712,1.267148728405573,4.019150140863303,-9.86762106996639,0.2790085632004775,-3.204568542255629,-2.2512752600327985,1.939942908957164,11.129816201266749
2.716,-1.8203605924852582,0.6723089922572854,-10.380141763319898,-4.533977851683176,-2.7225787437150757,-2.091763309437738,4.181297694550267,10.385393486543308
2.72,-3.46754079488187,-2.086563773938906,-9.041082034493229,-9.355930004004676,-0.45149131554876476,-2.0098991462737104,6.461796632837377,8.7094156946564
2.724,-2.925322690617577,-3.3458975056141753,-6.159776729034093,-13.067687157496948,2.97330206916331,-2.0962296779603093,8.513041385169345,6.228901411050174
2.728,-0.4253228417430819,-2.7698215100770085,-2.401324701189651,-14.828508210454402,6.564063801370594,-2.451918720055801,10.103951931888787,3.3493837283076573
2.732,2.9579740221245174,-0.6456769337498827,1.5292962589187482,-14.339393987531821,9.53106587691309,-3.0935847460050354,11.14728265364738,0.7232309297041866
2.736,5.931898387777892,2.389325892808074,5.204664907812685,-11.866175306165132,11.740537343783672,-3.8828987384627,11.803855262963907,-0.905134574267322
2.74,7.696270602476034,5.710590782057352,8.565684466078892,-8.078310219229024,13.734986839295061,-4.548737566385171,12.437395513446972,-0.9976207891818376
2.744,8.29264904452134,8.88763001787538,11.692323175171168,-3.849480403533107,16.235616991531288,-4.834356606038,13.339325486680082,0.41455262123236025
2.748,8.394185435906593,11.582687314781651,14.385862487943086,-0.1189779118496972,19.400818976035453,-4.706020807051573,14.323861630774445,2.4940887504194507
2.7520000000000002,8.690827023964403,13.304919335790146,15.877709342345725,2.192569204888059,22.329945664088427,-4.487650066251263,14.465106457377715,3.67758731633603
2.7560000000000002,9.29937817690461,13.286615771798779,14.93785907637539,2.2985634709161786,23.206419609415207,-4.8043426246313174,12.239676804782903,2.1576813681431304
2.7600000000000002,9.606249725136877,10.69410384400453,10.447727504805016,-0.23713503085286902,20.123533271101905,-6.307538112172551,6.167732278105177,-3.3513560317510382
2.7640000000000002,8.647291987988183,5.138125255286695,2.185502332101123,-5.236380773685823,12.200785073476482,-9.296045904211041,-4.272866958280247,-12.869372227111398
2.7680000000000002,5.8165237156999865,-2.7888125768281498,-8.62272025379275,-11.735124198566155,0.3810829596122858,-13.426905693648678,-17.935886850732004,-24.797330039394637
2.7720000000000002,1.426426078459599,-11.353702606610568,-19.40532283534958,-18.10454480446606,-12.613953871144759,-17.697260015676875,-31.966366872140952,-36.225268429381686
2.7760000000000002,-3.2541680041847485,-18.130907052042858,-27.09244370412307,-22.52611274956348,-23.251788334189314,-20.75374544145143,-42.604625421831315,-43.85995394458905
2.7800000000000002,-6.5228590591493685,-20.923445089782717,-29.36151881806859,-23.658142369357165,-28.636669331475787,-21.403910350184105,-46.571551247901425,-45.24094090826702
2.7840000000000003,-7.059703817787295,-18.730848330966637,-25.658287787863628,-21.184995037288218,-27.710152794664964,-19.092506280186626,-42.41492815658103,-39.71788157900619
2.7880000000000003,-4.548412949641033,-12.243409886584232,-17.457596464012795,-15.938986495717018,-21.59449287298571,-14.119015993289395,-31.1601277877985,-28.740857180274816
2.7920000000000003,0.23001019621233354,-3.573265589239554,-7.6040011118595885,-9.501768593577935,-12.925701676725566,-7.495033633468211,-15.935607503834945,-15.315992170371828
2.7960000000000003,5.807582484316981,4.641732040214492,0.9446176022390773,-3.4968240217481252,-4.567501497706871,-0.5487477462111201,-0.7463150289722762,-2.860291250392038
2.8000000000000003,10.677059298460563,10.312109089887599,6.3344032611512375,1.045122872696993,1.6098149323320285,5.5247240856610915,11.006644724004673,6.022265007857641
2.8040000000000003,13.827928056718292,12.631506951344363,8.404858328531873,3.933922955052367,5.294015822049914,9.9699107982633,17.6110344403437,10.322541997648386
2.8080000000000003,14.922173658041856,12.138368448666597,8.403976203589991,5.582689856465549,7.432916491672586,12.528657267084327,19.294177230517107,10.668433036253646
2.8120000000000003,14.140356063833224,10.16057956289751,8.060189425820454,6.488303440319214,9.357623976933382,13.303946247322529,17.638329500017335,8.700890698305102
2.816,11.935336921562566,8.02672737615535,8.577836899726208,6.812768250934141,11.888246116316395,12.579903972160992,14.588516029280527,6.158318247940315
2.82,8.89719073725928,6.4936564525664835,10.097529225132348,6.340349324306544,14.916918082522216,10.716673033520237,11.583380902136014,4.139353802366713
2.824,5.775642327465221,5.643482516315316,11.844256047108729,4.827570018804636,17.621053596837328,8.139366587706718,9.18197246475711,2.868703413444564
2.828,3.502717999806009,5.18016098634439,12.768838354560103,2.4601472992337676,19.060820075361903,5.358010827963881,7.221773295102821,1.9576392165245124
2.832,3.0226127022501714,4.840239850084572,12.239053093949451,0.05082713575120579,18.743030781338803,2.9322060306517415,5.26702331346155,0.9184311682934094
2.836,4.895202700501159,4.617865825597619,10.36825137732967,-1.2174907880685168,16.818452850477797,1.3288443030901362,3.0228625861432192,-0.39678549373138594
2.84,8.884812029913292,4.699494733309507,7.8510897065973495,-0.39372604380992016,13.870930914213545,0.739728222724807,0.5057811450035388,-1.6726525497879265
2.844,13.826901231027875,5.212446043829402,5.477024629351661,2.640618981397779,10.508388898847727,0.9878079028409275,-2.0355116521549235,-2.349058399988394
2.848,17.977064794158764,6.019404951588683,3.6757782088221234,6.961753778749312,7.063713706612589,1.5965456244497318,-4.305022729589723,-2.0054001818139113
2.852,19.750704045009343,6.735548535371436,2.384216037947681,10.946553285413529,3.594349303079639,1.9980503260680962,-6.087643517166498,-0.6398068574958415
2.856,18.486236634519628,6.949079648486077,1.264993135277905,12.993752815524658,0.11409061250390096,1.7783069710103518,-7.255154973473736,1.3131585574733435
2.86,14.795064231174592,6.476099040508984,0.08029974232590575,12.230411291947803,-3.156284955864294,0.8280814310026017,-7.706851715043285,3.2146469569536293
2.864,10.24638392618408,5.442489110387555,-1.0769262113460627,8.817678307487768,-5.744781016097363,-0.6862416283943276,-7.350511976750113,4.555285943920353
2.868,6.56183335946298,4.151084269795092,-1.8299678929699894,3.7551413675830645,-7.119941621592147,-2.4694936823782427,-6.1583202135427655,5.209033938763923
2.872,4.77812973823643,2.8437478746700435,-1.787256695305814,-1.6393124838061794,-6.979531973601297,-4.248404451446504,-4.254475852993664,5.467944777246203
2.876,4.856214561575143,1.5393776079422423,-0.8412030468680314,-6.2506248854540445,-5.432500645351638,-5.829765981536639,-1.9482967435189948,5.852114544924916
2.88,5.940405474947738,0.08571127014033664,0.7224231005815227,-9.425255632502058,-2.9419310170301287,-7.039622782083143,0.3379359605785339,6.8009107376260545
2.884,7.039839717315431,-1.6263231924298225,2.3659334938747634,-10.93929867207703,-0.08878434657276557,-7.643643077352863,2.2163889935304724,8.402523548451654
2.888,7.662750830725599,-3.4585506430538544,3.5819044294660216,-10.841419090314503,2.667462916535669,-7.360475317002283,3.4433887190402857,10.293628106226151
2.892,7.999404918959499,-5.003517610660197,4.1248937139447435,-9.3704867369961,5.06874414027493,-6.01393951138607,3.9209715827919354,11.774139032299217
2.896,8.567452372674325,-5.797472875276981,4.058380039157669,-7.012191478189152,6.953466900246326,-3.7452949018552317,3.61309363299938,12.080968090109536
2.9,9.620980275612396,-5.629754085354193,3.6223727295254093,-4.56961449690948,8.10131683754139,-1.1210283234795497,2.470009387681557,10.718019668015359
2.904,10.791285225680213,-4.733951141746161,3.030001684373701,-3.04924264127294,8.195050635476719,0.9911643805985477,0.4390881452741269,7.692472738604465
2.908,11.262197921319284,-3.7060882243672495,2.3510726532201716,-3.284188969736533,6.976914658363967,1.7727167694661148,-2.4186073944381405,3.546168894955599
2.912,10.369495691164957,-3.1714176785573045,1.560984567185983,-5.448212475517039,4.5150281561221846,0.8667398936927384,-5.780940995858828,-0.8276139497247641
2.916,8.188330406068644,-3.4122986745747994,0.6738841436076655,-8.78788549488604,1.3552878798501524,-1.3872948478137914,-9.050448960864742,-4.521618155335091
2.92,5.684886739069498,-4.1835827678035,-0.1668009544234792,-11.817546001556593,-1.6083916690143951,-4.04950832156328,-11.542347173833605,-6.953968331351916
2.924,4.2314032615445285,-4.856685604614768,-0.7416958870783219,-12.998766640013855,-3.551517898055863,-5.996993286030602,-12.819768901763155,-8.068637489846651
2.928,4.73825248721289,-4.805699407146676,-0.92640362849761,-11.584184294445777,-4.19685513387401,-6.453027615934843,-12.977301530663908,-8.295724874007647
2.932,6.976303234474813,-3.7889556324801106,-0.8506599720834629,-8.128763683665738,-4.0416141263516465,-5.3456184013825805,-12.663302446741,-8.292372151826157
2.936,9.549990082133604,-2.0972675332797053,-0.9021022690656082,-4.323014886494661,-4.146680973537286,-3.3073106352726427,-12.774254335749674,-8.593895406800584
2.94,10.612556370241236,-0.38075897730345787,-1.532500288656479,-2.1798313282904473,-5.556469627962201,-1.323071305318308,-13.947295020047363,-9.352480886586363
2.944,8.92007229869182,0.7203044033515198,-2.9662599704880677,-2.9992759064604115,-8.66491766981494,-0.23675181650332888,-16.142949119102582,-10.29879590250357
2.948,4.570773445744408,0.8894524929784211,-5.002456358911672,-6.707264041900771,-12.91526349261136,-0.4050269601684704,-18.59910680925691,-10.95810693137355
2.952,-0.9959934356370468,0.22914706430742626,-7.040209158084963,-11.935054455576847,-17.015575002023468,-1.6472347739534143,-20.208386863823876,-10.986401125706152
2.956,-5.757254413008695,-0.8991747507700438,-8.351547417595498,-16.79463541768928,-19.578364327395036,-3.484041353382281,-20.1230205340255,-10.431748394126316
2.96,-8.160928184698719,-2.1388026505070457,-8.450411059349506,-19.881685108233,-19.815514070023255,-5.477859811170447,-18.24650936151238,-9.763286599199546
2.964,-7.836547967878232,-3.3037364185559,-7.339608232384819,-20.90690860975087,-17.888754073254518,-7.44148300876509,-15.307549918786208,-9.63794649995998
2.968,-5.5872611950359214,-4.360609282274595,-5.495836196880646,-20.618940594376227,-14.737039462052962,-9.406382317110229,-12.459245889065869,-10.52240559312554
2.972,-2.756229842583025,-5.287325794443291,-3.6076513591060575,-20.13168838957995,-11.515227753065233,-11.412273766941098,-10.647571841825311,-12.393545481572573
2.976,-0.41604188796316066,-5.966260201272462,-2.225667918829515,-20.12352656487917,-9.009120766905482,-13.298661199243952,-10.128643895425967,-14.698626211991268
2.98,1.1146654901632473,-6.225899618154472,-1.5252871377585961,-20.427982332664783,-7.367532838206671,-14.663891255474937,-10.426826984949344,-16.607076539545233
2.984,2.152139278581444,-6.024898956381776,-1.3063322952970111,-20.27286046876452,-6.278066089095262,-15.043876940451128,-10.748719714171102,-17.427598686565943
2.988,3.1087545842086683,-5.624138566667966,-1.1992042168221815,-18.961050853715278,-5.40423949956687,-14.192217956520608,-10.579014780051807,-16.957106107218806
2.992,4.0285716490296295,-5.540945812770985,-0.9186086752326332,-16.47547582252878,-4.736589774561594,-12.273347317075832,-10.057582893262293,-15.563837633964795
2.996,4.528238393008905,-6.2758217321984375,-0.4269774316926487,-13.60166487355798,-4.618651007279709,-9.827907155819958,-9.905316634976543,-13.97821264471213
3.0,4.166338887765335,-7.956210300605676,0.07084740359601938,-11.472160419021975,-5.4407546287397395,-7.535214874481653,-10.938960498225129,-12.920555109119732
3.004,2.9511736419601675,-10.127327817100763,0.28063820954770335,-10.81632995223265,-7.228734807160549,-5.907507378689047,-13.482064124333078,-12.755533574638093
3.008,1.5534741978929674,-11.88646024960235,-0.009136430630405812,-11.427081420789477,-9.459169827333653,-5.096925922724836,-17.051413704166748,-13.354997311563352
3.012,0.981114552188842,-12.344316549992072,-0.8413805271488854,-12.234285448548121,-11.274458544416632,-4.919795898271786,-20.519557142055532,-14.214943432924656
3.016,1.8935070796767377,-11.155620819998262,-2.1167016309861992,-11.950625106763823,-11.987965110445941,-5.050137634399789,-22.654010835169856,-14.722346703567382
3.02,4.046059339010753,-8.776751219614198,-3.6688161217398942,-9.882318992842215,-11.54610890237825,-5.23504727606462,-22.713918289305184,-14.423526957626109
