Timestamp,O1,Oz,O2,PO3,PO4,TP7,TP8,Fz
0.0,1.0231815394945443e-12,1.5916157281026244e-12,2.6716406864579767e-12,-6.821210263296962e-12,-8.526512829121202e-13,-1.7053025658242404e-12,9.094947017729282e-13,1.2505552149377763e-12
0.004,12.31853890702456,8.573835621133526,12.62570265945078,16.78442646723022,8.84828113356923,-1.8338644906657464,3.5306103161876763,3.115137249009422
0.008,20.61738852697482,14.32081654526229,21.904258132420864,29.293658730320374,15.77332801926093,-2.8334157076837982,6.117275508343482,4.585819995136035
0.012,22.72688063592824,15.791189507163779,26.014924633229043,35.22128773028879,19.80694486725838,-2.502157983389452,7.192878338820378,3.806061007072799
0.016,19.28860715428027,13.607703147161601,25.450063156229135,35.217139096171195,21.424298360986654,-0.8433454977480324,6.7801058497348095,1.617572229682196
0.02,13.376037745267183,10.12144363984595,22.67477343423434,32.40658766135533,22.29430694831308,1.7000325250187416,5.4883131900819535,-0.21808981252445392
0.024,8.971426816214887,8.215622241307756,20.854698404550447,30.717599502125324,24.427953773107106,4.48270353014766,4.262609144863632,-0.10525477896521807
0.028,9.050930129757603,9.85428302411998,22.29969154554277,32.901340351268004,29.13688295222306,6.923152411118394,3.9748985851056204,2.30296227111171
0.032,14.18840046049047,15.097850165888474,27.39696357642123,39.24460565427637,36.312691544273775,8.647967172372773,5.008969654821271,5.685715797440253
0.036000000000000004,22.361334838171445,22.077936414822034,34.536335999109724,47.60121220880501,44.38200540809589,9.485548949622626,7.013003060732899,7.645456696850374
0.04,30.029558465432956,27.953096195927287,41.03346863408461,54.66363330717263,50.99221377620097,9.385166166112981,8.978101927596299,5.991162484455003
0.044,33.93167892015924,30.358720490489134,44.53054669308699,57.744233544775,54.09447833336782,8.374056602557175,9.678284725602396,0.0359177882937729
0.048,32.68693198657593,28.603193231429202,44.14605474575296,56.12099100134725,52.89728471853766,6.591955456289725,8.28620734000242,-8.796627544398234
0.052000000000000005,27.42023234316656,24.01186650780471,40.830780085166,51.297649823170104,48.254321938501164,4.356570443729424,4.902846029502427,-17.43927318059184
0.056,21.10515836699966,19.230815851648458,36.78022120018255,46.10651197109894,42.291621682794926,2.150484802103506,0.6700352803487704,-22.519889988727982
0.06,16.994284936320298,16.84512425128321,34.23809644725799,43.17558852713847,37.42958786402738,0.473043347040516,-2.61526867142976,-21.95039653717481
0.064,16.961917378281612,18.03094415510003,34.320425645801095,43.58790800705896,35.26276660190362,-0.375441297486077,-3.2205515582215867,-15.956425693526398
0.068,20.597937980267147,21.931608400624327,36.45944358419976,46.43237125874276,35.85537587099239,-0.43124372016256984,-0.28458993315967973,-6.938877230166554
0.07200000000000001,25.496209967914638,26.072753411074757,38.72711077624132,49.42374096754446,37.771558858219436,-0.04348020900630445,5.682102924994695,1.7113140056550833
0.076,28.55487663756196,27.59807790861501,38.8412147810877,50.21232526799514,38.82394926839268,0.3257873632022097,12.871819448934446,7.251933381964477
0.08,27.555853798030057,24.67544058402021,35.32228302391715,47.64447771389467,37.16000101260951,0.3691201417432808,18.86897165212963,8.791754404003427
0.084,22.206145474449755,17.36067560562475,28.2081984284344,42.31350353581297,32.1569189100515,0.1042108080900448,21.636360950531696,7.510202623226576
0.088,14.189986686085518,7.537096497720739,19.020330385100294,36.195272148876256,24.7215001002412,-0.15149225366292285,20.360655995436275,5.870197853417494
0.092,6.283021907246479,-1.9864984267072714,10.059988724974062,31.623102313222716,16.87779296983686,-0.0010075516683514252,15.79915210466487,6.211012937953342
0.096,1.03560106024932,-8.724897112974531,3.4392272229294463,30.178813530577088,10.887605033337763,0.7507054932335677,9.938811510011874,9.519844624307154
0.1,-0.2633129213714085,-11.474324805753156,0.3299315694653444,32.07648801019138,8.342431615402973,1.939880441861078,5.145805735609031,14.97244405512538
0.10400000000000001,2.122438225963606,-10.557305941893844,0.7433618969286613,36.28012130322696,9.646424941340115,3.120655234141907,3.2009436399998776,20.419025471392843
0.108,6.848718219188555,-7.335900869877747,3.864593141278192,41.1969639701278,14.10060736341299,3.826594082528686,4.656812337476481,23.572038338048344
0.112,12.345704462045063,-3.37603484519866,8.643974709476907,45.48867439899948,20.416422540179894,3.838824062103413,8.801598437184339,23.109544712979073
0.116,17.514526969697243,0.23616834296143452,14.262698042195382,48.544708234934774,27.309187310515796,3.2802185423240644,14.163616827660007,19.141838427717005
0.12,21.92323026370451,3.104570213537187,20.24320714893173,50.4270656697434,33.86742529210753,2.490271850507497,19.239401424064113,12.965627697908587
0.124,25.54938917016929,5.288906962048088,26.234590367572565,51.44304785801978,39.58243419392372,1.8001869402220336,23.082563273714584,6.347256118174073
0.128,28.3739677725641,6.9026382118360345,31.72481538778095,51.708330581148005,44.159083092378125,1.3784169796197716,25.488643907254072,0.7847961084430608
0.132,30.18564557434925,7.888078954049547,35.98639061626707,51.033777369511995,47.3532498156915,1.2441111350098026,26.760577527072144,-2.8379287908405786
0.136,30.729423535019947,8.112960745196176,38.35005499366696,49.19860181156099,48.99979611409972,1.407701960970428,27.27571490210454,-4.153350919198601
0.14,30.054053928780803,7.656027332922179,38.633336357250016,46.38025222915303,49.200292826868065,2.0078340696380224,27.134235711522933,-3.009075959944198
0.14400000000000002,28.77405266770137,7.022286392336213,37.42251886988879,43.38077912375769,48.48135837330972,3.329600516412029,26.11017431620587,0.697981768913678
0.148,27.977070127085085,7.038336809871225,35.931364829202096,41.406361132366555,47.700354575386996,5.651696230138214,23.894252605892177,6.895025441125313
0.152,28.71204310871724,8.392562258174223,35.417265989870316,41.43745252884872,47.63811300541147,8.993044237791196,20.438331137427326,14.991330784241086
0.156,31.326761469898543,11.075361827683196,36.43183106429501,43.540192579080724,48.45896411189932,12.934991437326971,16.152819770310884,23.59061671925764
0.16,35.07517222647158,14.123402433833178,38.37287832334874,46.58566752180468,49.41922172661833,16.681809892701494,11.837302082999486,30.682121483258356
0.164,38.29874955406285,15.9251161179414,39.67370552360313,48.63224351779786,49.094329788080586,19.36842275865115,8.442557100228214,34.330317841991246
0.168,39.15030602040258,14.998697570369927,38.61384257827251,47.86640425988662,46.11614674771232,20.456525081149834,6.774960132308024,33.59460721015705
0.17200000000000001,36.530353391676044,10.846354945889061,34.32848553553532,43.64236901951608,40.04553554405055,19.997159907511218,7.266373855613438,29.154526854829555
0.176,30.735357299228838,4.4008334918429455,27.45416465189146,37.033918876692496,31.868962304842057,18.582268723676293,9.89800921699964,23.169581797971546
0.18,23.458194719396147,-2.240728440585201,20.002938778055977,30.54374806454257,23.78060249544552,17.017777876055675,14.210458205495001,18.36515035669902
0.184,17.114766601878557,-6.709680512772195,14.470939169708231,27.045275838711632,18.291346832895954,15.923446534249251,19.335665059592316,16.814518193087565
0.188,13.798634245807762,-7.457578888289788,12.63014446308415,28.441618299967217,17.090663189305246,15.46752657316756,24.0623488032237,19.018463511694108
0.192,14.368471722210018,-4.48590544973348,14.665368112912404,34.697739093837754,20.255890327799477,15.357997787474915,27.046100209375822,23.656952022112932
0.196,18.133804722979733,0.6951351975566809,19.164936229484795,43.78605654151568,26.271080877905604,15.098961468261336,27.244607845180667,28.209368896234878
0.2,23.251499039398368,5.832335881973279,23.951190584235803,52.55940671250471,32.82962360222945,14.329041160342399,24.43592266737494,30.105203328626885
0.20400000000000001,27.647412116296493,9.036755096597915,27.28828584553952,58.126510942404366,37.98904463313244,13.049508814871274,19.587452300280688,27.843597847342608
0.20800000000000002,29.97315335851306,9.637916613298103,28.75930549198199,59.05151785869873,41.02193427695414,11.619488928212604,14.744417744280781,21.550807979378305
0.212,30.116232646451635,8.343954323964283,29.30171618371719,55.81052065118058,42.513162901047,10.515504414033558,12.252679000550074,12.789066853242844
0.216,29.049843823430024,6.6785915773076,30.424568628612803,50.33450910352258,43.71731115500745,10.002308822054829,13.581404234176489,3.779981035253627
0.22,28.1850372275685,6.059082861915613,33.09193942821753,44.941270780725404,45.59309000965578,9.918973935063377,18.31702269690925,-3.547301156515232
0.224,28.543454648225975,6.992886414223392,36.916309701163414,41.20595277528014,48.090287319266224,9.718011746272396,23.953466528153513,-8.224613087433454
0.228,30.142343594992212,8.788013947364902,40.15492307358852,39.29698666803131,50.08536032787225,8.721381504873307,26.797799462782677,-10.461130234142615
0.232,31.941769951419587,9.932132015221782,40.55752362861347,38.09185122506585,50.006888831271965,6.47435408545266,23.710296694731028,-11.394918022504953
0.23600000000000002,32.381393352581085,8.926872104302106,36.62509842851057,35.959834755168,46.794737231841395,3.042160296735574,13.875711751686936,-12.484304765737534
0.24,30.200154517129818,5.116572883106755,28.585322766044328,31.753519312734056,40.63808576600911,-0.9113167782843448,-0.37518690070680805,-14.78868142793658
0.244,25.162970040146774,-0.879397740158538,18.565150656340506,25.530399534530716,33.10938372785847,-4.30051634414167,-14.241937106470004,-18.39651537375994
0.248,18.312928453031645,-7.357954498647018,9.813017207767643,18.638047689184305,26.594495957256754,-5.978660923208508,-22.433284169949502,-22.223393505182457
0.252,11.628048242257023,-12.231297815474704,5.341262070389121,13.162063805607545,23.317632297291993,-5.127546770234858,-21.514703020203342,-24.250639477592358
0.256,7.260082666039921,-13.881443320795256,6.65065855645787,11.053685034538375,24.439103604379625,-1.524836518799475,-11.433362953290612,-22.19319165581669
0.26,6.6794755634571175,-11.814837147673643,13.108628535830235,13.345815119641657,29.59917597322044,4.400923829442036,4.543525662299771,-14.462213257181475
0.264,10.103004538964797,-6.845617715260687,22.234640572613444,19.797641492293337,37.07647913513995,11.723043202666304,21.42800825467043,-1.0760474824951416
0.268,16.453309636824542,-0.7492719127137661,30.724391604302127,29.08844748451395,44.468790489603066,19.31610795783672,34.76338289091814,15.975081506190236
0.272,23.852537656960862,4.4433407347861476,35.73041344685453,39.40201935824314,49.584708149205994,26.19543369506073,42.35552008009154,33.17259085563592
0.276,30.417995154609457,7.23349966855335,35.88923761947103,49.112815077527216,51.219627390966934,31.76385986937612,44.67918638602964,46.68617408665159
0.28,34.98591999476514,7.191542818596417,31.713903947035078,57.257595548806194,49.53380330498919,35.859965775475985,43.91805050243579,53.84881381415994
0.28400000000000003,37.45731958801343,5.041747869494202,25.258174266121614,63.61462808166232,45.91185005654813,38.6134807347305,42.359508778868985,54.15287673305261
0.28800000000000003,38.63516308065118,2.2646447394873803,19.230833494176636,68.42482424859418,42.368419670983826,40.22242039700768,41.12856025407268,49.31134964002035
0.292,39.64521559982836,0.37649316805959643,15.915166491900777,71.94359152729271,40.71892681442523,40.7669192384667,39.901072968227254,42.322550090854065
0.296,41.24871752183367,0.22176643404873175,16.33436143330755,74.09603492210294,41.84399321488638,40.16051554797059,37.63187320686552,35.981094717400765
0.3,43.392834750956126,1.5894061319562525,19.96607987594166,74.43068781057127,45.337589218406606,38.25957384676758,33.6912443313563,31.600309668486943
0.304,45.224379925059225,3.343377984607173,25.091677512024717,72.39729108739971,49.71695118402545,35.0525515432596,28.566124913697877,28.65057181548582
0.308,45.51544302671789,3.9770756803154654,29.589540659838462,67.74024007320259,53.0880696130946,30.803672794269005,23.695155507509753,25.40799678332064
0.312,43.31175515329028,2.3505768784982592,31.823379663184824,60.79783891600027,53.99141507258901,26.077405024174368,20.596832618861754,20.273460312501584
0.316,38.50428053487053,-1.7285271949837124,31.26211635734262,52.54632168605167,52.05737129829754,21.620461069000612,19.903778386349813,12.949779560281286
0.32,31.994777516076738,-7.401870373349539,28.565008681553195,44.322382344639436,48.12496890749185,18.13178297386571,20.974821702846384,4.736508265817065
0.324,25.361441645613354,-13.174683196597812,25.133049990799122,37.36313253572371,43.78228687441356,16.029887650716773,22.33598600775531,-2.157482790827089
0.328,20.19158686764183,-17.621958067673745,22.396177242349722,32.389159320018734,40.571807302236834,15.341725399131974,22.630790304826178,-5.852718923883003
0.332,17.409320883896044,-20.019145093726365,21.193212305873317,29.424936872122316,39.26631201488658,15.758682121351058,21.465506956554236,-5.847243238131341
0.336,16.907238476851035,-20.58962408829825,21.51544747011428,27.92771210423598,39.575693672169564,16.806119231262528,19.596928611256317,-3.250978733441798
0.34,17.66853928595515,-20.269479468648,22.70402674738216,27.154499916783834,40.41745379572944,18.033219190400814,18.336900766594,-0.03689406572129883
0.34400000000000003,18.335618790370177,-20.132062916220093,23.92576591859256,26.582655943290547,40.58038329757744,19.130342747932218,18.579918662298724,2.1829569065794203
0.34800000000000003,17.917233082671373,-20.818372598019778,24.61006242676251,26.152732164890153,39.38638201460856,19.94712077159261,20.089341435323377,3.098017520435178
0.352,16.302019952315845,-22.25595835699653,24.628680886465645,26.239435986664716,37.013205438450086,20.457307472374396,21.537248088053275,3.8440542304465453
0.356,14.332165982063543,-23.785825735836852,24.164576589569492,27.387919969018867,34.334050550856546,20.713329639007497,21.292102488074534,6.271122583290207
0.36,13.383578384931297,-24.601097655893795,23.421628477314812,29.950541714846395,32.381108301883046,20.81438787616389,18.472007852086335,11.704134888562294
0.364,14.677465425622017,-24.214817790392658,22.421919676859375,33.8156362355453,31.76682954978662,20.88990550904873,13.617337860770022,19.9087349754775
0.368,18.666471253990494,-22.71635931313574,21.01686722842942,38.354731012271714,32.37213778431783,21.07093648372029,8.53622645313476,28.879537029235053
0.372,24.80735455017748,-20.70020292658512,19.08230670876219,42.61026702882191,33.44353014489809,21.44120115327928,5.38564392999092,35.562855814807335
0.376,31.796361984572513,-18.95081140250295,16.73333236129099,45.63901197026894,34.027809948576646,21.976247692149627,5.482747704758594,37.2140760990892
0.38,38.092991793053216,-18.110963848134816,14.371444279733623,46.850241067667866,33.48941228948422,22.513319629828402,8.539855858515693,32.69490367969047
0.384,42.47563704987306,-18.483178316805606,12.518581259576308,46.19820913874446,31.846829860822254,22.788047748915233,12.768598574393991,23.0613705818821
0.388,44.415647176494076,-19.996329462281892,11.562842133671893,44.179226196102945,29.791094519139847,22.55119863338996,15.803575007149675,11.229074987324111
0.392,44.136124279189744,-22.26493467099681,11.621209481649316,41.642868815198426,28.420377284363667,21.720103667988496,15.980148173767702,0.8617373310328276
0.396,42.377132769201125,-24.678300802492004,12.608726754919417,39.470664745685326,28.80610022266012,20.464691826435683,13.243330579657595,-5.0570001242849685
0.4,40.06826727685484,-26.497928306842596,14.452772814228638,38.25815978211767,31.554595295188165,19.14208805164435,9.204950839621688,-5.4107255355879715
0.404,38.071916932417025,-26.980116947936494,17.28079350643918,38.138921352311854,36.54661226739904,18.106950201721702,6.28903911438033,-1.3561426992177985
0.40800000000000003,37.047229435417876,-25.58691780561935,21.3801203209332,38.807350380567186,42.933538895040215,17.516953840913175,6.42953398018949,4.2582429495214456
0.41200000000000003,37.33598311040146,-22.306239928609102,26.862023831056604,39.65058507845515,49.326984726319324,17.225215649405982,10.032547553538961,8.118594756209632
0.41600000000000004,38.859839104804905,-17.90696182845204,33.24150093199523,39.95503748222973,54.161620201574124,16.856080143475083,15.715187206146084,7.860384359498767
0.42,41.018206339909284,-13.922960274667048,39.27034801487844,39.11815365994835,56.149348839952836,16.025860396833195,20.987286800321044,3.098229336282202
0.424,42.67853042367574,-12.23702944233196,43.23807294240851,36.796859075134535,54.68640254442869,14.564116385558918,23.482143849297017,-4.409858004503803
0.428,42.420251587209805,-14.347686279355912,43.66924305864109,32.97769778482984,50.06486061047235,12.61105900763323,22.08507730769179,-11.564546979247552
0.432,39.08055744952799,-20.595614596497853,40.09999125467243,28.004950580872446,43.41867504998254,10.561515466968558,17.428255601712863,-15.327595755596576
0.436,32.393194781797774,-29.771964687475702,33.48378497536942,22.56495257986262,36.38818449846474,8.890755196528062,11.514889461821667,-14.087873630285685
0.44,23.37601867799276,-39.411182760608426,25.932945817010477,17.59865929233888,30.5890707440808,7.946080063781665,6.6853012268088605,-8.346601870086488
0.444,14.18260859807242,-46.71717178398876,19.862235055561314,14.129138968786492,27.087692058175207,7.827066539452062,4.507783719102463,-0.4391464045847897
0.448,7.362039867692829,-49.73412488776307,16.937543025605464,12.99981764399422,26.08444380722426,8.424903875209566,5.154929090297173,6.6210145365448625
0.452,4.756701550838898,-48.2204235382012,17.347120832637756,14.543976646128385,26.905656272968372,9.545478161037863,7.5340651959372735,10.57882354001822
0.456,6.588263655173932,-43.76633681732369,19.77056606295696,18.321504362185806,28.2934673261409,11.004881324799953,10.002908657043918,10.85044307494627
0.46,11.267926500873727,-39.057542409629605,22.074742538660985,23.126098929915315,28.89580757447129,12.655819098819848,11.215209533040706,8.539374917868827
0.464,16.10905703359026,-36.61165672979473,22.39140214475856,27.352055900646747,27.77615033238635,14.347090490073242,10.686085660591516,5.592321829068169
0.468,18.63825181807988,-37.62037641938423,20.011385275039856,29.608946721650454,24.740120149280983,15.876550681202389,8.810295538138917,3.602027269925202
0.47200000000000003,17.843924000638935,-41.450342617866,15.67811929537038,29.343233908370394,20.401547830922937,17.03031690586795,6.432185859346646,2.9857438531653315
0.47600000000000003,14.68037911234319,-46.028658095945275,11.18051608623341,27.150350444649803,15.977136376700173,17.695291579528657,4.322471563746831,2.986243046459549
0.48,11.504541873511016,-48.917432838658215,8.47884387495651,24.546382114468543,12.855125889046121,17.945813458788507,2.863938892613305,2.417367369649128
0.484,10.72940226461401,-48.504968817228246,8.812072430321905,23.25541140440214,12.091880044359641,18.011206098675757,2.059684790473284,0.5982581279331498
0.488,13.389621796595293,-44.73919009055953,12.19380996363202,24.30692996335779,14.002269154651117,18.099685496563325,1.796237665903618,-2.1631151128412967
0.492,18.477105435131534,-39.045150650980986,17.48041740178178,27.429769050566165,17.99768555892308,18.182180043749213,2.084976805666656,-4.822224807095608
0.496,23.509459945261597,-33.47854977605789,22.945685723701445,31.142230933989822,22.810448581522337,17.921701310684966,3.0928325659065194,-6.369300699782343
0.5,26.02253815904919,-29.591760252746326,27.06250117836362,33.547508630435686,27.04438540567685,16.84926769737467,4.9656489302035425,-6.535549942157559
0.504,25.112681172486646,-27.629719044835156,29.1133094610866,33.41704512588012,29.799671699497367,14.708334488900618,7.577519861906694,-5.957494396799575
0.508,22.1029425218494,-26.46417741100413,29.38999848843673,30.95841334112947,31.080319765013655,11.775358973579841,10.451621098134865,-5.636341043000584
0.512,19.86242575245319,-24.2883658028195,28.927753438425498,27.785534819377517,31.74853768027856,8.909486827920318,12.941837236195624,-6.064064199660152
0.516,21.072779804049333,-19.708645182915234,28.910735824640028,26.01908765538201,32.98093802084907,7.202608519407477,14.56789275784763,-6.6858075808970625
0.52,26.428561843011266,-12.64543242845491,30.038901819352873,26.99391835074789,35.48205032426779,7.369879427691103,15.277182306261238,-6.13842815850694
0.524,33.87086944241901,-4.554466956003694,32.13259599720459,30.3195517435729,38.88362669168123,9.22150867221444,15.425222395268747,-3.2014789038510116
0.528,39.39825707109753,2.158042447256662,34.14479057129461,33.87463110328599,41.69350728904601,11.576433872492316,15.47883007043606,2.1340020811016984
0.532,39.16391397522011,5.29320639980449,34.62105386389601,34.85807847478554,41.94034152195002,12.775214923832664,15.618840389053275,8.287760869275644
0.536,31.718292542155496,3.981308271850935,32.37805921720451,31.348642600279163,38.200411559299596,11.560695125571101,15.503353942375725,12.749633062445582
0.54,19.075637971415745,-0.8359677241321606,27.10172292213167,23.49013624138979,30.454270643101154,7.842576577539148,14.398995088465654,13.453749364527084
0.544,5.9386173735638295,-6.808286136144375,19.578194966688102,13.602568576326348,20.279333886305494,2.866676792387125,11.613751104088351,10.052693613022711
0.548,-2.6223203678891878,-11.307419955375849,11.404641398121726,5.0704723544881745,10.19425177042217,-1.3712027149226742,6.992808706602318,4.257813051194262
0.552,-3.768763685559179,-12.670439829009297,4.350653305781179,0.6161372425792706,2.5236041125046995,-3.161153498972908,1.1943451546108008,-0.9916355548705269
0.556,1.693508540161929,-10.893952076581513,-0.3212263765803982,0.9284120459842597,-1.6021628712258007,-1.9939469527253095,-4.424181217935029,-3.1188170707571317
0.56,9.87135089296953,-7.456305845673114,-2.2652552076243637,4.405097791337312,-2.5969497690837215,1.1671422318067926,-8.286311467063342,-1.3695165976005228
0.5640000000000001,16.01582844581742,-4.356978194299586,-1.9827681320354031,8.167636489327379,-1.9163775936190177,4.42676348680402,-9.235065054002689,2.7846288970270052
0.5680000000000001,17.18289242198341,-2.925673466443186,-0.36424218538741115,9.753218229132244,-1.038700217332007,6.005861362150199,-7.025918047427012,6.536887216049081
0.5720000000000001,13.789397655245011,-3.1016371857620015,1.8457490628916275,8.473953509009107,-0.5806783518489738,5.184568523344524,-2.456314833338638,7.3741270946893565
0.5760000000000001,9.166354370178851,-3.5870119737348887,4.347860418284881,5.651015088920076,-0.072485049732677,2.605873074071951,2.9283676415720947,4.461712049971766
0.58,7.38727352933347,-2.7823984300983966,7.184784697953432,3.60986635258314,1.4907402112763748,-0.22894008143111932,7.400222751015917,-1.0392749763345819
0.584,10.68366105435939,0.0842227388760648,10.364982083876498,4.090900957108261,4.7282518100628295,-1.9533023424021394,9.637199691311253,-6.83606814441805
0.588,17.96910531215815,4.3340491245124895,13.521879333603124,7.059128686674967,9.221490343276628,-2.1794378634508575,9.144875951527183,-10.946838937624534
0.592,25.3820777152863,8.15240389583903,15.900285799982498,10.665406466344393,13.596771117529897,-1.6743894175374407,6.403563749992145,-12.774033199150836
0.596,28.5576212186279,9.706192876987416,16.736564940382777,12.40254390682776,16.322929066921915,-1.7719611959255417,2.6812515440076368,-13.123482347024265
0.6,25.246446278103804,8.362633127985077,15.772841653358228,10.71953512760524,16.669100792222707,-3.428967689595538,-0.43814217485123663,-13.326525111323917
0.604,16.716741460043522,5.235642715799031,13.52233889075751,6.078304713807029,15.167618136810006,-6.527033507760962,-1.6693912714240469,-14.143221133770567
0.608,7.096933633413869,2.6570939903498356,11.04025203588435,0.7756670529518033,13.22917427546497,-9.889680876681723,-0.574699295585333,-15.234442828236752
0.612,1.0114002777586393,2.805710710513722,9.261248566163204,-2.400042726146239,12.106051703116577,-12.006010309932208,2.1659681623425513,-15.58150144145452
0.616,0.8920085189955671,6.287534852809927,8.295892946475874,-1.8758537783564861,11.870666935751842,-12.003400815986197,4.9117163685662035,-14.507773120283446
0.62,5.562211574899038,11.554543945150613,7.183009254751369,1.6928935874079798,11.118201740141899,-10.247759592137527,5.671497991277192,-12.520819092545025
0.624,10.935292729073694,15.60167792216771,4.355723513915109,5.740309581800261,7.683639626497325,-8.203866175429312,2.969104968699412,-11.295723610756113
0.628,12.431559168978652,15.619328936449278,-1.371557854316734,7.274430084307369,0.011482246778427907,-7.611543534871316,-3.401446190252045,-12.679806085603559
0.632,7.693012426955306,10.66880641645946,-9.88073682667175,4.654961092374606,-11.641387149839147,-9.462525256464005,-12.127242201053832,-17.319641229355284
0.636,-1.9740254807835527,2.4034892713070803,-19.482701228494875,-1.3961833136435189,-24.93570406439494,-13.400054015148953,-20.79720072619125,-23.875441235180915
0.64,-12.251062728340912,-5.6512079339950105,-27.57317456461385,-8.132033957965064,-36.358167418037624,-17.87476745502022,-26.8518721157468,-29.434289046095273
0.644,-18.18493648055494,-9.919226089946505,-31.93033887354568,-12.28098896235872,-42.87049950348489,-20.98305902213474,-28.684226981484926,-31.036145525724578
0.648,-16.945472200294148,-8.692795824262134,-31.908456397446912,-11.846335705646311,-43.36421189695682,-21.50393274678845,-26.339743611259337,-27.427266887719952
0.652,-9.39829981219566,-3.0632252914974742,-28.821497911132838,-7.178450739229447,-39.11883398416421,-19.528824538213712,-21.42792044677776,-19.975209621485646
0.656,0.34819160878612365,3.6640215527525015,-25.2535196840322,-0.7542801598539199,-33.02532022032983,-16.363633338540467,-16.319805991277917,-12.145968704581492
0.66,7.105572073550547,7.7461791083854905,-23.629556120391726,4.160450781759323,-28.023443674623195,-13.79199622494616,-13.022520045933675,-7.772551235761512
0.664,7.297292912182684,7.018508623901084,-24.831454272313522,5.196227257838132,-25.636700202656982,-13.143334295639079,-12.313130433799415,-9.080439269879662
0.668,0.7265057321328641,2.0089787641491057,-27.7076541063351,1.9802249413679647,-25.429244436282488,-14.665641004499548,-13.568435987681369,-15.591143493001255
0.672,-9.492678877202934,-4.453597387243576,-29.778469080399077,-3.8987642231335258,-25.608611208467664,-17.49940689986397,-15.328319451054767,-24.488638023390877
0.676,-18.69939995601453,-8.875077258483543,-28.75855761892967,-9.933791567669118,-24.345092100683814,-20.21852178472841,-16.272394120498802,-32.19211412185291
0.68,-23.079172605437293,-9.007027742108335,-23.984620333426847,-14.046627683245447,-20.958881339073628,-21.590822332118933,-15.996645773525984,-36.17988939007682
0.684,-21.413766725630126,-4.948924618575347,-16.871076444429377,-15.474174522955423,-16.264408108254486,-21.14436153722545,-15.131964144453264,-36.04122475068618
0.6880000000000001,-15.404211195549237,1.07490192558339,-10.155553226508403,-14.82745370389216,-11.972851085706907,-19.292461563531788,-14.793932740008358,-33.30025814196449
0.6920000000000001,-8.527117588969872,6.06731342125147,-6.371817875594843,-13.427954740578457,-9.589097166919487,-17.016033424697298,-15.74076407026439,-30.26705882858778
0.6960000000000001,-4.154665487151192,7.919504040770391,-6.440818086335412,-12.422191829435974,-9.517440105878052,-15.31900567988123,-17.77178183931187,-28.69009741557261
0.7000000000000001,-3.957453692848958,6.431872378314665,-9.21212719362154,-12.216455859652683,-10.919878902962864,-14.760755277611338,-19.782438421137158,-28.973071472108472
0.704,-7.321807203232311,3.208553396560319,-12.196997372268754,-12.474545683970973,-12.35420761934671,-15.270624656622203,-20.444080042658584,-30.321774663946485
0.708,-11.940895010632403,0.570576634232566,-13.06431348009204,-12.5728011523629,-12.764338741903202,-16.289883757437906,-19.09725673109301,-31.554249103055554
0.712,-15.143929924755184,0.18600646608592797,-11.002677336448585,-12.13374373741783,-12.167807396262958,-17.11496807169567,-16.316013001930514,-31.911466902613256
0.716,-15.230105388528273,2.2094713842371334,-7.159822649104967,-11.284326433832803,-11.619105689628157,-17.245256866566365,-13.735711333529025,-31.3688265407028
0.72,-12.196946170761066,5.331924054136664,-3.9538299852750924,-10.539753588343956,-12.529401854925197,-16.585163853319045,-13.188997573339748,-30.383575441928883
0.724,-7.588478685288408,7.646785668752045,-3.6616486560246244,-10.434140718028175,-15.760604482241888,-15.444267826505893,-15.641550272405993,-29.35416396732387
0.728,-3.6448465869783604,7.754694174718793,-7.136701096283559,-11.179705948554897,-21.059316614387683,-14.34149962630886,-20.537094989793673,-28.253278970813426
0.732,-2.192683008366373,5.502256584504153,-13.357070524972926,-12.541063769156267,-27.131718782389612,-13.70776999201189,-25.94977419407894,-26.68565368138445
0.736,-3.808411588622789,2.0040714746467643,-20.006258596511316,-13.968679647414433,-32.269860006733495,-13.649136828880273,-29.515663248427018,-24.27419799399047
0.74,-7.588720277862194,-0.9883825968493056,-24.70585563235187,-14.864730779018714,-35.144973577146345,-13.885421973313782,-29.626408736585176,-21.057115905940236
0.744,-11.593914316466567,-1.9461559415175884,-26.140196459541812,-14.794260970116397,-35.29336646657674,-13.876857263921238,-26.20914784889146,-17.56986970988214
0.748,-13.786051773638235,-0.2288133627914135,-24.50682530741085,-13.597888240892985,-33.103253439651326,-13.104835671822116,-20.71714551370701,-14.563212174471232
0.752,-13.021204366662175,3.7294229063947455,-21.148279882711904,-11.422053229140033,-29.415228060348,-11.382446179469753,-15.346855610546982,-12.589071150105951
0.756,-9.619000713519085,8.744795575183787,-17.66433849597439,-8.68346504532201,-25.016108623026184,-9.013923660421028,-11.925489058594508,-11.71589224388299
0.76,-5.243439083133012,13.46814329017451,-15.090476052543693,-6.00806190584035,-20.350985917096637,-6.714402955107062,-11.106554074822043,-11.594117602894585
0.764,-2.093646687075932,16.962392862066963,-13.554779843453048,-4.09404755864,-15.548381057861263,-5.301479472301594,-12.233449427281926,-11.79037810218665
0.768,-1.7766566239844792,19.03156456550124,-12.51436332591254,-3.487706296258466,-10.653791392256494,-5.305607627934478,-13.882468036363548,-12.091073199450875
0.772,-4.4340811572456005,20.190660622001076,-11.323432841531996,-4.334323997298952,-5.860302834497986,-6.701200780488421,-14.758800147034322,-12.558671367019087
0.776,-8.574899892112114,21.350121110420844,-9.713569499012067,-6.2205527552744115,-1.5614398167061267,-8.903019101049495,-14.384122616463515,-13.328209340627382
0.78,-11.794691546649801,23.32818541942629,-7.935403573211488,-8.280459655483355,1.7550903377112377,-11.061557129373568,-13.225916154525407,-14.363137703889038
0.784,-12.0541947142666,26.40594926056508,-6.530589554493702,-9.578919584135292,3.6905832508607546,-12.496638246830685,-12.288342949429875,-15.378271855475191
0.788,-8.821326301143984,30.122900907198982,-5.952092350401244,-9.59227424009805,4.067915397880142,-13.011494093627448,-12.43902048239056,-16.017470340762088
0.792,-3.4653866619490827,33.39862433450725,-6.308049949169231,-8.54096795734074,2.941932713513438,-12.933113666611575,-13.899219666623367,-16.182215269256517
0.796,1.3748302307612903,34.98605068743109,-7.338536501694136,-7.325834057610962,0.5542601774062632,-12.858595557330318,-16.14135197821622,-16.19900366455545
0.8,3.130241406366963,34.03894620689982,-8.617301468725088,-7.058620426612151,-2.7217801437144544,-13.253431942239558,-18.2274195401194,-16.634667721383494
0.804,0.6279207263922331,30.52818033357437,-9.820645958400803,-8.428898752402688,-6.42949540456226,-14.159893072506861,-19.359335016432738,-17.87414520313314
0.808,-5.301216239340135,25.30187242058264,-10.894956562196057,-11.256143267575453,-10.089676724661842,-15.183321443307818,-19.308185170320712,-19.729915471091886
0.812,-12.289794121431157,19.724642113504956,-12.050352867083006,-14.52023853049468,-13.313374282629752,-15.75979290363398,-18.505774535506816,-21.399123998309165
0.8160000000000001,-17.695639241748154,15.083179447709995,-13.620710085088888,-16.87676620632783,-15.953795120739699,-15.535024757227234,-17.78929192162059,-21.883662729716207
0.8200000000000001,-19.895151079406503,12.09551111132555,-15.846885565224227,-17.34210354081347,-18.175558312891496,-14.601985536975349,-17.93285875006916,-20.615890133684275
0.8240000000000001,-18.920436652359683,10.76473727238556,-18.694299113592137,-15.760262389281877,-20.343490705125816,-13.448719545332438,-19.235983986645692,-17.88106441357604
0.8280000000000001,-16.1343458294005,10.626381805756296,-21.776747403894205,-12.789893543001483,-22.72917156174549,-12.645703581943508,-21.36107501424442,-14.712778108116254
0.8320000000000001,-13.183632918867886,11.215658081678896,-24.397483793676997,-9.432843433959704,-25.172074976588874,-12.473534384437471,-23.4832355653931,-12.287412453275579
0.836,-10.930331562380502,12.442532742746266,-25.693741899433007,-6.404622942585718,-26.902868778105244,-12.717596810689201,-24.63811555168354,-11.15924567549689
0.84,-9.04650890219932,14.597570640854656,-24.903156659100546,-3.7817269392003254,-26.74391515978664,-12.80020640633802,-24.143861828437537,-10.875552134531063
0.844,-6.479948652789858,17.993325138225146,-21.676314273915636,-1.133052526575682,-23.655062083362054,-12.148199414966484,-21.90425708148524,-10.259837384590128
0.848,-2.4135361451625954,22.52290106971799,-16.29608650207564,1.992461132194137,-17.349154829618897,-10.5626167801247,-18.43357319401855,-8.20392964952066
0.852,2.927613671318227,27.454283115831288,-9.67926427750524,5.561070218377893,-8.620563150419116,-8.370775997907003,-14.59347967928727,-4.44067885189088
0.856,8.16008556843451,31.631289639329793,-3.122981248192559,8.873452236091794,0.8321631586235867,-6.258944219847081,-11.181067679898035,0.17027359124165287
0.86,11.390580184769135,33.9714671837487,2.12631780459526,10.833223511597168,9.033681155079279,-4.891855691994579,-8.589535833612842,4.062153763803622
0.864,11.251465964775264,33.98229012542589,5.321784157546318,10.53477485544363,14.51970595164832,-4.54763508993085,-6.68371967207969,5.864982082198026
0.868,7.670273834865554,31.96081206958388,6.449043321141488,7.794810738867739,16.85201985026191,-5.002475442462014,-5.000486339743418,5.202873550453262
0.872,1.9416147300784132,28.76793525794875,6.121971943154762,3.316657310988319,16.59935049197125,-5.715853178709267,-3.1579594189140607,2.8713823820062316
0.876,-3.9181608608680563,25.3468487652909,5.204444132577748,-1.6035162786810702,14.840602616589962,-6.190999465130517,-1.20684072542565,0.30393960160978395
0.88,-8.109980665864441,22.309369192611882,4.361528218547363,-5.629115913190617,12.527586973929033,-6.2467554514084895,0.2982512523601031,-1.2797530207386671
0.884,-9.7578265269847,19.84373114309156,3.8016972188147236,-7.890547292504607,10.098922071235108,-6.053117886058374,0.604361503674113,-1.5274327671459105
0.888,-9.060964834784897,17.939710838568203,3.346703473287505,-8.205052156656222,7.546820043672966,-5.908281807055175,-0.6856482123728256,-0.9745296863805493
0.892,-6.881710190935564,16.72244613690927,2.7547842892086294,-6.940999536926881,4.82541482688498,-5.905639447123406,-3.1530887438951822,-0.43413605750600937
0.896,-4.164237459350545,16.574115179449223,2.0440481259525995,-4.716373511895199,2.2243702016296254,-5.755478002220116,-5.547639619899655,-0.2586654043282124
0.9,-1.604883305387716,17.858000597735725,1.5301522390485616,-2.1890467940959297,0.3337000694818357,-4.945363971387451,-6.364414770809219,-0.05912759937791634
0.904,0.3781359795206072,20.470053147398062,1.559010572621446,0.02209482423904774,-0.3849731762296642,-3.1450682756509423,-4.763574034548526,0.9262225510260578
0.908,1.4744975266903566,23.556344938110442,2.1123270483158194,1.3219063429221478,-0.1382441403564485,-0.6107581478124757,-1.2766337708458195,3.0343274122808452
0.912,1.3126256989123135,25.647365114786,2.5383758724850054,1.1187639217050673,-0.055575509238224186,1.671699094473297,2.131117667468061,5.506260449080401
0.916,-0.44357896267001706,25.285007217187456,1.6949288157185833,-1.0399633710258058,-1.814825191530531,2.28594990733086,2.828102124504767,6.5167865017167514
0.92,-3.7983868278819273,21.823367239919776,-1.4887722230982376,-5.210537088922365,-6.745099135954263,0.04765138671859859,-1.1612046948876014,4.028609341906645
0.924,-8.164451214885673,15.934758396710436,-7.31011331967818,-10.831733543558357,-14.883031802504604,-5.30460387652397,-9.968795074622903,-2.969926863071464
0.928,-12.371546298527846,9.503084672712589,-14.834645215008777,-16.70594557222671,-24.541019061477698,-12.752834166817365,-21.472381261702935,-13.565551640428566
0.932,-15.046008035428656,4.889992812438379,-22.01352704005751,-21.282434947036677,-32.74249533376445,-20.215887034736397,-31.959396444737422,-24.953735447041254
0.936,-15.184104898436885,3.9385795573444966,-26.40240652652534,-23.157914129196342,-36.392627348366034,-25.296976811540162,-37.6185613176217,-33.4926065432478
0.9400000000000001,-12.58183956221501,7.22996210421411,-26.163887539628035,-21.57393929805005,-33.6231747208613,-26.237369435784785,-36.14715777908464,-36.26219691286076
0.9440000000000001,-7.896845826813433,13.950919210560869,-20.864077871951395,-16.689824909780555,-24.621469406684923,-22.638975219931126,-27.679807267089814,-32.32384008732106
0.9480000000000001,-2.3505937701545463,22.366396186030443,-11.693373589294765,-9.53544978247919,-11.552511659371476,-15.622933093838583,-14.63018130381829,-23.047653605769028
0.9520000000000001,2.7648403747771226,30.583271547003392,-1.0143989507458855,-1.6842825493704368,2.349688096418163,-7.3544420669798,-0.5804844129265803,-11.404028090146767
0.9560000000000001,6.513695676625957,37.2133312625283,8.552560491740223,5.221036221587838,14.050216415055502,-0.15370093210140112,11.18069669903548,-0.6291341953522078
0.96,8.474215156917353,41.629543942797454,15.057993337105131,9.900046131364434,21.69835178739936,4.39257594625542,18.7651841095078,7.006085652705224
0.964,8.668839147084554,43.84915749878701,17.78755143491844,11.720430171858766,24.940172594705132,5.921847810559711,21.996674432693,10.76633866350312
0.968,7.4068314455469135,44.245231132868184,17.27396670184089,10.795541983815838,24.556120526084555,5.208482366116414,21.945299699041698,11.241695645283016
0.972,5.1507820357230685,43.30322503477623,14.827276609274918,7.881461774159106,21.75816408868559,3.597603125635942,20.095309662872978,9.650232886901904
0.976,2.473054706214498,41.564675275942136,11.892973725166144,4.117726938990927,17.612896432186858,2.277925629240599,17.641410054684002,7.14879066612184
0.98,0.022164912428024763,39.650136377854665,9.511153938969755,0.6640733702236048,12.828757492794011,1.7534421189748173,15.18879006941006,4.501387084048474
0.984,-1.6015435123924817,38.21786992997295,8.070953794961497,-1.6640393067543755,7.883956363827906,1.7503466930961622,12.893193200105088,2.1441814843492466
0.988,-2.038692156912134,37.79269586403234,7.3848795243364975,-2.6269154561061896,3.2577534782388966,1.5525798974017562,10.778819158167607,0.4210159093463517
0.992,-1.3558644421568715,38.51808047853115,6.950890400731282,-2.5734426544454436,-0.5018060551807366,0.5307001097685315,8.936149232561547,-0.2878388513079244
0.996,-0.08061487395355016,40.01493043429923,6.254048888637044,-2.2147989869408775,-2.9488589252127895,-1.4419698189085466,7.521991799188072,0.30375230804406783
1.0,0.995937097379624,41.485201034966394,4.983361695016015,-2.255493937967003,-4.013523180625043,-3.906571721646287,6.611791615549464,2.114662111920552
1.004,1.1509033106081006,42.04200544293849,3.11229432977143,-3.066033104047392,-4.138789555903486,-6.092440457662178,6.079375824006092,4.527381047603285
1.008,0.03532990592884744,41.11849683481853,0.8658637940538938,-4.558583567746837,-4.128768077171117,-7.369538180072595,5.630789025837203,6.49524209573724
1.012,-2.185822265718798,38.744368090427656,-1.3682862021471465,-6.299367903547136,-4.740710488015907,-7.594225462365102,4.97140986233353,6.948917436607644
1.016,-4.907666638448063,35.55711723230297,-3.1428544991538274,-7.760050807848074,-6.231512901088081,-7.1471214244502335,3.9886147679899295,5.312254578825559
1.02,-7.315831407389169,32.537670764172844,-4.056067269345249,-8.56220156409745,-8.146977897303941,-6.647736219848412,2.834450068449314,1.8165103509263645
1.024,-8.669569058562502,30.61487051727545,-3.843589929362679,-8.583191594676464,-9.495122765914516,-6.532872054914151,1.8420408092749767,-2.5627800533698064
1.028,-8.502588689927961,30.327694593459455,-2.450301097485635,-7.899273306592022,-9.243893225303736,-6.770174731433144,1.3444290935933623,-6.507499375270527
1.032,-6.739095293705759,31.64614426865137,-0.07643031080624496,-6.686662488588354,-6.902699369413767,-6.899072512874682,1.4994695516202228,-8.915196070827278
1.036,-3.762781879343038,33.9825639276869,2.8269600163189352,-5.198407261652392,-2.877084602924242,-6.391468881786295,2.201771729602342,-9.341152453197992
1.04,-0.3969476819947886,36.36472831405217,5.626325966573631,-3.818978900873617,1.5983528088338517,-5.0968501020443,3.095530954215974,-8.097537807543631
1.044,2.24518439722533,37.728554227997165,7.660846851481438,-3.1046805632634005,4.942695979529617,-3.481000985245373,3.657435941745007,-6.024371688288738
1.048,3.0808524475246486,37.26782788920309,8.45230011802255,-3.6740499379384346,5.914425904623613,-2.456190236247494,3.3580171254825473,-4.067586412058972
1.052,1.5273587227570715,34.77075435944266,7.906838045416862,-5.895737473440022,4.19395927738401,-2.8627105614564243,1.8609594965714678,-2.8449062609420253
1.056,-2.0758380343372664,30.82828724725823,6.423277944251595,-9.515918455808787,0.5872840963345425,-4.915456590410486,-0.7743911745806145,-2.4168872668342374
1.06,-6.391008718597732,26.730768553049074,4.7957527984567605,-13.513695643194751,-3.285805449552072,-7.9544817910850725,-3.972670822357486,-2.3424816897095297
1.064,-9.507048812583207,24.01653741271616,3.9165239858839414,-16.377798912519665,-5.6864577752132845,-10.688003218691847,-6.721403904164617,-1.9753529111940225
1.068,-9.775815823933726,23.794845526820154,4.38105282700235,-16.76383667795244,-5.5326942491808495,-11.838596629260337,-7.902259558936294,-0.8465668843077765
1.072,-6.701062050087785,26.115650586106312,6.140447118193151,-14.247164953955235,-2.938495255125872,-10.854332884689484,-6.824171196823045,1.015758717857807
1.076,-1.3683415715311185,29.76318889776303,8.416148767112645,-9.702607212253497,0.7747276151562801,-8.246122932313938,-3.710247553978661,3.0214732721001383
1.08,3.9171184842523417,32.68077700080153,9.963518212535291,-5.015283437934613,3.626313442630817,-5.329240770983233,0.16564738617580588,4.258626445254777
1.084,6.704222145272752,32.921062141486345,9.61441102167987,-2.1757901060536824,3.8717708527767627,-3.484277798846051,2.898389563064029,3.9588679476128164
1.088,5.653570294413839,29.666116595764606,6.843877828052882,-2.2258153321649843,0.8203002711532008,-3.361696311464584,2.79773406580307,1.9463799284494598
1.092,1.284657116166045,23.766273311292707,2.0806835770004,-4.661621377257688,-4.817550954125863,-4.510746748481324,-0.7144986207013062,-1.1656954769559889
1.096,-4.256450344458244,17.442698939982392,-3.432606624853861,-7.688260170059493,-11.24541524909796,-5.665360568543292,-6.660390806054693,-4.177607910850384
1.1,-8.346841286140943,13.219547979344043,-8.20441861352856,-9.247436506622307,-16.438206645138735,-5.534156494911713,-12.84160777963416,-5.866505928700917
1.104,-9.343954711674542,12.626713360345548,-11.196289021134817,-8.24403826320713,-19.11039030009738,-3.638709566156649,-16.865011682816657,-5.6580414900086
1.108,-7.526695289681811,15.371111900058622,-12.300061351828845,-5.249972630414959,-19.30589403647855,-0.68540604762984,-17.3655447147039,-4.01947133913427
1.112,-4.969460774309482,19.445985080870287,-12.334573810285747,-2.262558153970076,-18.31186264860321,1.7702922815556121,-14.771797262904784,-2.355934802937554
1.116,-4.348384381451979,22.176744020652222,-12.533367940174003,-1.5935024780451386,-17.9099728896565,2.2073024144237934,-11.117054142241159,-2.4016408598859016
1.12,-7.35424595785571,21.61662796819428,-13.835113433633069,-4.532688360150587,-19.393050516939184,0.04808705342293251,-9.006001088508583,-5.377042894369424
1.124,-13.609304792930743,17.552604950074965,-16.360890665148872,-10.561522029094249,-22.87325819640955,-3.955971899799806,-10.266789162977602,-11.358632986754856
1.1280000000000001,-20.717765947591943,11.5908788892134,-19.344035182212792,-17.56483014414789,-27.23200159228577,-8.0899356587488,-15.004044927539326,-19.18604178472833
1.1320000000000001,-25.480767559553897,6.269717677706922,-21.555831052731264,-22.947186303946182,-30.740407356141304,-10.605125772760402,-21.580063556933055,-26.975159521154637
1.1360000000000001,-25.615620915566524,3.725220278645793,-21.972929743718396,-25.01530986787202,-31.98839256201404,-10.689057149441396,-27.525529002002713,-32.967271920608255
1.1400000000000001,-21.033581285563287,4.638297052159942,-20.308194482876388,-23.83715198963546,-30.600888287880252,-8.903962467192287,-30.8347852703223,-36.24976478583358
1.1440000000000001,-13.967333762246653,8.018810421589933,-17.11084762982955,-21.107301544438542,-27.35436726752414,-6.860639917355002,-30.918138437706602,-36.99497201314989
1.1480000000000001,-7.872443988507257,11.88221820515355,-13.418841816108397,-19.118966322074357,-23.661035115318555,-6.318556092363906,-28.713185740243716,-36.13420467902324
1.1520000000000001,-5.692601054736315,14.368981661555154,-10.218668342178717,-19.460519430669592,-20.77217902266466,-8.231366640937267,-25.970244777288826,-34.7209284483597
1.156,-8.404526452720802,14.673098494769874,-8.029545027742643,-22.16994076512492,-19.16817024235843,-12.263100148490594,-24.194122020938266,-33.370468813904154
1.16,-14.589769742708995,13.292925776343964,-6.828803748418977,-25.790333675023703,-18.466762102603298,-17.011454112366664,-23.866218240890703,-32.09931300244898
1.164,-21.21777120786919,11.552199638814727,-6.301568235781815,-28.24202610814382,-17.85380576410944,-20.782870157943762,-24.360602224687682,-30.611340132662008
1.168,-25.208239385446632,10.731968538954789,-6.208590063618431,-27.98492070780867,-16.739503990744197,-22.457064458995774,-24.55444253463429,-28.767780148305064
1.172,-24.9180314083751,11.36715374990763,-6.577861383627351,-24.79449334648143,-15.193283734639408,-21.948033453690186,-23.65131983727224,-26.86418998111185
1.176,-20.811475416307985,13.0767345169088,-7.600812633153055,-19.76666605346327,-13.895234499856997,-20.0572402502994,-21.680607099378904,-25.499450777052516
1.18,-15.049814797790077,14.930649442983395,-9.345419482099715,-14.638846376617039,-13.676669067360763,-17.891616463879473,-19.412071447707604,-25.109274752880992
1.184,-10.283513523696456,16.06331957810653,-11.52160309109604,-10.865827573502429,-14.9596752847674,-16.226180548857883,-17.777795155123385,-25.5013221272593
1.188,-8.331126581686021,16.127297450032984,-13.501476155603086,-8.97543026486619,-17.461704781511344,-15.172156553806417,-17.217645503710628,-25.756958818737985
1.192,-9.444457287006571,15.326763907690292,-14.625729235990548,-8.527760035002757,-20.351681191697935,-14.309145338775124,-17.393578183563477,-24.648082046111995
1.196,-12.43690952966017,14.107613189617041,-14.595632150697384,-8.595518425586306,-22.72240712235225,-13.121996978371499,-17.430989477430558,-21.364543078778297
1.2,-15.494711152734908,12.768452533372056,-13.683720762161101,-8.405781058643697,-24.06176646728818,-11.411545305316395,-16.506080671468226,-16.121359772100732
1.204,-17.15310451334426,11.300861227275618,-12.582962930407575,-7.728613775533631,-24.397866667223752,-9.42139763346222,-14.379522068857113,-10.21674232515943
1.208,-16.916732776554454,9.548459655323768,-11.970674339009747,-6.840138252768156,-24.06660414558928,-7.644622908583187,-11.529079840896884,-5.472543140112066
1.212,-15.221443893432934,7.560031843672732,-12.03852176718874,-6.141508958076884,-23.276530105092206,-6.471724133157295,-8.822606906093824,-3.3053264026375473
1.216,-12.892743754992352,5.834734868353735,-12.31284719611449,-5.753516738753206,-21.811381551785416,-5.939374574511021,-6.977331770024648,-3.9667885014614512
1.22,-10.530438418523318,5.212390220803627,-11.91364087357124,-5.405200749520191,-19.134441792367397,-5.756554953016348,-6.1672758231015905,-6.410701245930795
1.224,-8.21881043496387,6.424015199020232,-10.109381533387932,-4.673967243034895,-14.847622735583627,-5.569633488887121,-6.012662311481108,-8.875828050413475
1.228,-5.7069099077366445,9.565118696726586,-6.841480492480969,-3.401903284153377,-9.214664351240572,-5.2681094166564435,-5.939950961307659,-9.86874109020755
1.232,-2.890711976308012,13.821762463631785,-2.8926788541912174,-1.9799948168474657,-3.3717729898735342,-5.086866916258259,-5.628771969427362,-8.974417454643117
1.236,-0.21396044574657935,17.682971592319973,0.4346184671539959,-1.2543667135014402,1.006415700232992,-5.429712417036171,-5.2238405210036944,-7.001503859631157
1.24,1.3587308030732856,19.591224756527026,1.9727954715881424,-2.065436744278486,2.4601523392843774,-6.534827300970392,-5.164217259884936,-5.395739355943988
1.244,0.8627097312792102,18.727106709255168,1.3181905981200543,-4.660022407921133,0.5407670611812136,-8.188996132100328,-5.749315875536922,-5.270765232494341
1.248,-1.9800126220734455,15.474217094319101,-0.946549976249571,-8.364408788686887,-3.838593264663814,-9.72533523065158,-6.7836611708726196,-6.6799465280337245
1.252,-6.331934555244516,11.301002834198243,-3.5555136329385277,-11.742602894036281,-8.73764693733574,-10.334522041325727,-7.554577264379077,-8.570324662619896
1.256,-10.411037727351868,8.109561045785995,-5.19547350034145,-13.207931048669707,-12.05614719346704,-9.514446243866587,-7.2043732242891565,-9.434997465439665
1.26,-12.277420687973063,7.35108458887089,-5.130737729498378,-11.80012556687052,-12.515531809158347,-7.399273730571622,-5.26228230579909,-8.259433418837034
1.264,-10.815717728900381,9.385509710456517,-3.4574998377720476,-7.683880944746306,-10.218136707980648,-4.7476211960783985,-1.99477745695458,-5.145405904848303
1.268,-6.381959499760342,13.372693111805347,-0.9137140915981945,-2.1057511098279065,-6.524555340898587,-2.5845380588652915,1.6497472703840685,-1.2519605021989264
1.272,-0.7432033274917558,17.70287660176291,1.5719585840652144,3.1636751700116292,-3.3480772397106193,-1.7038081192495156,4.478040698136283,1.8991281774096933
1.276,3.721430121742742,20.740292951672018,3.3151478254631,6.6195571461094005,-2.241919335120201,-2.287041954456072,5.614528286767381,3.3074179418727
1.28,5.1586925413466815,21.493694452867203,4.05899739202232,7.645910634889333,-3.7431116364073205,-3.843709343511364,4.8699976647185395,3.0325111145812116
1.284,3.124041144041257,19.926391163220615,3.8689251742198394,6.661306965811491,-7.263238056577848,-5.509108319043662,2.726142557525236,2.0398742332708935
1.288,-1.2321122929315607,16.841396444491693,2.9205541135233943,4.767768902094758,-11.48076847256516,-6.501175484518171,0.0047479458817178966,1.490292480069911
1.292,-5.7602543664788755,13.482666453754064,1.4002995257678776,3.142950707689124,-14.949423755499083,-6.468945452241314,-2.524684281342161,1.9682795491844445
1.296,-8.356614065287431,11.089863456889361,-0.3938325653807624,2.516802832715257,-16.583126224693842,-5.583701070345342,-4.345074878436208,3.161376586827828
1.3,-7.937982845410261,10.542037949617225,-1.906645522522922,2.9542756595164974,-15.876289618076498,-4.352752997065181,-5.152838195700497,4.155600137593865
1.304,-4.871375975479168,12.163874828606822,-2.3476278930684202,3.9965631390377894,-12.880212797445438,-3.306651254166354,-4.713344237003184,4.103921663632718
1.308,-0.7064123680274861,15.656161781067567,-1.0095328760426128,4.991644661723512,-8.08803451683525,-2.766969476484519,-2.8469203598069726,2.794187201823661
1.312,2.6058300037266235,20.125194238446056,2.2265920970958177,5.3967826725247505,-2.3489529387443326,-2.8047652109780756,0.3778651891334448,0.7185240612398047
1.316,3.624740639569609,24.268545680639363,6.544293774661128,4.936893455384961,3.225675099041837,-3.352775742969243,4.389523923468005,-1.3660598674741777
1.32,2.0142671497687843,26.723871622051774,10.320222488738182,3.594636187816832,7.4434657886158675,-4.3509891033627355,8.058497236008407,-3.0281897907298116
1.324,-1.3784814026512322,26.56471918589432,11.81036526189655,1.5536781075825274,9.372902816525311,-5.78660341671457,10.03593333247045,-4.440051887228037
1.328,-4.9449741976623045,23.767451545710173,10.097241224346362,-0.8207363353621986,8.755486592987836,-7.602530591482719,9.418774870977359,-6.111356334273296
1.332,-7.042363971189843,19.35930321647993,5.741306930560313,-2.9983549849703195,6.234305108147964,-9.568847531159918,6.36950854155657,-8.289549969969812
1.336,-6.695105168526425,15.08769117230986,0.6845549613844923,-4.366459515373208,3.195561051812547,-11.247341080892511,2.256084670447308,-10.501716468777886
1.34,-4.01559115476357,12.646134085767699,-2.6775706902153615,-4.45292447267002,1.1777392914609663,-12.133072303682638,-0.9229778633925889,-11.63647208452312
1.344,-0.21611978144210298,12.78326056291553,-2.8201254121458987,-3.2476212142482836,1.0755305290877004,-11.929399096285124,-1.6150705272721098,-10.658558444096343
1.348,2.8747562998332796,14.824275987928559,-0.032706433414205094,-1.3824590376498236,2.608400962523774,-10.76845078628321,0.32177917461922334,-7.484712929110174
1.352,3.5985031780546706,16.930612466930143,3.6229395582313373,0.011781502629673923,4.403171768050015,-9.211505914568988,3.3822829968667065,-3.3782834512348927
1.356,1.2355160979559514,17.049710813449565,5.3932916518888305,-0.1993350644770544,4.7087747577206756,-7.990906582434036,5.1619496547045856,-0.4748306371966464
1.36,-3.568955316013671,14.075037967912067,3.3691828665305366,-2.5058644103592087,2.3735177694952654,-7.6108056659450085,3.7265549168441794,-0.5968396041644155
1.364,-8.989835230072458,8.564126400494388,-2.376616750233552,-6.330571909955324,-2.460401769222699,-8.036061168750166,-1.1457974520453718,-4.043183299614611
1.368,-12.806701948455157,2.547434987134693,-9.746474213844522,-10.149515265282389,-8.37635870235772,-8.683776631229193,-7.619658787647495,-9.148348821781838
1.372,-13.424410063596042,-1.52028307463479,-15.73145358286638,-12.165221492152341,-13.425352501600173,-8.741189542955908,-12.649199935283832,-12.990092043173718
1.3760000000000001,-10.688740329350367,-2.1154544937726314,-18.0605881016254,-11.250212235485378,-16.175245460321094,-7.641540154201721,-13.60356358894569,-12.966878388881014
1.3800000000000001,-6.044751281276149,0.4730289966601049,-16.42612674391603,-7.632951850529935,-16.435338077118104,-5.4149516767338355,-9.760487854275198,-8.33619796525636
1.3840000000000001,-1.84483426639963,4.309834391531695,-12.543227048134213,-2.8699946182532585,-15.207775316614061,-2.6966054144540976,-2.785246220164481,-0.78796957007944
1.3880000000000001,-0.12940187565982342,6.955339051804913,-9.021169106049456,0.9305370176352881,-13.912276073986504,-0.38284919223588076,4.1140653365364415,6.328895084981923
1.3920000000000001,-1.5109123407200968,6.920772118194691,-7.754979805033145,2.2412568436830043,-13.389033723967259,0.8655129673552437,7.891144191029525,9.730919111305411
1.3960000000000001,-4.770647303001169,4.58499832319103,-8.800623221504793,0.9760037752730568,-13.311138079044213,0.9783640125751845,7.25685458249427,7.907945548511634
1.4000000000000001,-7.479550155821016,1.9705127877832638,-10.434221267140856,-1.4650024159673194,-12.414410281764503,0.47338099927401345,3.241853171330149,1.8282935941369942
1.4040000000000001,-7.349088217927601,1.4977840370465856,-10.331499937646186,-3.0171597349399235,-9.393031058913948,0.09971817158657359,-1.5399861404112016,-5.710942413848898
1.408,-3.573006444454222,4.449289384950134,-7.13118190393925,-2.18307305176495,-3.8888186120784667,0.3489388543712266,-4.4721135120435065,-11.670516589982071
1.412,2.601304980783425,10.081475247112394,-1.386495837120492,1.047840520979662,3.0759469204185734,1.1452590222561412,-4.387759349943735,-14.295196677227068
1.416,8.452737377845551,15.970851152982505,4.708368685187452,5.153531415269754,9.553673352564147,1.916452227595073,-2.01258513511857,-13.718615792611672
1.42,11.247544234391171,19.392304028653598,8.622436805299913,7.942700072591833,13.728784635815828,1.9931986602914549,0.7597405704509583,-11.40690428490052
1.424,9.761140752524625,18.909494936953706,9.014316852701995,7.822625522212547,14.927366547904967,1.0751945230840647,2.2342637522688165,-8.919357700937326
1.428,4.98526249310089,15.2143758415732,6.515848012098104,4.725413388072411,13.933561793111949,-0.5305469004888437,2.0326098149125755,-6.855645696594365
1.432,-0.40474842561343394,10.693509249258568,3.289206431666571,0.14018392810794467,12.404982106482748,-2.040393687555479,1.2537179642167757,-4.6608492907107575
1.436,-3.5583531173178926,7.973813423024694,1.6483189529881201,-3.775148599566819,11.746907690413536,-2.6395386495205457,1.6038401880214224,-1.3500011951364286
1.44,-3.09281065842697,8.299005659946488,2.5779623022272062,-5.485723767029413,12.126220728117005,-1.9753725948830834,4.101120545641606,3.3974571754515637
1.444,0.09667808428912394,10.749893639821494,5.100966390218673,-4.980069062856273,12.293955899038338,-0.3798711828148953,8.21847176411029,8.645405502080393
1.448,3.34353259735326,12.778237598273336,6.87705905439725,-3.743140107342697,10.343186166755913,1.2980922148381069,12.0406042679042,12.524582626376286
1.452,3.7500825760398584,11.726253640067625,5.63689483545204,-3.8231387370815355,4.933274045859434,2.14696517342054,13.333510678914536,13.31684446788313
1.456,-0.10813349001364259,6.44387656085928,0.5805787737554056,-6.537525408244619,-3.751937903637554,1.684503689451958,10.875001328708095,10.595501638028509
1.46,-7.291764839745156,-1.9518997006489371,-7.103695775880624,-11.579186256716639,-13.89489216185757,0.10941493806058133,5.231710253157871,5.662616580431859
1.464,-14.897923253929548,-10.586387499816738,-14.885173058242799,-17.033596294255403,-22.84283167551166,-1.8049933987913391,-1.4883882551675924,0.972552058790825
1.468,-19.574622230757086,-16.2951827265224,-20.252268149340125,-20.317994216860825,-28.33580515374979,-3.105978036070155,-6.732979745756893,-1.1505894063357118
1.472,-19.284647750677323,-17.18991117440146,-21.952926422333803,-19.506625070785958,-29.457124532111266,-3.1098556806100532,-8.779235228634207,0.26368430672664545
1.476,-14.299135912537167,-13.428182930797448,-20.391744935751376,-14.293310973720509,-26.785541832222407,-1.6631658523056103,-7.453433876560666,4.3909321444625675
1.48,-6.924106478238173,-6.84672476940159,-17.03240991173243,-6.1047448573099246,-21.754083251920747,0.8667798941423825,-3.945767473680462,9.187586864689365
1.484,-0.15987621350723202,0.21654490543915017,-13.282343250176382,2.6458280153638043,-15.691433146055715,3.814559168276901,0.06715177382648108,12.574155022604828
1.488,3.9074566907729604,6.146269611781463,-9.626383292328683,9.706425266864244,-9.166095935011981,6.507558665067336,3.348352624743711,13.521627179303323
1.492,5.054835168502905,10.607359872339657,-5.554207119984312,13.885235983549137,-2.023716517590401,8.469827561806596,5.56694026837431,12.385272638588503
1.496,4.731463238276774,14.237029623393028,-0.24926054427669442,15.286965825162042,6.024788155357783,9.50303778986563,7.106817773728835,10.437926589553172
1.5,4.917020524168038,17.789521425173007,6.477349585971751,14.85997812720234,14.710753806635694,9.659945079700265,8.466338845728387,8.966975348246706
1.504,6.775408274539586,21.37373085288891,13.681172606340624,13.625263256662947,22.926357545711653,9.163438340830908,9.724585480267706,8.550879778444141
1.508,9.922528771543512,24.280855100130793,19.57324736452574,12.077400684995155,29.06868890518217,8.329768341045565,10.444894466225378,8.935380905693819
1.512,12.712087543934103,25.464544385064073,22.440872478255187,10.076558267437576,31.799568271728276,7.486562770314777,10.04389685116621,9.472988065277605
1.516,13.307441546307018,24.295233430977532,21.612135222310826,7.207307356611636,30.73944686179493,6.873738206617418,8.304411125383922,9.761327754986269
1.52,10.848738342912839,21.043212162005148,17.84536199968352,3.2892400089112925,26.655628448232164,6.5453483924902685,5.646217859915851,9.993513493194769
1.524,5.99249874513589,16.778363412577164,12.913997769283014,-1.3319905966327497,21.050981995124857,6.321518146411108,2.9628066566419875,10.786075909491046
1.528,0.5200844845894608,12.775955857425288,8.659433930919477,-5.888992207812407,15.428028133012049,5.858439606818138,1.1500034427081118,12.677400681062863
1.532,-3.715670278561447,9.827738858619341,6.0882687612556765,-9.596716784524688,10.669734922394127,4.844443396745191,0.6545995626020158,15.654246849611809
1.536,-5.816560040217155,7.9290038727504,5.046185602033802,-12.047609086848752,6.8882759417856505,3.2376071794242307,1.3372208263972425,19.08485009479773
1.54,-6.202150784301921,6.496181121507107,4.576102112638182,-13.333278008116395,3.7241947750462714,1.3940161511054612,2.691640758057474,22.0791651457439
1.544,-6.113200857904303,4.932859857070071,3.673926825131275,-13.80935897699419,0.8336138484737603,-0.022235434415051714,4.21329508344752,24.019767881189182
1.548,-6.604597149304027,3.134638895860917,1.9217426809900644,-13.679679163447872,-1.7921298583478347,-0.3485657347191591,5.644531813202775,24.871648946344067
1.552,-7.682663598738145,1.5989745040315029,-0.3633655607827677,-12.69074612721306,-3.858847304916708,0.7185857940894493,6.954829700065602,25.09138174831969
1.556,-8.175112321720007,1.108199504775257,-2.45466344646411,-10.173466850517798,-5.035843934845616,2.9250730070307327,8.150646248257544,25.24239637116625
1.56,-6.435283553460977,2.216649225911169,-3.719936972618598,-5.439973877819284,-5.2006952306783205,5.5727293242525775,9.145958166396667,25.620122323980468
1.564,-1.4649563309776568,4.8939656760885555,-3.9287603599241265,1.6808065812037967,-4.449014796937263,7.89706411241059,9.846366759284138,26.175910692792968
1.568,6.228876278713869,8.537433453006088,-3.1921923246845836,10.484788058027334,-2.8776820950515685,9.474240856703545,10.386853299634822,26.745509097261674
1.572,14.575799766776981,12.285278651546832,-1.6754877982111793,19.4363134888099,-0.36564563337560685,10.400736775602127,11.265738325861093,27.36081411608029
1.576,20.754034666706502,15.380873184511074,0.6067888791494624,26.615708887813526,3.392718461480399,11.10619728515303,13.145270637614885,28.298827975133463
1.58,22.446175487464643,17.33369148552265,3.6813838935031526,30.3599445740183,8.523434119480953,11.898761036736687,16.299027646957256,29.764721018480486
1.584,18.893386691526757,17.83259081845972,7.24441749620928,29.804423895475338,14.48785697695348,12.547041256777447,20.02443144639983,31.363321328841266
1.588,11.215650010930403,16.597055572714453,10.379808633108041,25.118113390159124,19.886709140811945,12.218313854275038,22.503620949522883,31.81585468254707
1.592,1.8607180141698336,13.380270878453302,11.692804433159836,17.36898877853855,22.820473695256624,9.878554450857337,21.386455012372608,29.286446798971156
1.596,-6.457650403169282,8.234959143595006,9.94683254653819,8.142367684146848,21.757585577176087,4.976388097928066,14.96667962909487,22.282763782663096
1.6,-11.751962934152289,1.8874302928807083,4.906158265489921,-0.8698404725864748,16.493756658806888,-1.9634964153401597,3.3772741920520275,10.766200736460632
1.604,-13.255041575550422,-4.106743676862607,-2.1354690006055534,-8.183901157974105,8.620843739274278,-9.260143830899324,-10.890767029513881,-3.2328054175141006
1.608,-11.330437350032298,-7.69774099244205,-8.578020843313425,-12.717817754984935,1.1315736732467485,-14.659155259403633,-23.60202441615911,-15.976093070017669
1.612,-7.023641836893148,-7.165391509786787,-11.54885476050913,-13.913443059132987,-2.7836673337696993,-16.334793222384178,-30.390111545802938,-23.390875751982094
1.616,-1.5831604072318441,-2.027992194844046,-9.26119204245515,-11.80668672077445,-1.167010376771941,-13.77888919239922,-28.634236671601684,-22.797382488024596
1.62,3.7972763744073745,6.467968505861791,-1.9826430068678746,-7.05507783651592,5.768605427661896,-8.092061820811068,-18.6682851493606,-14.173852334355615
1.624,8.05010066585055,15.654721182196226,7.95135049849705,-0.839074025154332,15.702876547537926,-1.480820618395228,-3.6804010276755434,-0.2763759069312073
1.6280000000000001,10.30467176539969,22.505276807554765,17.154005093212618,5.432077589082837,25.270985345358895,3.8120948801624763,11.670602927380969,14.512148803427408
1.6320000000000001,10.090067536631977,24.94678174679757,22.722407001811007,10.550518545691375,31.567015279483712,6.582401546955225,23.22892090845926,26.036524371185806
1.6360000000000001,7.649045113856118,22.772457356697487,23.5130244082211,13.933473445076743,33.340521681820974,7.168433573864604,28.94131570239915,32.02697085488762
1.6400000000000001,4.123565416673955,17.649684849548066,20.49297770926023,15.819583071304805,31.291578122869396,7.125219757770537,29.328262320745125,32.759719215937366
1.6440000000000001,1.341285629394406,12.20420120892777,16.01771989955705,17.09308330939166,27.388148771849956,8.263338368622499,26.69324168777166,30.483811493832036
1.6480000000000001,1.1485251009908097,8.670228170758492,12.480951316723804,18.778987204463192,23.65697270210876,11.581671924053808,23.62481982700956,27.98908056457367
1.6520000000000001,4.523249207326444,7.811348502862529,11.09128685741598,21.432662258506753,21.133363427677978,16.674064378381445,21.622064342420344,27.12463420592394
1.6560000000000001,10.940878092997082,8.693437352414549,11.445024090971856,24.761158962948684,19.545548728041467,21.9262548546576,20.562039762364293,28.02918530405077
1.6600000000000001,18.432036613809032,9.401222951666568,12.06010862007497,27.714651013902767,17.83299444632121,25.368856939025136,19.1966139236265,29.39243094268386
1.6640000000000001,24.3898830262533,8.267147521490188,11.503751869619009,29.028386936388415,15.116453758631906,25.706104142718686,16.276498490045924,29.480179677942942
1.668,26.729771729105778,4.889185381010975,9.399385446809902,27.916134097735267,11.482059882068825,22.946745031964383,11.57961264990081,27.27694931527367
1.672,24.84815137816622,0.38791560771278455,6.716640606817236,24.556990112221683,8.098535450026247,18.32645211938143,6.23345631878874,23.11525445193547
1.676,19.89005702509894,-3.193622636146756,5.222020174769568,20.103724359367334,6.614193171420993,13.624919531670457,2.1927309517850517,18.476288044592366
1.68,14.119161151444132,-4.030792797299,6.415808497722537,16.143302527947526,8.176654753454386,10.271307365786924,1.190791244398497,15.159241300571011
1.684,9.759943056114935,-1.5359259636461502,10.601913242700903,13.897105933649073,12.67056418188622,8.72504574882987,3.7887644708480366,14.313058012490728
1.688,7.977877490078754,3.3221368846207042,16.644797934323833,13.611682191314685,18.640212636170872,8.450362279829278,9.052695112208312,15.888436081422697
1.692,8.518348624249484,8.5214001556742,22.518404578658192,14.47018885281068,23.9361514798793,8.42084628152952,15.007887899566413,18.762774090648236
1.696,10.122962539600849,12.0046428662572,26.31237703813531,15.077418186290743,26.73389444664099,7.8021172383196244,19.581427648750832,21.408483654115116
1.7,11.409490303554776,12.63398155476898,27.106304895809444,14.244667153769115,26.352810049769687,6.407480031422892,21.506705765999868,22.69210166837547
1.704,11.669819232691225,10.602074431280926,25.255009852588046,11.659132668561142,23.45899151620506,4.700004903093941,20.7361448169886,22.36229117075527
1.708,11.128954300169426,7.144182056938007,21.9957385741709,8.079719077788468,19.587703254534972,3.4001872203298262,18.208970373876582,21.039168059474832
1.712,10.579602437230278,3.7734091712691225,18.656321056987508,4.948807730495901,16.27433576721978,2.9685144673494506,15.176156481407816,19.714404759408353
1.716,10.724028141396047,1.533860068825561,15.981529831344233,3.6617145751279168,14.312997466628076,3.2984059675545723,12.509817993919569,19.119609446370305
1.72,11.719328163007958,0.6710340881272714,13.94857013249566,4.8928910647118755,13.52310372136344,3.80260491880108,10.388615442867376,19.312946586316684
1.724,13.227263874849086,0.8472526742380069,12.130104182471769,8.348220936031794,13.121239701740706,3.824523682058498,8.483854388883628,19.75288024823385
1.728,14.872869736384018,1.6539926463947268,10.277023044920497,13.010448695704326,12.381075978427361,3.093659891303105,6.453941233628939,19.72840685016854
1.732,16.708175863732322,3.0049553060707694,8.671439676525551,17.68408097423162,11.133450418926259,1.9291501773877826,4.3769159278726875,18.8889348702196
1.736,19.274068667386018,5.145739687703099,8.007309941656786,21.51880717830136,9.82426464582204,1.0656435630280612,2.8301855191602954,17.544375880650477
1.74,23.13022840561098,8.256557823278854,8.839854334830306,24.203622337625347,9.094163606232541,1.1968158562995086,2.5457521649113914,16.52083475051768
1.744,28.14497030523853,11.962289177109596,10.99621595406552,25.79416263469102,9.21200647978003,2.510918972984655,3.865179181781059,16.67959001849158
1.748,33.08642835381579,15.165365155786276,13.393649398914931,26.365577000095072,9.77448470433228,4.500240891708017,6.361293081477925,18.355738477204795
1.752,35.95388457494664,16.43806945315191,14.483743169514128,25.802745015485925,9.92838031059,6.181449643172527,8.914714425831335,21.08129015150189
1.756,34.99287099065714,14.833830575977117,13.134199338765029,23.90681678396686,9.009845527614743,6.604323528285022,10.249091101899467,23.751279260739466
1.76,29.845990330204586,10.646772215173769,9.440562672172746,20.73542289472607,7.185237008719014,5.375289192568744,9.648376089931844,25.182493426695146
1.764,22.09987048246603,5.603938416325036,4.923170415034292,16.898850158984715,5.624740514632322,2.8936713907351077,7.419712738419548,24.727744320378406
1.768,14.778532902454572,2.2463686427308858,1.9006910527932632,13.532943335660093,5.9918742434792875,0.17549900617814274,4.7962600142072915,22.59771909457413
1.772,10.942533204677602,2.720465793105177,2.3076684843126714,11.869033920780566,9.460329964883385,-1.6505151277997356,3.294265507192904,19.70765042455605
1.776,12.091913787986414,7.591873085466432,6.584609062637355,12.581351163369618,15.80982037967442,-1.916983241262642,3.8616639187494,17.10109098481371
1.78,17.27998177958125,15.332486088542282,13.258319780240527,15.289173829016363,23.1537810239015,-0.7478517743111297,6.2886241122068895,15.300455995335142
1.784,23.496721947632977,22.841776457365995,19.50361371578674,18.550625558043976,28.56514530674849,1.0131852519352833,9.235355049200734,13.966065622156748
1.788,27.162929057523797,26.812272660761664,22.443319671619065,20.428251650666425,29.36738785268426,2.234130883207399,10.901431396579937,12.112082871408347
1.792,25.96373705685437,25.2855952380105,20.532070654353447,19.389279935561717,24.455926235554216,2.0671410760278377,9.992244962289988,8.757176097897172
1.796,20.027405208035816,18.618680529713856,14.313234717282285,15.077716345880617,14.96206470832567,0.35415348302558414,6.4426190726317145,3.667515889439528
1.8,11.796685843682098,9.332991965921792,6.124994734518623,8.519571849525164,3.8431049614737276,-2.330408738092956,1.4812217320431955,-2.291430126733758
1.804,4.707967237864068,0.9444432029176824,-1.0685202975337234,1.6513894131021516,-5.417519383656327,-4.9942195575331425,-3.0071955238454393,-7.43852251187127
1.808,1.386199663370462,-3.65147128674289,-5.102533671397396,-3.6096515142780845,-10.356198382001821,-6.725852917234079,-5.476221003971659,-10.066090556842028
1.812,2.3311030922004647,-3.445183340588301,-5.557367191719095,-6.2777237341852015,-10.555150864071038,-7.117226817546907,-5.504841687361477,-9.350785997336061
1.816,5.824619192924729,0.39675820593038225,-3.7660423459792582,-6.692151863746403,-7.639575169184354,-6.403428284218535,-3.950037242997496,-5.8683827599052165
1.82,9.021622250387736,5.276838833574402,-1.9578716013711528,-6.216860188596911,-4.304366627204217,-5.275308170952485,-2.4005262895007036,-1.3989670527225826
1.824,9.532757956712885,8.501055926457411,-2.044748241462912,-6.436744131886371,-2.910824240409056,-4.48598958018556,-2.2502090978505294,1.9003240278580051
1.828,6.669604246686504,8.528752852853358,-4.697611775429323,-8.272906163852895,-4.374518721831009,-4.465607616701163,-3.929572607867158,2.562251772180389
1.832,1.6903331273242657,5.525929205025932,-9.163121985900034,-11.512690684003246,-7.9095376815021154,-5.161728392131408,-6.7098517302802065,0.49309493847977137
1.836,-2.95591115157913,1.0822316829635383,-13.805276953427892,-14.933841330755968,-11.635381903854068,-6.136404389650124,-9.188639804786362,-3.0171073440578766
1.84,-4.929020516376113,-2.6849233779148562,-17.01191260489759,-16.955497567152634,-13.677889864017743,-6.852815795495189,-10.126971887588297,-5.993373740448078
1.844,-3.140040928638882,-4.128609735792452,-17.94416378164624,-16.454243420444982,-13.137738180330416,-6.962490544308821,-9.149065428924587,-6.8004794113876414
1.848,1.8374561235277724,-2.689670373878471,-16.769223488488933,-13.311597294998137,-10.426834973975929,-6.4421325804341905,-6.910470482678647,-4.954848121320538
1.852,8.18603366735806,1.0533100360389653,-14.359292229964922,-8.44705972160773,-6.87913306628252,-5.536154288549369,-4.66940296546818,-1.3207640021373663
1.856,13.76666865417883,5.818002408777829,-11.703620590246828,-3.348195191677405,-3.9177924916366464,-4.559328106532121,-3.526373563852758,2.370938988518901
1.86,17.0642270287226,10.249976698688442,-9.395661065869717,0.6442662278286662,-2.2692977429669554,-3.6906740371541673,-3.784387570913168,4.408569126284419
1.864,17.751670595766882,13.44681299343938,-7.443011737120287,2.9442776097539536,-1.6318351256632013,-2.8961153034142626,-4.793598052548987,3.8922448780158447
1.868,16.63730335382752,15.15958780359233,-5.443159306241796,3.9062097676223857,-0.9494836662270245,-2.0199588908526493,-5.356720483463505,1.04595596305262
1.872,15.107404806754857,15.665479681965735,-2.961373583960267,4.5181916000829005,0.9008109662700008,-0.9753510965074383,-4.448709563053853,-3.049256214491834
1.8760000000000001,14.409479793650462,15.468394359285412,0.14568371397672308,5.793959880418697,4.418832455477059,0.11719638863178261,-1.8186373360749712,-7.130107384369694
1.8800000000000001,15.070349459761928,14.982612256573702,3.6205490980873947,8.162267067869834,9.149285003620207,0.9382097981197148,1.854202384049131,-10.36424533655918
1.8840000000000001,16.691536960935082,14.337401749349738,6.916804943408351,11.163557724106795,13.848553258083484,1.1255887662064197,5.3314760231633045,-12.625567859911826
1.8880000000000001,18.188930607998373,13.380688194204595,9.440540988935027,13.612553500603099,17.050395014960486,0.5084963403060101,7.479585718599992,-14.29046421941348
1.8920000000000001,18.34350674612506,11.854944928043551,10.79723231880962,14.152622135053207,17.736096496043956,-0.7379415661343955,7.865805452584937,-15.733942472892522
1.8960000000000001,16.44041868136901,9.656950382852301,10.943866904772221,11.944978390077267,15.783314066768071,-2.142741289921105,6.955477154481741,-16.882901803470304
1.9000000000000001,12.646802363499773,7.005918948242652,10.174704817105521,7.116066162500829,11.972295540378127,-3.1660274272053357,5.809586509440123,-17.119358976466174
1.9040000000000001,7.944049660795827,4.429510524287252,8.971037927960424,0.7451253572717178,7.577606316199308,-3.4786644537434768,5.466740255868899,-15.613256493677909
1.9080000000000001,3.668559878167798,2.557005978073903,7.788062399558839,-5.597043661133284,3.7698266885263365,-3.132888096779425,6.368393839018609,-11.888231007105787
1.9120000000000001,0.8843010708342263,1.8016551184500713,6.85464232708091,-10.519285280852273,1.1087938210803259,-2.5138370674649195,8.119615229417832,-6.258771258286288
1.9160000000000001,-0.10365900105352921,2.101656681622444,6.068860889311509,-13.352043642559693,-0.6294645225466411,-2.095495099116306,9.706991131199175,0.11605983214576554
1.92,0.19373894794080115,2.8824685341342047,5.030188908304808,-14.286097130589042,-2.240173754600619,-2.1354512365905975,10.054831877845572,5.654706018204706
1.924,0.8823869605266736,3.3418537106999793,3.247497319604463,-14.039748529227836,-4.585342153796319,-2.501191891469716,8.616942810578621,9.058573404850904
1.928,1.3367156980202708,2.9289872401095636,0.43636144399715704,-13.287824387887667,-8.067993986222973,-2.7398003177167993,5.701217482486754,9.916353648250151
1.932,1.653614266351724,1.7376783698109648,-3.2542342602669123,-12.211431228116453,-12.364691645168477,-2.3546140961752826,2.33378162882218,8.860287469803552
1.936,2.617203627921299,0.588643513153329,-7.189305751331631,-10.425083649972294,-16.52617208695392,-1.119053735934358,-0.24838893325431854,7.18322248594086
1.94,5.125896082407962,0.6595283646515782,-10.458308120564652,-7.348060524486755,-19.419966470918553,0.7525204436751665,-1.2147056624653487,6.103403600576712
1.944,9.429906970235606,2.8305217962679308,-12.257158315122524,-2.761917183242076,-20.271403020830803,2.6949483695470917,-0.5486245563079137,6.078773956853183
1.948,14.672003129543555,7.085582861932835,-12.254743361072542,2.81243185771109,-19.029236268323984,4.0878679662764625,0.9645978138869395,6.554310620857905
1.952,19.079373945855423,12.32628227646046,-10.733639239352215,8.188113920714386,-16.366104431169333,4.579318209568555,2.1575104309695234,6.302131129556983
1.956,20.78272729250466,16.778721281854814,-8.395191073994738,12.035656794345414,-13.299834449489936,4.245754923107597,2.099964804369847,4.169880374221975
1.96,18.8090488895391,18.800161921682957,-5.936133003530813,13.543561106702327,-10.650232398418666,3.4953300894112544,0.5919683468509902,-0.15565033444818255
1.964,13.683335828155577,17.6813657472012,-3.636319474447646,12.819393424161717,-8.62392811652262,2.7837200288986423,-1.733697297287108,-5.811305792687563
1.968,7.261906470357644,13.996837193806186,-1.2261904470883564,10.767218607670657,-6.763977331634123,2.3258512900356436,-3.7377265330705995,-11.063531389355376
1.972,1.8731645753232442,9.302999505499884,1.8656016878853734,8.50920401077201,-4.298022614611,1.9825106932348717,-4.369239620871667,-14.106624288443527
1.976,-0.7649855639110683,5.357857982158748,6.021307067625912,6.715391858872863,-0.6815612163218248,1.396853982905668,-3.203926946070169,-13.950362460920587
1.98,-0.2727592067776641,3.266675967224728,10.980235213103697,5.242308791393953,3.9519222563617404,0.2895372472539748,-0.6595099996939098,-10.931679028753933
1.984,2.396781479541005,3.034871328171448,15.745461048048583,3.3264980619815105,8.720386496666379,-1.282696923271942,2.2259180980199744,-6.543505240322702
1.988,5.62304396280706,3.743868158418991,18.94637404478999,0.1989041970246035,12.345249235749634,-2.8819968997740943,4.330622117390703,-2.709485212747495
1.992,7.992848814783429,4.1935476208373075,19.485318245458984,-4.2823151821557985,13.74065069876724,-3.8988009865679487,4.996820814830244,-0.8705794797397175
1.996,8.88214276862027,3.629242342077305,17.127204645970778,-9.38936878759796,12.540335051333386,-3.888654464762112,4.3058901170015815,-1.357507055629867
2.0,8.48173617968132,2.11827701209495,12.670853475762215,-13.850326226235666,9.26132295962816,-2.8462531929317265,2.94835759929083,-3.373479912496805
2.004,7.3860809531634,0.38901901112194537,7.583119848702609,-16.537128125409254,5.017777455437226,-1.233353709027142,1.7761606140720687,-5.543906274483561
2.008,6.0923354512360675,-0.7352035367694043,3.2743094847919565,-17.093368290584294,0.935123258355361,0.27051538650084694,1.3000664103756208,-6.71237870045843
2.012,4.753287542804628,-0.9308675367633441,0.4168783944833194,-16.0980191470926,-2.407502825069514,1.140532733688815,1.423963228514367,-6.528655497801992
2.016,3.2866485924996596,-0.6123117837196332,-1.3183944686170435,-14.657670106629666,-5.196710392908699,1.2785716281250643,1.5431187586218584,-5.534996606937966
2.02,1.6535537202539672,-0.692449804345415,-2.977280932458598,-13.694961727922873,-8.155464363175724,1.0214800481080601,0.9447090675648724,-4.753875436841554
2.024,0.03846070240297195,-2.0076466791915664,-5.637418985316344,-13.376456406294892,-11.981710861467036,0.8861262159934995,-0.732975834204808,-5.0404548679480286
2.028,-1.194732392073547,-4.743878318623047,-9.711814051449437,-13.029075263010782,-16.765104687870007,1.2214265004895424,-3.242101921016001,-6.577799636232157
2.032,-1.7220458744350253,-8.221134244565746,-14.631511961812066,-11.601628880455792,-21.722937344660295,1.97875228277735,-5.816920893503266,-8.796703399711078
2.036,-1.4584434850985417,-11.143184294952789,-19.032377488181737,-8.37022723886139,-25.384516575855287,2.736670133081134,-7.539027579554386,-10.71804928178426
2.04,-0.5435566941905563,-12.182969816730292,-21.34818376596968,-3.445864486550363,-26.16138973064608,2.973800994920566,-7.761462462123745,-11.490290332003497
2.044,0.8680514080533612,-10.593904130786541,-20.491731856167007,2.21789278894812,-23.027831117075948,2.419075571636313,-6.376673167796525,-10.807745413235352
2.048,2.809890250151966,-6.539418515623765,-16.289515926319837,7.299389098539905,-15.997344064892332,1.264926451402971,-3.7983837427000253,-8.992206488793272
2.052,5.465823265191375,-1.0242206527923372,-9.514402569670438,10.743279461436032,-6.193408029904504,0.09641884757184016,-0.7158414075311157,-6.7404999868876985
2.056,8.886532740395069,4.516759722462666,-1.5589802295680784,12.183826467916333,4.510252170955937,-0.432344104533513,2.213907612333969,-4.744496770161277
2.06,12.660744847778915,8.755217988999902,6.052357635940098,11.94430451154858,14.112649749399907,0.02659039839181787,4.570737371506766,-3.379499794151343
2.064,15.824772113656309,10.894255531125054,12.091251672290127,10.66187454681949,21.100645593764284,1.2981655190978927,6.179660506767505,-2.6371985552632395
2.068,17.20227008374195,10.84653990593506,15.872480918722431,8.833941139508624,24.841123422081182,2.764194369377037,7.005059474751761,-2.2782958087591396
2.072,16.054174425209112,9.143169252467032,17.29860261062413,6.593917494383277,25.622476669011576,3.7031845194596826,7.059796225924856,-2.059944215205178
2.076,12.63015594675744,6.656198550550926,16.75554425846758,3.813986680993821,24.372267367245968,3.6772225523172892,6.381057941677227,-1.8892804209181122
2.08,8.215466375251708,4.251278991863046,14.930992686475292,0.40763227470006314,22.199786086480117,2.767403525620466,5.108012857323956,-1.814956616724885
2.084,4.545020659393231,2.4883627636204437,12.592247460243925,-3.4272164423127833,19.933137365402217,1.5185340230164002,3.5445671765514817,-1.9221680741702585
2.088,2.8646395781343017,1.4515233705121773,10.33842655538615,-7.215386253927136,17.819292750665454,0.613431538290115,2.092628110219266,-2.224259289452675
2.092,3.168571719367719,0.738772463168516,8.388000915815837,-10.46674723284832,15.478451000943323,0.4681875130372646,1.0614076267283963,-2.6500382089088816
2.096,4.146513272212587,-0.3429119153861393,6.51472712096961,-12.967387219532156,12.147158745750858,0.9784036043110973,0.4534442451040377,-3.127446257813972
2.1,3.901750169078241,-2.46442318587674,4.186799039146308,-14.880963308564333,7.108188531571386,1.5593197018456522,-0.11016212336016906,-3.6781872277351795
2.104,1.0716667069141295,-5.930056735888456,0.8987079097119022,-16.56132598701197,0.14686153965772064,1.4510493617040083,-1.2310650142167106,-4.4339684634819605
2.108,-4.2689785981870045,-10.433114033418633,-3.432871248379797,-18.172692576949885,-8.155710161201796,0.14910598649021267,-3.370714268691245,-5.532928578799783
2.112,-10.487360380192058,-15.058717611966813,-8.227780884155436,-19.398163138997916,-16.45633668205437,-2.279041660804978,-6.481896070744369,-6.9535704128588804
2.116,-15.148834117163688,-18.555251868508094,-12.328669334706092,-19.45787883929006,-23.028880325571436,-5.168259562934509,-9.865963327097234,-8.416113804250017
2.12,-16.23758780516846,-19.804377431183866,-14.44884116892672,-17.48601765327112,-26.377829375221836,-7.533439472789269,-12.396898989799865,-9.433854828364929
2.124,-13.177669439590318,-18.30243838366073,-13.785930781634534,-13.081114481117766,-25.831399754620634,-8.521968689281948,-13.03335338944953,-9.534709927640051
2.128,-7.115182160913037,-14.4297503911273,-10.48262750511094,-6.713300706102473,-21.839959480559173,-7.820127277972915,-11.362670641331988,-8.533151436391108
2.132,-0.35013580161603386,-9.371275105353106,-5.6632281125353074,0.26718617736696615,-15.824469582216807,-5.814178595222074,-7.878829468994354,-6.697100526300801
2.136,4.752133465422048,-4.673017002359757,-0.9555852232203961,6.0821332350469675,-9.600207206742652,-3.4238522454252234,-3.791088027652222,-4.68723694807386
2.14,6.767792766876482,-1.6392886524458845,2.2642895160663556,9.223128321323202,-4.654505178390991,-1.6829168944254889,-0.45228647619524054,-3.28426299051398
2.144,5.666071748750028,-0.8167256560036549,3.543447359323409,9.080162602537257,-1.5826572960559133,-1.2759095437322685,1.3009824031346398,-3.013185292092203
2.148,2.575659795968022,-1.8142943821492281,3.5533246212748963,6.19114810250062,0.03310660847114377,-2.2463912307257488,1.5337003925387762,-3.876756410449161
2.152,-0.9033835632271803,-3.540180979033721,3.7014764506229767,2.008604439904275,1.2588788614698387,-3.9981200264046493,1.1174328165002407,-5.334958501692654
2.156,-3.4308510273313004,-4.7423915813169515,5.338594442727526,-1.7099808919770112,3.152085936813819,-5.60785506497723,1.1888097488267704,-6.57015585116369
2.16,-4.3681797621102305,-4.621187645319196,8.947652027154618,-3.62664129574614,6.118024020563325,-6.289237147411768,2.447927209736463,-6.927141942521757
2.164,-3.8214566253832345,-3.1917154077839314,13.78897590669385,-3.3306978163882377,9.64024750661929,-5.762801006857444,4.712164575490306,-6.275825830064605
2.168,-2.3958576265576994,-1.2246760694479235,18.197544308550732,-1.4396576927424576,12.51901244352996,-4.373383906241543,6.979666639938841,-5.091232622271491
2.172,-0.8703912200383002,0.18704755125872907,20.38174876112771,0.7237461182191964,13.473956210641177,-2.902933662265241,7.965509234754791,-4.205256998082859
2.176,0.03599486316306866,0.21046236414940722,19.319290599054966,1.7234199710212579,11.799737746169512,-2.1732629940242987,6.818528820747815,-4.346432640035346
2.18,-0.22242229075800424,-1.3185903659637006,15.253296819184584,0.5974746838264764,7.713292883427812,-2.646093360186569,3.5966593688360717,-5.73319342716195
2.184,-1.9432590666478973,-3.851970293008435,9.54944983653968,-2.7778958653461814,2.2369779938167085,-4.202547986266836,-0.7483372142935423,-7.945189483021295
2.188,-5.099745423254717,-6.475663714836855,3.9817369489205703,-7.689344305697659,-3.317335324854639,-6.206589645103577,-4.876188984041164,-10.16236367011652
2.192,-9.279585336015998,-8.442620820253865,-0.16534497877387366,-12.922910911558574,-7.970350117424232,-7.810152834370456,-7.761983332371074,-11.649912246520216
2.196,-13.685444032568057,-9.546307780765233,-2.6666582783697095,-17.24316730645387,-11.443995936749502,-8.324220920722837,-9.182399944166036,-12.19693365100693
2.2,-17.261535399901504,-10.117643834323644,-4.290249207441093,-19.789471294797522,-14.077749862003884,-7.475560833884174,-9.70058662995234,-12.21971866844251
2.204,-18.97712485450404,-10.659019539136352,-6.146600826442636,-20.23883367583221,-16.357898127889257,-5.463708399194047,-10.187772113225492,-12.45742026303924
2.208,-18.152408397893964,-11.349869209301687,-8.856868618300155,-18.70559111390139,-18.365002071619074,-2.8292400349732816,-11.173762481864514,-13.422706372390849
2.212,-14.718540342086271,-11.783871056070325,-12.048394479765875,-15.515139875188424,-19.51091961043244,-0.2197915105496122,-12.457730562795177,-14.957665090953924
2.216,-9.288262083756308,-11.126296891933634,-14.462453053459967,-11.010723033495651,-18.734813192879074,1.8257945755231049,-13.204532129266681,-16.189391856139537
2.22,-2.994695087909122,-8.64486740927623,-14.65165513263537,-5.522010879464233,-15.096084094825642,2.998002519309466,-12.484299471257145,-15.967629596483675
2.224,2.820054586900369,-4.304503881375695,-11.861176275901357,0.5017150862386188,-8.436319728169565,3.234305186646907,-9.926589207611414,-13.569978012543743
2.228,6.988618024222205,0.9816022754944242,-6.565114795451336,6.345468144211509,0.2990052649042809,2.674514707537128,-6.062633071185246,-9.246658630298043
2.232,8.852517125230065,5.643422956130962,-0.3348616548686323,11.039155302175573,9.299641795523371,1.6056459255596565,-2.1206306639342074,-4.239968105523758
2.236,8.429051597232046,8.193289814251557,4.926480100786648,13.606289426124704,16.61417155914637,0.40552435551853705,0.6245961178935886,-0.22260557461640929
2.24,6.373517047749601,8.00558205367281,7.94976013307928,13.466090130120847,20.983420209662654,-0.5349603033528183,1.5680131258471874,1.560073932717387
2.244,3.704308264453175,5.647976324048386,8.686447750556226,10.740149644963594,22.304773811014,-0.9532372338530877,1.0785051546226896,0.9063747161435458
2.248,1.4001245996271336,2.558403063415426,8.17496765718056,6.265888034629143,21.477258593061265,-0.8615315061085767,0.18837182186996415,-1.3401592510435876
2.2520000000000002,-0.008001213033594468,0.21029083791472658,7.754719114691852,1.2381791222951506,19.705975423644986,-0.6330159964109043,-0.1741094522419644,-3.9350183248600388
2.2560000000000002,-0.6876442547932129,-0.7445925187645912,8.11554582958911,-3.353907010805642,17.69403952222575,-0.9306409073731174,0.0694432060967074,-6.118629025079372
2.2600000000000002,-1.4524329029633236,-0.8566107138993857,8.743404002499688,-7.202616322457516,15.185687551538308,-2.4652911960301935,-0.10410238558972651,-8.191075745932494
2.2640000000000002,-3.358690915906891,-1.5104941798708182,8.157779999222498,-10.748288056454726,11.18413995294884,-5.641682516918536,-2.3305938224114016,-11.341999655362315
2.2680000000000002,-7.116612836002162,-4.00547188584801,4.8393505702835,-14.769739769945886,4.74576819270078,-10.243169416724413,-7.839209544853702,-16.771308391167395
2.2720000000000002,-12.614149709366757,-8.655285955331237,-1.7045073976619278,-19.737227848925613,-4.139115373202685,-15.35458369288176,-16.48802407088897,-24.633544184977154
2.2760000000000002,-18.805964083951153,-14.44476423303604,-10.36644400374081,-25.304187092145753,-14.11493809243791,-19.606707206752503,-26.434233185112134,-33.49679363994028
2.2800000000000002,-24.046893053833173,-19.465045801187216,-18.738036627527663,-30.257299735271886,-22.793574037178587,-21.655348568454656,-34.693271063706334,-40.72047723266746
2.2840000000000003,-26.759220874487426,-21.900845761610526,-24.167068090887426,-32.998983832584486,-27.736112194304724,-20.707812335902418,-38.36317277304215,-43.6426987955565
2.2880000000000003,-26.142386556483473,-21.007145152180897,-25.014185961001033,-32.334918540407955,-27.587278222026782,-16.85250926480478,-35.926725121610616,-40.94704949578659
2.2920000000000003,-22.529697855222707,-17.500898805378768,-21.423186146935507,-28.111742429933486,-22.74176937611162,-11.023514638659208,-27.954053968194557,-33.41642677962409
2.2960000000000003,-17.21601773697745,-13.139125997849874,-15.176910611804715,-21.3458484660689,-15.15867447190928,-4.637528244763871,-16.842776079790383,-23.607338681712463
2.3000000000000003,-11.837751290989274,-9.746663511379268,-8.750195318266833,-13.76394747840726,-7.426913096278355,0.947461331102545,-5.746591633438527,-14.587813791278506
2.3040000000000003,-7.621953875005261,-8.253991152486094,-4.087701612283183,-7.001686722724628,-1.5713646395278147,4.902531351337302,2.7478867717323965,-8.448061869136609
2.308,-4.911862641901507,-8.303879793193403,-1.7912175928607894,-1.9214698981953688,1.759815717069614,7.110623916878808,7.521248931432353,-5.424938347392754
2.312,-3.2165561589989125,-8.640950184810947,-1.1351845759242565,1.573854738676232,3.3166473495468836,8.017144497814684,9.010337128176957,-4.113970782518436
2.316,-1.72749105440937,-8.00295975594446,-0.797711810525982,4.166795070294313,4.546334274579692,8.254776419568884,8.56322099572344,-2.6037375498606252
2.32,0.04982164208627182,-5.956622126176342,0.19311597919630685,6.468834863179666,6.623415034326854,8.262226824655954,7.5139088986028355,0.18863614412919105
2.324,1.941947029972539,-3.168448071146088,1.902178769924376,8.514595740788081,9.799570013101516,8.08814113255869,6.530277267407655,3.8029979770881255
2.328,3.236290904961379,-0.9782263019373545,3.6184626952544363,9.71557699711957,13.405658757294361,7.456043128558122,5.553960982234685,6.5492558032833585
2.332,3.204507137739654,-0.5709881082055404,4.507124986915244,9.280609935797997,16.408620774206952,6.019902267409293,4.223846133911252,6.619295739312179
2.336,1.6861908163218118,-2.2416337002782143,4.325307913063796,6.835796242124047,18.13883592801892,3.65872314144508,2.429497670507544,3.3027876975924073
2.34,-0.6364001182901688,-5.198656676439612,3.691384989159019,2.837607378439543,18.698441554825877,0.6341114842416573,0.5828117876291117,-2.444045310588308
2.344,-2.496207624911449,-8.011399255379501,3.7157340967929144,-1.5061476731946186,18.811588127640505,-2.4735707381120164,-0.5885522826224587,-8.433230570807268
2.348,-2.744495321696604,-9.422814980381986,5.22690257537306,-4.79069547817403,19.25012664456267,-5.009844665145579,-0.5579297369794176,-12.401405312147972
2.352,-1.067748757365905,-9.039990880042296,8.102313621627161,-6.114612066378527,20.241917207945335,-6.542977881508364,0.5400367935062604,-13.188269510845771
2.356,1.7510533520315334,-7.47521029604718,11.197621594112434,-5.4902353488956805,21.300918499092234,-7.045440218362842,1.8659884508782625,-11.242378057922792
2.36,4.204051181459874,-5.906009304981978,12.946787822726037,-3.7381568001105734,21.580604647102064,-6.85593071418748,2.316585757165967,-8.189562695468794
2.364,4.8700984785587025,-5.357022109310947,12.290137168578383,-1.9482936125796186,20.513088063689963,-6.457086866496866,1.1927277804173855,-5.785153532426989
2.368,3.218745999666794,-6.137773477761414,9.363017991039044,-0.8466058811573021,18.285799209855384,-6.193788677138514,-1.331931281496054,-4.9184606395082255
2.372,-0.0356336047495347,-7.755972880057584,5.502903703981872,-0.4444413613098277,15.805961030359356,-6.08868287629673,-4.23381826407433,-5.248173108660808
2.376,-3.2809565420232616,-9.3138917860702,2.5496962891396038,-0.1676840394673036,14.153752346892588,-5.870391736186093,-6.1768637841507825,-5.629373250897743
2.38,-4.901879002808187,-10.145463795889953,1.7987156824675026,0.6165673177672488,13.825258892918441,-5.202259229923584,-6.282048785199208,-5.027205067451632
2.384,-4.186563866328697,-10.258978014929312,3.240700088949552,2.0586963493780104,14.286225722608322,-3.9685752084616297,-4.654240441270417,-3.277837711109896
2.388,-1.73164345203611,-10.31908088828493,5.53092100368508,3.6309515826106917,14.15835472142652,-2.4445976049173623,-2.3615184565857135,-1.221467358178188
2.392,0.8713229966600693,-11.221141950873914,6.694843386138359,4.401933188272551,11.960212125326905,-1.22549486711614,-0.8769192220296418,-0.15307728868390313
2.396,1.9291128342587172,-13.487694088288436,5.204038762748837,3.63909863193021,7.013847870304232,-0.9210960838947813,-1.2826463157263106,-0.9551123484824302
2.4,0.6241144299541475,-16.86243980907261,0.8109082104077174,1.3631434144886043,-0.027517097099519106,-1.7782123579104336,-3.688679410844429,-3.46283901191066
2.404,-2.488356971698863,-20.339008680023426,-5.29852667587204,-1.5088559407664661,-7.35643140560569,-3.466074154564012,-7.173020480167565,-6.463614465012597
2.408,-5.733159583789188,-22.597270676828316,-11.0908097425488,-3.5529384936170345,-12.816283144294232,-5.181393291896484,-10.271282574395286,-8.334652925405635
2.412,-7.218506535452434,-22.646516742162362,-14.693063143403833,-3.5920792875048164,-14.922971243589075,-6.05358671347085,-11.730583070174134,-7.945065892871071
2.416,-5.858829057810453,-20.297587020205015,-15.238041546493832,-1.369110673851651,-13.516579536391873,-5.641440527427676,-11.086276201689316,-5.291786308174778
2.42,-1.9692554776885345,-16.243955331561438,-13.144676577116684,2.2326853139834384,-9.720325539237592,-4.23627956987275,-8.799547696896298,-1.5163469342949156
2.424,2.858989634400018,-11.748801754448778,-9.748673572088137,5.555107970792278,-5.270960356372143,-2.770919156251466,-5.910487501309717,1.6818405856554364
2.428,6.547683872602306,-8.090695788270182,-6.530857020686085,6.95384354372095,-1.61072142370665,-2.337992017024362,-3.4508324091490294,2.890624813044724
2.432,7.552901295960851,-6.056233799847519,-4.402778122909467,5.597364056499146,0.740559699219375,-3.560849779837781,-1.9599606585484253,1.634181718745367
2.436,5.590262043722873,-5.689580642489432,-3.3974448773871018,1.8763161333101834,2.2296622772529417,-6.166051574944049,-1.3513369028178204,-1.4917547218719847
2.44,1.709933568693259,-6.382515174200762,-2.8731295681538995,-2.778704389970585,3.7627891825112556,-9.02452954796513,-1.1506571263957994,-5.21614490057982
2.444,-2.246667695930455,-7.198893603333886,-2.0320400677358066,-6.538970497923401,6.015913946566457,-10.673869773135038,-0.9010632108104346,-8.241882480022923
2.448,-4.518954663408749,-7.282410527688398,-0.43799008795690497,-7.970870088634683,8.972950737538667,-10.067586404814847,-0.47567124827537555,-9.807465461405855
2.452,-4.214421233642611,-6.200816521885713,1.7283073085541218,-6.621101851188314,11.921565688725309,-7.143294930728189,-0.1190142602463311,-9.907180376397264
2.456,-1.6585955606774405,-4.0975108389368415,3.7742231138352054,-3.1475828269831254,13.865893965003238,-2.904263277569271,-0.23060240031077228,-9.136695547487761
2.46,1.7965300459670743,-1.634672992552737,4.8323854619383155,0.9949345659620121,14.05204681143664,1.0436995911193208,-1.0668586940014393,-8.312177606155046
2.464,4.356208227231832,0.23372746027655467,4.235087412396865,4.132611170223299,12.291666443728559,3.2551627985999403,-2.5614005642673874,-8.110344995254536
2.468,4.5125437514037685,0.6020599822361419,1.754088704761898,4.975873620397351,8.933449347428677,3.10768886649862,-4.3658182201697855,-8.87730275322815
2.472,1.6421317122299115,-1.0379657729789642,-2.3665279384593987,3.0383090897091733,4.566306465218645,1.031850302370458,-6.069290218996002,-10.605326596836676
2.476,-3.7322321930230373,-4.544060639452482,-7.529769817424722,-1.2412897865553987,-0.30056628641784755,-1.7890520842800015,-7.426860789416423,-13.034435952166177
2.48,-10.091259999945692,-9.09554327665478,-12.993834597082696,-6.688040563834875,-5.384564532642344,-4.052335898370075,-8.464275362418675,-15.764163847908549
2.484,-15.399080226112687,-13.412788779674997,-18.063479757576715,-11.78478186326106,-10.529579741088014,-4.945012168648873,-9.393391595705225,-18.328101862762423
2.488,-17.79263462042354,-16.189339194861418,-22.236526161677034,-15.167792021878313,-15.493809552181006,-4.425646435174258,-10.416863831388355,-20.26548858321621
2.492,-16.28564092567069,-16.614539942312717,-25.311032465083713,-16.09964455865952,-19.85501585902159,-3.0844496824938687,-11.56751590135309,-21.23353140641393
2.496,-11.207375656652403,-14.73396542126784,-27.398871565068703,-14.726472476875415,-23.112950961906336,-1.7180660266362793,-12.67678178440201,-21.147243770038813
2.5,-4.173687320574686,-11.473787244467303,-28.841529594165536,-12.00937699322435,-24.941286180471707,-0.9003432164797687,-13.47265503614085,-20.27156741661838
2.504,2.4446743116454854,-8.280044853198888,-30.009509832490608,-9.308648613885453,-25.39539190887035,-0.7860690415861882,-13.717868056566886,-19.178154709960154
2.508,6.395448524649169,-6.500779478629397,-31.046193709005934,-7.760648681959083,-24.89193452102313,-1.1956331816061265,-13.297276661859769,-18.5251831968867
2.512,6.442614999516991,-6.786194509930169,-31.68042280220891,-7.714981988212912,-23.935636049732693,-1.8529044471636098,-12.189717676057853,-18.719418703166184
2.516,2.8845411067627538,-8.788853391369571,-31.23737699630294,-8.514787382982377,-22.75156618695837,-2.591585341568816,-10.389029684859224,-19.64357388185954
2.52,-2.5509600099109093,-11.3294747832133,-28.91817242286845,-8.780193758326504,-21.093117031288102,-3.4008340225745997,-7.884064024706731,-20.631988305161485
2.524,-7.439496308856633,-12.957587838213385,-24.23825830550527,-7.095645181217378,-18.377073073083125,-4.300156377943267,-4.729690399895162,-20.737957096751188
2.528,-9.690516653979216,-12.618471314060344,-17.403994064350627,-2.7691025663473283,-14.09792614327489,-5.1718800055521115,-1.1634764297421043,-19.189217909041645
2.532,-8.419024869469354,-10.123557401423227,-9.42131553480101,3.714210300587638,-8.301108546166802,-5.714139513388318,2.321401744958621,-15.812621500546129
2.536,-4.272338038010616,-6.192898456531907,-1.8074981849515552,10.81479457730029,-1.7899023320622973,-5.569891828017035,5.061198201185562,-11.182687221762308
2.54,0.927293235885827,-2.0808180263098848,3.97327453426351,16.59407546830994,4.084354069139408,-4.554018618399141,6.462598577671997,-6.383934386758938
2.544,5.028976240738984,1.0128266345690236,7.087108833458728,19.5753055927853,7.973096595628363,-2.823394147068484,6.2884785000599095,-2.519789901501099
2.548,6.479132814812374,2.4557779558618904,7.637735893378704,19.372928586276657,9.15539817291608,-0.8575558176712548,4.823501207538129,-0.19867684238761285
2.552,4.899472239429542,2.3597832217798214,6.510744077347567,16.753936914086808,7.861920770209281,0.7512350238803265,2.790398924887768,0.7104724863020238
2.556,1.138391949931929,1.411507182592345,4.867797319784472,13.15089398759551,5.142616015047793,1.5905935722839786,1.0483306893540885,0.9256735418628068
2.56,-3.1786817036584125,0.4744555131173911,3.560112338326917,9.91440950564538,2.3440659239209936,1.6449881797061607,0.22633089478154034,1.3055323600888187
2.564,-6.362744515656914,0.1818580556134748,2.779550530277902,7.71129275942144,0.47551870323718504,1.301641920813836,0.48760428974196657,2.355227725873192
2.568,-7.285032234236496,0.7257211405051294,2.127108518410523,6.39156161653932,-0.18715858657196804,1.1515767694650094,1.5535489846979544,3.984926070149413
2.572,-5.717878898350818,1.8658777998039113,1.002382820434832,5.317181082152729,-0.10656892556608,1.7002599433667456,2.9293552506267133,5.638511692977318
2.576,-2.325064165466756,3.1108749961499598,-0.9303527572831172,3.901297688464865,-0.1301307325849166,3.1371060808114635,4.171991335421353,6.693506896669078
2.58,1.6461689696493522,3.9420358187383044,-3.4942265939250774,2.018947637879819,-1.0076218267446393,5.278470566129727,5.054899168010252,6.900093873885908
2.584,4.816292486706061,3.979690146217763,-6.103824722498302,0.06102136663480451,-3.0434241863840725,7.687746776964559,5.55285286683511,6.590446934728789
2.588,6.123796725556758,3.07691073082583,-8.116231386532263,-1.3356554068379864,-6.010528474723628,9.887057891095992,5.712939253891818,6.538143594605117
2.592,5.160361805962339,1.352783045639626,-9.188848783567664,-1.6650520079954276,-9.305418990676003,11.533677427712973,5.566144846242651,7.55728639616882
2.596,2.296395077178431,-0.8097474931983015,-9.405039310693837,-0.7790889567927479,-12.197946394130213,12.49026580777263,5.158463990557493,10.065303382330058
2.6,-1.4535193582703414,-2.822910278295012,-9.10989802491963,1.1418162319944258,-14.04542382518298,12.791112868687378,4.663007469747754,13.846345511795334
2.604,-4.790756748065405,-4.036652467990734,-8.593957872154533,3.8000017021474832,-14.412121085608987,12.555884387135848,4.444364200639939,18.120082376864048
2.608,-6.618375017259041,-3.9537826118298653,-7.8481593470742155,6.977437944884059,-13.11049520445863,11.926858852411897,4.951767057704728,21.868368653500966
2.612,-6.462921354646824,-2.458546922458254,-6.573639681844043,10.55442382370802,-10.227053422735707,11.054076014826478,6.450472235098005,24.238789595812705
2.616,-4.620909871355025,0.08147912267827451,-4.432421578223739,14.372441196290765,-6.127958265046573,10.101885168799527,8.742381526506051,24.82947704187336
2.62,-2.001615818679511,2.900643041213243,-1.371090137866986,18.05368554447523,-1.4270396859158154,9.242535560689248,11.094941312895571,23.758442017893685
2.624,0.28328507491482924,5.121113846583057,2.2236436328664695,20.972752199241313,3.142955066700324,8.616270977774548,12.502380903023095,21.546793632279332
2.628,1.3953566361685716,6.1329868472523685,5.665898751333316,22.458165398025812,6.954787418036403,8.26755433473636,12.202311313806604,18.91104878509259
2.632,1.0658141688782052,5.858109108327426,8.321621185634967,22.118511119483628,9.7009617833844,8.108071963877592,10.152814438392852,16.57054680712281
2.636,-0.39712709160994564,4.772480082371885,9.951875220927604,20.09830675664375,11.488820891893965,7.953363432194237,7.171310856080709,15.116910292925695
2.64,-2.3731742798192954,3.6478876028104423,10.807914915977335,17.068598712058247,12.719371259328682,7.633026490840166,4.603647982311941,14.936531428785202
2.644,-4.289031901902263,3.1502535416861974,11.41696261940433,13.943396373997075,13.804606852715096,7.111731267007599,3.658643942567778,16.15400046449713
2.648,-5.8578202276523825,3.5201945191290633,12.194380005940275,11.481737532160423,14.886548710150237,6.542744128538288,4.7755057327262875,18.586924707983144
2.652,-7.052815355343,4.507295290693264,13.127562435718119,10.02579983843998,15.73116626877345,6.211792318112202,7.4002383664824265,21.76130257871
2.656,-7.905581362994781,5.578165374895661,13.751782345663969,9.509231588603598,15.88255810134001,6.389187956720434,10.305946718285668,25.00476575781613
2.66,-8.310310538760405,6.250767609574268,13.435983027009343,9.68766342226354,14.978042829471178,7.170763706239541,12.282681934224911,27.621950836915403
2.664,-7.981410364217481,6.356403202894171,11.803505639269815,10.428667067771585,13.028695531069388,8.408338161380925,12.79448431033461,29.10573021301616
2.668,-6.63190602544114,6.067941033007855,9.008429770457724,11.82943810836332,10.46584565610874,9.768515036637837,12.194714292142635,29.26651037010697
2.672,-4.240670616622538,5.697417469579477,5.680370682155399,14.078569410643922,7.90173095566638,10.893372277677372,11.392440618620185,28.23205267918229
2.676,-1.2041185703296833,5.434306445168431,2.5875433383409927,17.180801561332373,5.775645166972481,11.578303117450105,11.191717995046929,26.33694033124766
2.68,1.7534450033226676,5.1955873385268205,0.20773547676867565,20.746536430843662,4.099012250990199,11.86012754712192,11.721603661316294,23.965894883515375
2.684,3.9140453743016224,4.7125119797090065,-1.5098849533205794,24.041131582255275,2.489114978291127,11.961776112334519,12.328375872529705,21.449244955445465
2.688,4.930938477986956,3.791241102828053,-3.0259025874654526,26.29234944482505,0.4979252329751489,12.123465838440552,12.010863256813536,19.0641871598159
2.692,4.985774984452064,2.5393590882029002,-4.83161523026979,27.06465864527945,-1.989768772730713,12.42363704859963,10.122645618284878,17.10872382814796
2.696,4.640878620051808,1.4081385362085257,-7.025949474544177,26.478645730963763,-4.53542506351414,12.713591530958183,6.911005664798267,15.960098362160807
2.7,4.460590246770607,0.9729442190914597,-9.138861331206272,25.11147324612648,-6.28370451449473,12.709059568193425,3.5336963627860314,16.023109586002647
2.704,4.6296914528302295,1.5670526891244663,-10.33813650631555,23.615673839885403,-6.414881205553911,12.179560199235766,1.5085338732974378,17.537583233791793
2.708,4.8270753426204465,3.0121497644940973,-9.899413947968696,22.299543379104307,-4.643552923824018,11.132072011800574,1.9059198148106589,20.34780073931188
2.712,4.450215423196369,4.633850721294721,-7.660544432779261,20.94138944359156,-1.4531423610380898,9.879653141345443,4.758796570186405,23.798154739074107
2.716,3.0746258121193932,5.607970288076785,-4.172657726735451,18.97391092452881,2.1012560598044274,8.922745514140843,9.028877905878744,26.860938472131238
2.72,0.8417602009426446,5.439948595635997,-0.45591381916642604,15.918971150849757,4.910290079668357,8.706004310359276,13.148035638671445,28.486243959621333
2.724,-1.4861950682745828,4.298673757217102,2.511762058870545,11.804638443888052,6.362333663475965,9.36567906946948,15.825764537675695,28.030814930256838
2.728,-2.867896110335323,2.9948700885561266,4.288130407140443,7.297008647090024,6.626926412675175,10.614393825559546,16.677005063507295,25.557390721181946
2.732,-2.5674996489676687,2.5537688846404762,5.136325992937145,3.4264417110111935,6.4857207472653045,11.834888190492165,16.321641728492523,21.817662709051092
2.736,-0.6282599792205019,3.6232024905602884,5.79279975432064,1.0654663281329704,6.837887816941247,12.347967533360134,15.932213379934637,17.91671187323982
2.74,2.0538702615817783,6.023509476216077,6.952944242733565,0.44522022081559953,8.153306195156347,11.71862076906882,16.506630807932652,14.800485475339883
2.744,4.14208677093734,8.720216679812665,8.793106016341653,1.0150769496060548,10.20158001909931,9.970198331703614,18.29816341831429,12.846607870830667
2.748,4.558285464041319,10.280087185517687,10.824069366894491,1.7451836123887006,12.20725413262494,7.60666950308314,20.716887821929504,11.767417195386315
2.7520000000000002,3.096870122608607,9.579866206586303,12.157754784711642,1.7036813315803556,13.304280273221593,5.425729170623072,22.71576297194133,10.879023426117328
2.7560000000000002,0.5894168817892478,6.409416223686776,12.04344160053688,0.5792592390776008,13.026207448483774,4.201118890558519,23.40771434138378,9.581839614469118
2.7600000000000002,-1.490124968418968,1.63169640734327,10.336708133988168,-1.1567901321254794,11.524584186251104,4.37417376162648,22.53663925283172,7.772455956120666
2.7640000000000002,-1.776086050361073,-3.1861661773205014,7.638668622918203,-2.5256942963085294,9.421714431666942,5.877340659721085,20.551310889526576,5.953490412625342
2.7680000000000002,0.27554481701190525,-6.479003103919467,5.013830314792813,-2.596193429338655,7.422704628909742,8.153159438052171,18.27162512687937,4.977186355668437
2.7720000000000002,4.073698706051573,-7.400797974217312,3.4117044503134366,-1.0255919239511968,5.902889545527842,10.366188796877395,16.370489018868284,5.555279387185237
2.7760000000000002,8.150891954997633,-6.175939148993393,3.130840125364557,1.7192223740662484,4.7237041821315415,11.712153074454363,14.995944429477731,7.809404765132967
2.7800000000000002,10.859071067202649,-3.9262638677616906,3.62404165797102,4.574864405316021,3.3657733131224177,11.712973017314653,13.7483419286973,11.134154609515463
2.7840000000000003,11.144826457283898,-2.068182833030278,3.7866618575988014,6.407723238701692,1.2866497446711946,10.390683799738781,12.026710425728652,14.465182276867381
2.7880000000000003,9.02207924699428,-1.597145033056222,2.5780368450425613,6.56478384587308,-1.7158348418956848,8.243243780888406,9.502341897122278,16.799489476952203
2.7920000000000003,5.500167743975226,-2.6496248682817622,-0.38011693570342686,5.141031929400469,-5.361198569528142,6.029840113661976,6.416115121511211,17.675380004565795
2.7960000000000003,2.0074808628990013,-4.543089973784845,-4.549744629544648,2.825392133448986,-9.025025332956602,4.451800455180091,3.5127687220642656,17.332657196030596
2.8000000000000003,-0.3501676186631357,-6.236662938433483,-8.699546319331148,0.44519961293963206,-12.045760185659674,3.8711424486186843,1.65312066159413,16.490715929224734
2.8040000000000003,-1.2907453551893013,-6.9295431242444465,-11.473416353022685,-1.5064768049007853,-14.003544246947968,4.198872586592643,1.3514329025551888,15.880892925080389
2.8080000000000003,-1.388829546689749,-6.464714791561164,-12.00363306956092,-3.1047483021343396,-14.81205019461322,4.9893005561516475,2.509421140508948,15.807713214320302
2.8120000000000003,-1.6670973432553637,-5.349676242699388,-10.263493365859404,-4.8771928548842425,-14.612429528085158,5.695521425918741,4.491820676102179,15.990954583246094
2.816,-2.9410740186244766,-4.373714828780749,-6.965681066120169,-7.387623584602352,-13.54174305462675,5.958817275824458,6.5062657040462,15.782586915969205
2.82,-5.309016874830377,-4.080373375647923,-3.1074041800470695,-10.784736382158826,-11.5524154715647,5.767774284573534,8.049704408391335,14.610869712070325
2.824,-8.070647923999786,-4.408957549092975,0.5652862852180078,-14.576545794982621,-8.40417286429124,5.409223859165195,9.149376028951338,12.377102098525938
2.828,-10.064401776045088,-4.694881865257457,3.8781998587739963,-17.748797036228552,-3.83322822326636,5.247364759267384,10.25957255502658,9.55863335598815
2.832,-10.257338509645933,-4.0423007896763465,7.171774335016835,-19.182971036333583,2.188384444066969,5.4681872414876125,11.891352137190324,6.971412057290763
2.836,-8.270741375423313,-1.8479919629398864,10.936217464535957,-18.15667957027199,9.266763535498285,5.948764711508829,14.20977730899699,5.337053065639793
2.84,-4.5827534052682495,1.8014443561899043,15.355778249880359,-14.694636222938698,16.56731390969128,6.335351322032693,16.833919118619406,4.90838039719074
2.844,-0.31770467936104296,6.07735988022813,20.043964684678883,-9.59903763659122,22.987000129427486,6.291432512294705,18.96261562371103,5.364541943990275
2.848,3.214982562506634,9.709995172121353,24.095550031391838,-4.178526652958908,27.430006254322336,5.748913046487814,19.73917419208078,6.003577323853278
2.852,5.0036693020301755,11.475205773238486,26.415880134591134,0.1858392726026068,29.067656253613904,4.993653251518026,18.635933965139884,6.112982625128097
2.856,4.641384273836138,10.661302264580172,26.17871336661142,2.4780216933575048,27.532202985386448,4.520433111025795,15.676342800328484,5.310232943715164
2.86,2.366867710252791,7.313386805463097,23.178992779267674,2.3255382960555835,23.003147574474383,4.7338594044413185,11.401325421336423,3.691313654480382
2.864,-1.1000739258975045,2.1911454333719576,17.94051183172985,0.06684514172729905,16.195591739796782,5.67818224327857,6.641921479523489,1.7535927471810737
2.868,-4.802520347004702,-3.488597574226219,11.565551383813045,-3.3710261704686673,8.26773147478059,6.96996906501181,2.2358306783089574,0.17925437572762348
2.872,-7.789699221613773,-8.426266090495915,5.384729097465879,-6.751550824888682,0.6151034934455311,7.982759060933859,-1.1839675854582765,-0.41200390093945316
2.876,-9.321153160930635,-11.589262167007291,0.5613366621842033,-8.883747137515456,-5.425726687591123,8.18931372032307,-3.289596364930503,0.35417043401776027
2.88,-9.049564245132274,-12.47404554771606,-2.228251061584956,-8.978907912646491,-8.921745888468308,7.459912380709284,-4.070736439056418,2.52797068654354
2.884,-7.167931463957416,-11.239732965968528,-2.9592678721494394,-6.922343969468102,-9.642708663011717,6.134819421022939,-3.79976249600395,5.819531886258801
2.888,-4.439443124698414,-8.655064715588992,-2.2010484610258345,-3.341634487723013,-8.141892511432388,4.84515238549875,-2.940302875186944,9.655266760636096
2.892,-2.0158471024412847,-5.858523729291619,-0.8622277049181548,0.5937007025215735,-5.533875081538099,4.197961224515666,-1.9887063552012023,13.31470423669839
2.896,-1.011511441661355,-3.9373083735507635,0.22068362158108812,3.632494435850731,-2.9815498660339017,4.517501667281522,-1.2348921272239295,16.154463167564245
2.9,-1.9583659339181168,-3.453334897310924,0.699337580791962,5.003532279307365,-1.1084726138876704,5.770266167678301,-0.5284423826383318,17.87354063973453
2.904,-4.422351017007713,-4.146181197183182,0.9260272213273311,4.799538902399036,0.34431484256163003,7.668216511103083,0.7691926694183167,18.678110081149953
2.908,-7.065106533116818,-4.999794598661765,1.8189750679975987,3.946792534010001,2.38291519048596,9.832573046633343,3.5090527619527165,19.18956197937382
2.912,-8.241607894617687,-4.747155597042251,4.35037378380764,3.7061680635686116,6.118033175777782,11.871105408991752,8.182458057132408,20.065730250342085
2.916,-6.884417852778938,-2.59672298707369,8.878292368668895,4.930977844145218,11.935050423382336,13.328532270745654,14.323574944055508,21.489910268498534
2.92,-3.2430514114108746,1.1666827953412167,14.65070583459817,7.450989559989921,18.9206032655145,13.601975075333485,20.25896799496536,22.81817979812149
2.924,0.9756449932776832,5.065045372417217,19.796418216109032,9.954051018664359,24.92365542724781,11.97781023394009,23.478184128875228,22.653409104379534
2.928,3.2911813134228396,6.980837691837564,21.939218077890587,10.53435268897374,27.355052118567528,7.899185112795749,21.607699426019735,19.44366956241697
2.932,1.7053096523952718,5.179050207057799,19.234471965772514,7.69999374834606,24.402301621665288,1.385769588273206,13.61046366696337,12.39032848810757
2.936,-4.119696163895924,-0.6903491843299889,11.370502470776728,1.3280084263376466,16.06936727404286,-6.639043394033024,0.6078283763947638,2.196950353157945
2.94,-12.411455074814285,-9.156560929279749,0.009313684267112876,-6.967670268015354,4.471600883992551,-14.377805534785011,-14.174228894034513,-8.780410558753601
2.944,-19.896090632092637,-17.36265226665887,-11.637796419075698,-14.328418922729838,-6.850366602814461,-19.662360094018823,-26.43483845028095,-17.179702686286873
2.948,-23.26515542078755,-22.2348906600987,-19.983896545627886,-17.837877355631917,-14.337626343018883,-20.781190146999734,-32.409326989578744,-19.875901616455167
2.952,-20.78300717230661,-21.848087222067647,-22.494491835701638,-15.842553872405233,-15.902697708108747,-17.242642580644315,-30.34370381614042,-15.265057073202797
2.956,-13.188562721081098,-16.304367011912973,-18.7135952884297,-8.744478606054031,-11.78133128958109,-10.06598226048618,-21.144000917575113,-3.9821333414383844
2.96,-3.390679543040733,-7.6865475521733515,-10.422361440856662,1.1493883852458566,-4.346651436570596,-1.4027286681523492,-7.917868453529991,11.303741319351275
2.964,4.918284798853165,0.8997958182686716,-0.8515991783337995,10.665346521682523,3.01203935327635,6.371200728011672,5.342674762286265,26.91705430062882
2.968,9.020760447356679,6.722909725197269,6.6807624915239785,17.17320067626474,7.3942101843946375,11.65676517727502,15.302323753551946,39.54126571033578
2.972,8.417001476698829,8.571533026030352,10.069583761307342,19.675164906885016,7.5534158796569955,14.237029634203054,20.354377992027594,47.3129904322667
2.976,4.887639529110629,7.109864940208922,9.100030497002422,19.032833782648026,4.218581349595524,15.168515864976712,20.812923852346444,50.184847428796274
2.98,1.3909671715151717,4.330788223214313,5.277205470606077,17.284260225883145,-0.4838806319073683,16.045816325477062,18.312484904631447,49.512693191397375
2.984,0.4446008713566698,2.462426187339247,0.9866886026542829,16.4757541163591,-4.123537446963439,18.04984256692387,14.85043370913752,47.19477296447076
2.988,2.8876456734393514,2.939163091751027,-1.5433764518797375,17.65917696812346,-4.9815033532599955,21.299052426054914,11.985431412072785,44.83705457136932
2.992,7.621271874342085,5.885497469358654,-1.0386066951066368,20.533220379985323,-2.564880884577917,24.832043401882515,10.493077993543011,43.30171529488962
2.996,12.394789228413856,10.29095857134854,2.5421534607932017,23.841704697272917,2.5049574284573737,27.18414796023967,10.479255272708542,42.72686669309178
3.0,15.122467808457486,14.652985321384449,8.21196996698967,26.20517748634427,8.993922229808447,27.208857790448747,11.689129155258343,42.8337571869298
3.004,14.933690104387438,17.665549667973323,14.433881695775995,26.85917608597913,15.585483681471999,24.68631626152967,13.734838317813,43.247129501048335
3.008,12.424730321586708,18.640778177136497,19.653648449089644,25.911162968850817,21.200096972967458,20.407593925751826,16.14453572156856,43.656746192272294
3.012,9.082464727775005,17.5367981287298,22.698996091286176,24.044073112571255,25.056554346388168,15.735881077616568,18.31480645686122,43.82433183872831
3.016,6.3229120359744115,14.736803417020099,23.020273177639865,21.9508705019324,26.643063224698153,11.937626300619058,19.546222335133393,43.560533298764994
3.02,4.7612637892043495,10.801532963865839,20.774727787005702,19.89460517251871,25.750794686916038,9.657599169072796,19.25271431315798,42.78469175331679
