Timestamp,O1,Oz,O2,PO3,PO4,TP7,TP8,Fz
0.0,2.1032064978498966e-12,1.1937117960769683e-12,-1.7053025658242404e-13,1.6484591469634324e-12,-1.1937117960769683e-12,-3.410605131648481e-13,-6.934897101018578e-12,3.069544618483633e-12
0.003999999999999999,10.371656906805299,18.406772853092434,7.752172256535857,4.006626997294006,14.191580318507988,14.120093609833134,9.356437861280142,13.079436894790092
0.007999999999999998,17.657701068822405,31.771507108752644,12.750189644630382,6.770133848015121,23.45882919299214,24.350582408439323,15.852934491398514,21.947438963914465
0.011999999999999997,20.041507701845717,37.21627018182676,13.332145251616225,7.613679964061589,25.04688965200785,28.623361383733254,17.98916548295165,24.394260056859707
0.015999999999999997,17.606650257898536,35.087625858270485,9.52348686972124,6.681195758217314,19.43493577291906,27.54544291145362,16.265007735066888,21.179869150724357
0.019999999999999997,12.062540391739276,28.424901608942207,2.886811241906571,4.769922406454782,9.804516177045912,23.857494365217462,12.780151649152913,15.48938603705733
0.023999999999999994,5.759190791834953,21.202795000100252,-4.268884170444551,2.8465680079779077,0.2737624484371963,20.841917071402918,10.052697118300557,11.20930508405013
0.027999999999999994,0.5469075672987174,16.35167177378463,-9.910182256983148,1.5311958074092331,-6.107271066822193,20.581360467396735,9.726424019903675,10.971703061075914
0.031999999999999994,-2.895596000225396,14.634282771666506,-13.025414558583464,0.8548403888341909,-8.51220352089723,23.0275614175423,11.885011476856903,15.012008863468054
0.03599999999999999,-4.964273772120293,14.883132403313994,-13.778139841330187,0.4168057527786573,-8.120434101579917,26.33403550782782,15.283683498576579,21.38391170082639
0.039999999999999994,-6.475632150522188,15.241478934528857,-13.108382123663944,-0.20220444040654684,-6.861951014103624,28.14211774753369,18.254987307596423,27.257391829841595
0.04399999999999999,-7.929675733583565,14.544786549587627,-12.063515398221,-1.0415819459207114,-5.97871465291243,27.01775523772801,19.70918617355659,30.509058729279218
0.04799999999999999,-9.15181690176803,12.993143138978837,-11.240749009122851,-1.6431211285557197,-5.288101996688852,23.21629824704337,19.637651411933348,30.706321838752615
0.05199999999999999,-9.478342627184531,11.817862644319689,-10.596521659083692,-1.2890860109156392,-3.508584342238521,18.42229103362854,18.89688078805068,29.0365369634942
0.05599999999999999,-8.290241027442619,12.285216312572857,-9.64717690774512,0.5534094356523269,0.6642925467749308,14.72613943456031,18.4926916615525,27.36714965323472
0.05999999999999999,-5.527177842588685,14.728436429654778,-7.888529683122783,3.8434076883785906,7.4560229348716405,13.47915378208404,18.86020074294612,27.05342846908468
0.06399999999999999,-1.8223899600669142,18.243522468525498,-5.1623274388959715,7.889073815749555,15.594716173898263,14.681301624462776,19.60510350967104,28.185330859979103
0.06799999999999999,1.8215845006835707,21.201564229589508,-1.7796554315605988,11.652591946864959,22.811029931792746,17.175317368082062,19.827723469079842,29.636423432462948
0.07199999999999998,4.588271257516681,22.221834107321314,1.6312208852516505,14.266371566083421,26.9519881266948,19.435571008075726,18.788964956662426,29.811006672808503
0.07599999999999998,6.292153660053486,20.996922436009868,4.440419911014516,15.474830764408125,27.05043122748063,20.434602653900356,16.46236398253137,27.600696790446705
0.07999999999999999,7.428766328212305,18.45307571227619,6.296190322121419,15.741289295144384,23.733268744684295,20.078207146466468,13.620906838818712,22.996652501710514
0.08399999999999998,8.796477426966447,16.166076859238927,7.211227920261024,15.943128635339292,18.77552839521141,19.015927863164166,11.397103609806493,17.057535501308507
0.08799999999999998,10.928239277290459,15.410988158038464,7.434059201428653,16.81732190377579,14.105176713620494,18.042810913851213,10.58994380640695,11.324690195990001
0.09199999999999998,13.681403453990669,16.44638547414388,7.239335767978076,18.477500205551962,10.879101874601105,17.545011320011213,11.1789417288648,7.1022886885155
0.09599999999999997,16.2438925351249,18.451411262354668,6.779854878628868,20.29546992590582,9.13214695460286,17.337390377207157,12.3471089074406,5.005703189477515
0.09999999999999998,17.529816135768897,20.07421748372039,6.053798616681149,21.217343175912504,8.075633216350695,16.92875562536011,12.977872142725232,4.929270871846995
0.10399999999999998,16.738057409639026,20.222785570896264,4.990094196617122,20.352028485937126,6.76793143385467,15.983348187356967,12.319543334676496,6.348869768323027
0.10799999999999998,13.758838422991204,18.611883966968378,3.565320437730776,17.50431950003025,4.6944090598054515,14.619112220093541,10.406203719045664,8.688113816596285
0.11199999999999997,9.236551340081917,15.8070295288137,1.8676125386560898,13.359824136323283,1.94615189926256,13.360940900648359,7.9918508418870715,11.538148775796458
0.11599999999999998,4.3062531331519835,12.831883236948613,0.08547254032600904,9.216410147815992,-1.0085466149393483,12.800914731639807,6.071592832593694,14.663494702235141
0.11999999999999998,0.1439758856597564,10.601862704997927,-1.5693064003564814,6.39122079512282,-3.726244986652574,13.196192073377347,5.290797039364463,17.8604220633884
0.12399999999999997,-2.448388419175018,9.52443345295191,-2.9436119653330763,5.609439742240511,-6.042387864638187,14.28259688677224,5.595107443894847,20.841568648993416
0.12799999999999997,-3.2512858089586985,9.43968660073665,-3.979530643079812,6.695033277231801,-8.020140584768114,15.431843676930669,6.32225285171819,23.247173942400934
0.13199999999999998,-2.5662694145163982,9.88863961611196,-4.661501306608045,8.72982775415494,-9.646772646766635,16.056071081608025,6.674670892038989,24.79785952859754
0.13599999999999998,-0.9765307544030861,10.49852501752028,-4.9130766442590925,10.573134281191074,-10.536343546340817,15.995927622324928,6.280190710299848,25.47919940301051
0.13999999999999999,0.9259719529020742,11.214066813868214,-4.531318059612602,11.451942067493349,-9.917167571737906,15.623977612091721,5.480379665051316,25.59392471124613
0.14399999999999996,2.7283413440410413,12.246753651681843,-3.2243196873098157,11.30271138135845,-6.98464333802292,15.580921547566845,5.168170053366737,25.612040719985657
0.14799999999999996,4.225036509691307,13.798293251686346,-0.7640047302664073,10.689593151888062,-1.4453337449035928,16.294509514381218,6.248645259039677,25.880990038205937
0.15199999999999997,5.363256485342561,15.795311932742322,2.83195367418665,10.39498064861067,6.105535823631811,17.607571988230347,9.059208850394953,26.376471841568332
0.15599999999999997,6.181406120358588,17.832123763824143,7.197998026026198,10.942935259998876,14.252460642401019,18.77460401096903,13.100149892788068,26.671071453597733
0.15999999999999998,6.76686900781317,19.34885371143588,11.659272499710255,12.328053249442803,21.27242802032876,18.846322070053816,17.21027330870163,26.13476433286064
0.16399999999999998,7.234749400969463,19.928946161927342,15.413164481151853,14.085232242527354,25.830801695434246,17.230334357439915,20.109930355094377,24.26632789030566
0.16799999999999995,7.718758631110006,19.537362321286537,17.787413504045674,15.625561286243908,27.490616552190488,14.104446714356868,21.00261561657817,20.97737720609325
0.17199999999999996,8.365008814042199,18.578397472622783,18.47675033398758,16.61581829216823,26.783134539796833,10.434639861254027,19.91260878810772,16.69025840527877
0.17599999999999996,9.299898028946984,17.738316166036327,17.647319413277046,17.156461214174897,24.82043079408095,7.5622894757701715,17.598846291438008,12.191092866034069
0.17999999999999997,10.57838917862017,17.668545915873324,15.847547084354517,17.64833905690591,22.665887258284727,6.553378035220703,15.096539435499494,8.308771361214895
0.18399999999999997,12.116617456752465,18.649787363082794,13.760494262432644,18.442825473240646,20.809906159912828,7.655039261287129,13.165391528519763,5.589020169303922
0.18799999999999997,13.65645246541817,20.399594792891264,11.908162086692698,19.52079263961491,19.0254062115049,10.165989076735514,11.955218220629831,4.13400549113328
0.19199999999999995,14.8060195451161,22.145851565262774,10.452916154829438,20.425573727677033,16.670144868991656,12.817831439275778,11.057484597908228,3.697615185895529
0.19599999999999995,15.14744674624012,22.93354052427111,9.17322084440201,20.495331726731706,13.215924719490317,14.462086765987692,9.88475251571765,3.9570851470188018
0.19999999999999996,14.383910263958285,22.019882900887183,7.611536491122081,19.2660092635374,8.66349327343903,14.679786343340083,8.123780499288728,4.7710529176601995
0.20399999999999996,12.462302564488596,19.181239364202668,5.317283185014901,16.794715140116864,3.593927585077836,13.976186966107207,5.97666650040685,6.2488328277593155
0.20799999999999996,9.611642755769026,14.788486770424356,2.0552533955877834,13.689929588120208,-1.16299752674081,13.442880663173923,4.039738559298939,8.567398170871002
0.21199999999999997,6.294569790139633,9.661865224732821,-2.081492358713035,10.83760726927153,-4.98806772624971,14.106948944550481,2.9225023370692043,11.679224264787308
0.21599999999999997,3.086009940352824,4.7945990118934105,-6.6700619778151236,8.983502644752434,-7.741650593502811,16.347242876900737,2.8784095982567806,15.131014211251568
0.21999999999999995,0.5073815220135884,1.044763439022006,-11.061452734479644,8.409029286437317,-9.683124005850232,19.69272587876526,3.665243768225764,18.133526634318514
0.22399999999999995,-1.1207763558611532,-1.0795198025262494,-14.528102034935614,8.877583259883409,-11.09634552426644,23.101051923713612,4.750053019225788,19.88905497055498
0.22799999999999995,-1.7527730069798508,-1.4827766061601437,-16.4150322888039,9.850398511050685,-11.895609656084616,25.535264899579488,5.714047081989406,19.997940179815032
0.23199999999999996,-1.6004445860551186,-0.39962156827175477,-16.275954981935456,10.805162575928193,-11.51041310234723,26.481421047575623,6.56385150743165,18.694138480732363
0.23599999999999996,-1.04466067008741,1.745491250554494,-13.993543305597427,11.451017033837843,-9.185499793949248,26.09779174761684,7.717465843007403,16.716827118010315
0.23999999999999996,-0.4893775621886789,4.4735938534656725,-9.860541387913486,11.742020333366213,-4.541355480973209,24.947311645886884,9.646763796517007,14.86519311179677
0.24399999999999994,-0.2097263929372275,7.3576884162454235,-4.5632692874767145,11.738682964890586,1.9738750520716621,23.534188967374803,12.40705039050306,13.502139592047342
0.24799999999999994,-0.2588216735447304,10.068341673809869,0.9522038960207055,11.463405000796229,9.052270267723884,21.965849708766655,15.383496439318947,12.308807198373415
0.25199999999999995,-0.45603701054892554,12.375149401926137,5.720192648028501,10.893634856748804,15.000496704571049,19.980430603070772,17.478718169718604,10.472004119709936
0.25599999999999995,-0.46733360974258176,14.141821780235318,9.047140863751451,10.096723305245632,18.50178884339914,17.313079119825034,17.696066407267722,7.224764524494049
0.25999999999999995,0.059445542724233746,15.350619384650258,10.75767413891424,9.388174716972799,19.257187966911374,14.143075929393262,15.813014101591307,2.4500961196476965
0.26399999999999996,1.3442312288642597,16.130725467053367,11.258428006220925,9.329281371500542,18.119947659456784,11.260022428339198,12.69043320951505,-3.0486857175055775
0.26799999999999996,3.334329288641811,16.702873889017724,11.31902108325653,10.45316668552141,16.572268395590868,9.734789128447119,9.929055966388432,-7.859356962550237
0.27199999999999996,5.626324959114754,17.226428327734652,11.63637641261596,12.832682847932233,15.804203132093335,10.232740436455288,8.979120429557042,-10.73913199068511
0.27599999999999997,7.493313260254922,17.611485283896627,12.37842703254114,15.750170428632714,15.91372930428895,12.387145478542607,10.164224230605669,-11.421338652000713
0.27999999999999997,8.033959570299544,17.407404514313384,12.943654357506716,17.7234692711271,15.70893928081557,14.685875328981183,12.20572708136342,-10.955073861465507
0.2839999999999999,6.44969991171763,15.896153684705496,12.122112505702603,17.003188860417595,13.28768335782172,15.068724116971225,12.636236015631312,-11.294884158634886
0.2879999999999999,2.3590326224763203,12.380609170146158,8.634538880234004,12.358105952332608,7.104478617676818,11.986330661331067,8.982387019746284,-14.293021541129292
0.2919999999999999,-3.97218213759254,6.562633200940354,1.8304024570816182,3.7765278976746686,-3.0403717576602958,5.349378247441109,0.15857194120621898,-20.600531130920444
0.29599999999999993,-11.572434596459743,-1.1393456152976569,-7.772347236267365,-7.2846658984922215,-15.622265410717091,-3.1844586967608848,-12.650875674146391,-29.08473800020488
0.29999999999999993,-18.93399559026966,-9.505790577483822,-18.40402078679699,-18.276381433139477,-27.848062042342235,-10.808126295429474,-26.15475436999145,-37.11439071640939
0.30399999999999994,-24.39647679758457,-16.757230819060624,-27.517531255211566,-26.429136644396976,-36.72495208542216,-14.789349885666297,-36.15794543845914,-41.60242258891026
0.30799999999999994,-26.629077941938476,-21.09549995648888,-32.67480408718757,-29.73910177969924,-40.24126937629069,-13.713769947587025,-39.27337724381459,-40.32746831266786
0.31199999999999994,-25.075360927585507,-21.371234971858712,-32.48591213857185,-27.642627768710554,-38.10649657771785,-8.112861630416319,-34.33343749551682,-32.89621229561976
0.31599999999999995,-20.186338293134668,-17.579873264443904,-27.182080536681156,-21.10484685380311,-31.716966383789213,-0.15228855656846463,-22.836386626876674,-20.87803514469215
0.31999999999999995,-13.303653481361039,-10.925454389269248,-18.54472902833902,-12.12188070985053,-23.412255215902178,7.4505922393952915,-8.224609262928652,-7.068392019352359
0.32399999999999995,-6.214630246013144,-3.374556890041049,-9.195856097684555,-2.9111065527074516,-15.413816794813101,12.70118399583589,5.610686294818606,5.717461538631824
0.32799999999999996,-0.5581679559264785,3.0896950984963496,-1.5828135570511677,4.819715952093247,-9.000280223986351,15.111007645250083,15.842998683397127,15.683335612495284
0.33199999999999996,2.7028662795494256,7.180761876608244,2.8919445382359754,10.248922719500342,-4.2794875096578835,15.617540873615553,21.54118130621373,22.42006357022069
0.3359999999999999,3.532126571535855,8.692444832893898,4.235393472078272,13.40252347723731,-0.5580242620998206,15.778985495633378,23.541517143224155,26.548136164874904
0.3399999999999999,2.6988065527972367,8.403231980508963,3.6030434136274607,14.829309576768082,2.9881387451750925,16.760952318297996,23.575910925874496,28.95037395691361
0.3439999999999999,1.363653007308244,7.591303349828763,2.601941901457508,15.222515993993284,6.751492813539926,18.70987516345349,23.227200058655853,30.099139099707372
0.3479999999999999,0.5626952681762987,7.402243690093883,2.506955678481063,15.171834692311108,10.506397969404588,20.819909064115336,23.255826669998214,29.8560100867619
0.3519999999999999,0.8118738068936864,8.36806101885702,3.7583567311828574,15.089010102163911,13.628374755139248,21.969770876101393,23.54117795618413,27.79926046651508
0.3559999999999999,1.9937896164390168,10.295302042407343,5.946971541107814,15.247529808945728,15.538032407130572,21.498135922812708,23.539098061546838,23.798045010248188
0.35999999999999993,3.5584248608879534,12.536764802399489,8.213541470576047,15.832460354107525,16.084416744996133,19.64638555870829,22.87344046077601,18.432061071492853
0.36399999999999993,4.898229200661035,14.453672898728314,9.792754126517139,16.936662306802646,15.657286306663536,17.427591277839156,21.65061302577874,12.953322480340603
0.36799999999999994,5.662068373340844,15.75607159206993,10.377369855615598,18.49798445850979,14.956282065792266,16.021489634343197,20.330213451142072,8.76282380091584
0.37199999999999994,5.842170770642724,16.528351642399002,10.120237118385717,20.23396589726326,14.55271488573328,16.081373563828947,19.29762853315401,6.688349581162811
0.37599999999999995,5.63996940908828,16.984119493886055,9.341408373499917,21.663768678376528,14.520041888916808,17.37459064901259,18.469899363920376,6.5026031080897155
0.37999999999999995,5.224260643866842,17.157763032558023,8.191851234450837,22.23974095760991,14.367989629318572,18.9583522236544,17.246637453572703,7.0131784045254335
0.3839999999999999,4.5576830320858335,16.77154738893944,6.511797362162724,21.53250251938107,13.315781793091446,19.7619162001547,14.862149216450234,6.694341745755082
0.3879999999999999,3.4267113700400387,15.376653995635024,3.976873609139375,19.39932889557167,10.748599449113158,19.21310492639668,10.924680094358791,4.521715526919252
0.3919999999999999,1.6360282226960408,12.677522739154142,0.425241774656115,16.050115868079047,6.606410218423889,17.531067011678033,5.804285678519591,0.5466588108661199
0.3959999999999999,-0.762865878222101,8.840257652512037,-3.859608034870007,11.9873919876934,1.4972930942184348,15.541957590955235,0.6135390712697699,-4.104164212582418
0.3999999999999999,-3.373656775670952,4.572797201632852,-8.131961257465264,7.849545417805302,-3.5283727522767094,14.162720151889062,-3.2361119029460497,-7.800030953496616
0.4039999999999999,-5.570313433580395,0.9061929067568144,-11.475074734080636,4.229099486979976,-7.415524905453822,13.877678811638816,-4.697499824352917,-9.233209852430491
0.4079999999999999,-6.772498286457221,-1.2304644757899723,-13.251640478727495,1.5357659242545196,-9.539115282781609,14.506792901808694,-3.59469164345046,-8.05313724980897
0.4119999999999999,-6.7420936898433865,-1.4411241854704713,-13.461284650314383,-0.08059468971850947,-9.94054906493659,15.356630588515145,-0.7168889860724903,-5.007984942601979
0.4159999999999999,-5.714218382388481,-0.05342023140269703,-12.769161863013778,-0.7284294062355912,-9.24358568588491,15.641352474105588,2.548869429107981,-1.5359006824028256
0.41999999999999993,-4.284594736632698,2.03060944107051,-12.166364772043153,-0.7257441676456438,-8.310655230557245,14.909867712393861,4.859336460978739,0.938686374045119
0.42399999999999993,-3.1058101405787966,3.7548719613755566,-12.436109187982538,-0.5247044501547862,-7.820855202078519,13.243550210661851,5.497733789716676,1.6172235033036486
0.42799999999999994,-2.567410315856705,4.369230949912662,-13.729611351916219,-0.6193787356128269,-7.991011279804752,11.135363476645125,4.6177672378212264,0.5416717990669895
0.43199999999999994,-2.645320767448993,3.693991964284578,-15.503473006609283,-1.4455743214859922,-8.572385881376704,9.148098221600321,3.0511545559097613,-1.647997012320502
0.4359999999999999,-2.990745646085543,2.091257721447164,-16.843693622450928,-3.268368462355511,-9.080519755710156,7.587091028306531,1.8142592202850665,-4.194271689589186
0.4399999999999999,-3.1596055754262125,0.22563106859320214,-16.96897890017226,-6.0602323042314765,-9.079185169261677,6.400272904470512,1.6090871247552059,-6.595551883033295
0.4439999999999999,-2.818187782394716,-1.2185095046077095,-15.620129394146488,-9.404203360696783,-8.341633248352537,5.35221862597291,2.5656294688567414,-8.649772748482974
0.4479999999999999,-1.840672995961313,-1.7601802318795308,-13.142901122533203,-12.506049139171864,-6.843699169264596,4.321963542173762,4.294608731872813,-10.231516289204592
0.4519999999999999,-0.2851551853634646,-1.2346679423662863,-10.252940715629165,-14.36720589256447,-4.659442082370333,3.4919051879469407,6.155056166109034,-11.05984093000643
0.4559999999999999,1.688374944520092,0.19386913082348656,-7.664359365450537,-14.105458589087903,-1.887195814836332,3.2830928314497214,7.544151093132541,-10.70570657710914
0.4599999999999999,3.8637945073805895,2.0884190098445288,-5.806148469820073,-11.330952483549709,1.3165261237434152,4.064101580812803,8.067630116658165,-8.89447373302528
0.4639999999999999,5.961214898250319,3.8672612025798117,-4.758006039098063,-6.4075643351498,4.6374437151046095,5.816764132609023,7.554134015441605,-5.9087611725231
0.4679999999999999,7.6201715049901395,4.96991338535895,-4.402394437194289,-0.44893372544493104,7.537207055395015,7.990162122408947,5.98962151576643,-2.7750522803085005
0.4719999999999999,8.442677543754371,5.0271419624068585,-4.638301173888522,4.996280304794027,9.324611684445586,9.674747407572795,3.4688683803942695,-1.0136598065673752
0.4759999999999999,8.141452087279731,4.006135635705505,-5.47771882964571,8.491394601765478,9.410930706229806,10.037980620604685,0.23187599756533928,-1.9625387977907849
0.4799999999999999,6.7442043372361695,2.262420589942849,-6.962540062046401,9.265625236091864,7.639838454912706,8.803661596144138,-3.262455363743129,-6.005300574645389
0.48399999999999993,4.710245060696025,0.4376502409695604,-8.992868654324411,7.511468051780184,4.479461595312728,6.491458208746735,-6.3438599716064346,-12.168573905434187
0.4879999999999999,2.8153446323042317,-0.8086272131572514,-11.237381844970741,4.261006239662493,0.8971780117012713,4.226820399254393,-8.2948185825785,-18.38940906025664
0.4919999999999999,1.7957970756719988,-1.1295230365115003,-13.232380836408993,0.8726188778687174,-2.0719848653441204,3.1749346658771174,-8.64442670018775,-22.404070537574626
0.4959999999999999,1.9288033103359794,-0.6963961129492873,-14.629866214899039,-1.625450965851769,-3.848964633196374,3.8840267289465373,-7.449241977793463,-22.829383069885807
0.4999999999999999,2.81142402815658,-0.13112250169945128,-15.424102890868198,-2.9876967141030946,-4.605217184777189,5.918375922291489,-5.354819338059087,-19.826034791938582
0.5039999999999999,3.4913581681478263,-0.1714595355548454,-15.98159371844099,-3.7814636613748007,-5.127603036613323,8.007801503614246,-3.3576204206467537,-14.98649722893515
0.5079999999999999,2.932607524121522,-1.2380375267150612,-16.818437578692738,-4.980346090632338,-6.296520342258532,8.665352666113904,-2.3521958105163776,-10.494385621032507
0.5119999999999999,0.5909200378528112,-3.1595022320705084,-18.252885806969175,-7.34293662295795,-8.47769208899831,6.9636960437419475,-2.6948568047416757,-8.020090757121125
0.5159999999999999,-3.239488632664006,-5.23592413930794,-20.160822520359943,-10.934514596931194,-11.198837454775685,3.0575600164506795,-4.032615950987292,-7.957895570852315
0.5199999999999999,-7.500651867324905,-6.607319201989867,-22.000093765448014,-15.047666958904983,-13.326508477869424,-1.8319355765654564,-5.518566287189287,-9.40019772234291
0.5239999999999999,-10.824291982672321,-6.704276184602577,-23.091959148610727,-18.55063081777371,-13.659570691113004,-5.971420286352213,-6.278654022727096,-10.813169719651341
0.5279999999999999,-12.155086713413311,-5.543291879447452,-23.008703761010565,-20.471608076004713,-11.629376210416694,-7.9445715562674195,-5.875024199898235,-10.999227869941706
0.5319999999999999,-11.199999839470365,-3.6943156337699747,-21.8177471636742,-20.479332683086568,-7.691400940516473,-7.327311073351666,-4.5124366088220995,-9.787135361302944
0.5359999999999999,-8.471875565342543,-1.9344578857422903,-20.015020180371835,-18.990311300270378,-3.16085983008702,-4.85490784420972,-2.8600685363942375,-8.06486431778012
0.5399999999999999,-4.94280466076134,-0.7946092651999379,-18.186555617972317,-16.858756749713166,0.4355077198292747,-2.0044953109236303,-1.6109452200757914,-7.170888386085608
0.5439999999999999,-1.5268365031712392,-0.26117292694186744,-16.614372839472594,-14.846593762652219,2.1429927504032094,-0.22065790967235444,-1.044613437689577,-8.02885193164252
0.5479999999999999,1.290316950262877,0.1725422293787915,-15.098224485404444,-13.206057018276397,2.0421461219524417,-0.20705823793787204,-0.8812115352204728,-10.553669573068419
0.5519999999999999,3.4961618001673287,1.1439429693461989,-13.116987101401492,-11.608792173429492,1.1383111294654782,-1.6497091355302018,-0.5147516472220559,-13.66724447581123
0.5559999999999999,5.306974411752549,2.9813455198284373,-10.231880911882968,-9.44323088492365,0.7528304123136422,-3.4850257890213925,0.5405936129357087,-15.885162502316916
0.5599999999999999,6.852781753770614,5.46045069782997,-6.476464133141917,-6.278856082163429,1.768875091209111,-4.535784673065791,2.272660919289592,-16.112050990600437
0.5639999999999998,8.026059297070674,7.912021488454002,-2.470399899960853,-2.200606529059314,4.1645524140006955,-4.14768115434299,4.115536396069729,-14.190310207656921
0.5679999999999998,8.561920064236006,9.592266873475069,0.8241031603827196,2.1642471746149567,7.05979635585004,-2.4991605467916997,5.256143446926444,-10.927985299976854
0.5719999999999998,8.263833062550361,10.078373060361855,2.566440084667761,5.931130971819584,9.213031710263408,-0.44880337874769793,5.112673536787952,-7.63218536629347
0.5759999999999998,7.185082433976845,9.45158670422677,2.4475190808483376,8.372353200567431,9.663635013883436,0.9646954911804642,3.6907479121250617,-5.434329315286277
0.5799999999999998,5.617730835478824,8.178082362754822,0.8153827512671796,9.21486979964152,8.175211155458555,1.0870233473440294,1.6047337150523617,-4.762686555146502
0.5839999999999999,3.899834712367351,6.792788138846163,-1.5340758220569342,8.674270282673888,5.287119417635267,-0.023247541103046387,-0.24291671103583212,-5.208456422623158
0.5879999999999999,2.1782945267937066,5.573435774444079,-3.777389373653932,7.2304030260334,1.9823680571736304,-1.664842189665933,-1.1323533777108423,-5.815828603261252
0.5919999999999999,0.28714425023702006,4.3820092454899395,-5.454239764830163,5.3046398447772845,-0.8166202513012877,-2.905388494385079,-0.8737801969423344,-5.616130903954172
0.5959999999999999,-2.1318494081663175,2.7761038373610063,-6.608327009739696,3.0652754891841596,-2.633250768103835,-3.086361211276426,0.15461147270752917,-4.113048061510881
0.5999999999999999,-5.312122197345502,0.32224463496390854,-7.621718002820671,0.47072888110460553,-3.5265116599609883,-2.1516447382248316,1.2830980807827927,-1.4934535377856264
0.6039999999999999,-9.059082501005719,-3.0705376791966046,-8.865627858053358,-2.509743672663035,-3.8909881372917425,-0.6396058820032522,1.9478765497158292,1.499285792511273
0.6079999999999999,-12.658577348242488,-6.979250784835472,-10.37993754462184,-5.660891187709467,-4.125579930049412,0.6320749330723174,1.971930475569934,3.932645602358434
0.6119999999999999,-15.093334471966955,-10.561300207197746,-11.773933217420222,-8.454135303386124,-4.375093279467819,0.9977812552592695,1.5871768781428273,5.0993683798760685
0.6159999999999999,-15.476559710033825,-12.861149221163487,-12.39007241499803,-10.215925327029368,-4.4616672241445485,0.26870250914157623,1.2232691617241471,4.800372398947275
0.6199999999999999,-13.475309369758179,-13.182111151471076,-11.62331903418351,-10.441780772403831,-4.000257703151647,-1.2035602249295607,1.2267442213089907,3.3942313521254164
0.6239999999999999,-9.502242154420742,-11.355719326122085,-9.230247579219622,-9.0889135344853,-2.6155179209185917,-2.7391900926947983,1.6958237890330565,1.6023704298747816
0.6279999999999999,-4.58226557878686,-7.818546714522768,-5.4841900996589175,-6.675970725117509,-0.1542569696357532,-3.6839709952239446,2.503293501524695,0.16368295034817493
0.6319999999999999,0.0427901641335211,-3.4779591286010145,-1.1162967769346324,-4.110262420476602,3.197763699417692,-3.7172950242249954,3.433332121315516,-0.5097584000195639
0.6359999999999999,3.386398506788055,0.5830272788570028,2.925085197273347,-2.307621120640192,6.944208332812195,-2.9568760222866786,4.302705086168544,-0.5158804742204666
0.6399999999999999,5.045129556479537,3.4435647391468365,5.789484513541765,-1.7944331302305727,10.425888455927407,-1.8285302179101564,4.985523268141151,-0.4044225356271909
0.6439999999999999,5.260103420666724,4.624371004889099,7.004492054727734,-2.4731209448376603,13.041551843869684,-0.7841718641093394,5.35448071230735,-0.8811559351270262
0.6479999999999999,4.709867476872546,4.203541335761088,6.6253636470542006,-3.668617435278861,14.455764024039865,-0.04327694226526546,5.22498316053759,-2.420325417412414
0.6519999999999999,4.154660416061688,2.7199722313797565,5.191156938248923,-4.437158362305354,14.701586748965326,0.48484766483738895,4.3975095390226215,-4.982748382702994
0.6559999999999999,4.106036177281339,0.9127138460589777,3.5020568011154865,-3.9953032752707713,14.133127096618693,1.064047059999666,2.8041909204467856,-7.995664618805677
0.6599999999999999,4.663846856936516,-0.5861215704485403,2.305110947219873,-2.071054453115039,13.25332098304574,1.8891305181725784,0.6767204750832434,-10.596988925621872
0.6639999999999999,5.5756443149510915,-1.4630757145951065,2.004166145632553,0.9762267425217033,12.494758281995132,2.9049169705108397,-1.4137366151129527,-12.024267825973311
0.6679999999999998,6.453164260888684,-1.7609551221389665,2.5175360869185397,4.309630649549717,12.054012196010888,3.808995330110065,-2.7302914902572866,-11.947811128955664
0.6719999999999998,7.0271560462709886,-1.7385551555393022,3.3611346945223204,6.972880667681352,11.865667938936099,4.253278180896359,-2.681037009867623,-10.571940369402455
0.6759999999999998,7.299810491044013,-1.653931851641289,3.915247396701375,8.277228165868905,11.713240729889776,4.108337801528933,-1.1209291734340923,-8.469823842049664
0.6799999999999998,7.495208410966825,-1.6212767702346582,3.738782825242197,8.025713323828427,11.388432208002769,3.5962390238717035,1.5318610837314282,-6.2619469911646775
0.6839999999999998,7.862956996595699,-1.6061788955954626,2.772667172929687,6.499464941751512,10.800449484794342,3.184890250045555,4.44795070051191,-4.328523290746716
0.6879999999999998,8.448179242435685,-1.5463393785375388,1.3344015106642928,4.240098784216798,9.965663571703146,3.2827345028640593,6.747067917692334,-2.712891529672106
0.6919999999999998,8.965546717009829,-1.5055913792408546,-0.08976575693139921,1.7561792067909892,8.8998367533502,3.905328763103512,7.868747665704973,-1.248898416124689
0.6959999999999998,8.882117003764392,-1.7223241415843518,-1.137110404452983,-0.6837153804360696,7.509699799860584,4.5481766892073665,7.753993650653456,0.1978758935448468
0.6999999999999998,7.697705403470422,-2.4847521127319965,-1.7577319708671553,-3.0713799766558623,5.600168148357568,4.39272854572539,6.76717107665047,1.5577085640946962
0.7039999999999998,5.285503836291468,-3.875550825822984,-2.1729994050381833,-5.4951560407064335,3.051881796933685,2.775083611402465,5.437156107306578,2.587642559575329
0.7079999999999999,2.0840039822153926,-5.571034265274818,-2.6412670710284942,-7.916967162349692,0.0590714399601211,-0.3510385020076683,4.182389743203771,3.069956070957346
0.7119999999999999,-1.0029307695259035,-6.8748784805700325,-3.202559837067895,-10.056200089697086,-2.764547138065552,-4.253069748073699,3.1731850832641157,3.022831014195276
0.7159999999999999,-2.9821903739710365,-7.013930408639453,-3.575924917400812,-11.461249514430165,-4.533241000657654,-7.685142174465682,2.3851815145233104,2.763110794170757
0.7199999999999999,-3.2457720082101105,-5.558483261580875,-3.2866005738297304,-11.734390442246081,-4.470587644928173,-9.468365076877262,1.7700354736018653,2.760533544646705
0.7239999999999999,-1.8795382504132476,-2.7129020285391903,-1.9432528862542995,-10.765930454986574,-2.3232268965618346,-9.069204759205718,1.4038954660173886,3.36240369908262
0.7279999999999999,0.3751942608520835,0.7097462638051297,0.49669638421715945,-8.833604915994101,1.4270977105766178,-6.857846355205879,1.4955822774896887,4.544716363241832
0.7319999999999999,2.505360835676015,3.647716139132058,3.6419122735098313,-6.501530584580564,5.707977836887437,-3.8983520642171925,2.2343971965412948,5.854653345835459
0.7359999999999999,3.755785933505365,5.309000160662265,6.831550810567933,-4.365458547195544,9.327149212687402,-1.3917025417491686,3.5924709350557578,6.60134493650844
0.7399999999999999,4.018185545187805,5.563696455457432,9.45684177441018,-2.7868598967788785,11.524186560025669,-0.0978842039293113,5.236230624153336,6.185513327198009
0.7439999999999999,3.8655061285736565,4.992809688784234,11.253279605875264,-1.7631819272572784,12.300748909983156,-0.04882408242372094,6.624205394689284,4.39738731747002
0.7479999999999999,4.188220385163561,4.54314014862473,12.378117685051109,-1.0082804790940827,12.326408047679593,-0.69289186038759,7.261377608420503,1.5145494717768315
0.7519999999999999,5.646851149960753,4.9799670809202325,13.23463020913266,-0.18076081048980086,12.46428920086754,-1.3460780757142174,6.9649230833790625,-1.8569085749554688
0.7559999999999999,8.25902679405715,6.453646667809721,14.172410759169736,0.8928595192360262,13.210269788629716,-1.636161528467028,5.985150133544494,-5.076858372520405
0.7599999999999999,11.332325516161063,8.413950141641635,15.252733054013959,2.119297795341936,14.37737692650677,-1.6708473286388426,4.904191173095228,-7.738078644288635
0.7639999999999999,13.793532019235954,9.92925317865263,16.22221092770502,3.2177130789317516,15.221718978793717,-1.8469688897977221,4.343503435326738,-9.763801294778318
0.7679999999999998,14.713301528471334,10.20491462983233,16.69307910402142,3.902293833316776,14.925998700605419,-2.4620227846726266,4.6447133357625034,-11.306812125161741
0.7719999999999998,13.724229161675794,8.993088529880197,16.400475141060554,4.037730067585585,13.140414985888413,-3.422270042086211,5.695229972456218,-12.539095372582096
0.7759999999999998,11.121272564690969,6.662897556631265,15.361931324363695,3.6619092712224983,10.231031011834375,-4.25651760832136,6.987957041721302,-13.495083665343827
0.7799999999999998,7.62376135402161,3.923917199382629,13.848789107804237,2.8784098837384704,7.081218609689188,-4.422557839485762,7.887844202908241,-14.043607249322008
0.7839999999999998,3.974575479519558,1.4039964747684053,12.208457325658685,1.7165443923921089,4.576696061874031,-3.6861001443238592,7.976989527604928,-13.973121835413394
0.7879999999999998,0.6188616836785741,-0.6620319523260605,10.671530099346683,0.07765009647295074,3.0893660406597405,-2.3063820348226045,7.292945310007099,-13.143473307654062
0.7919999999999998,-2.371297388311177,-2.4562841261977155,9.26715402464066,-2.1769924347595406,2.270888696803979,-0.9012224226232775,6.318314165476181,-11.618416030333833
0.7959999999999998,-5.1223696584605705,-4.32553655932378,7.888243914701036,-5.046738294358136,1.2865983242471088,-0.07824687416655252,5.716073817006304,-9.681398703874947
0.7999999999999998,-7.709354294739796,-6.452840767284215,6.44631773887653,-8.258410209213025,-0.6522781204759553,-0.0811178587998711,5.945277235591448,-7.742027305929355
0.8039999999999998,-9.996933769675536,-8.65203964764936,5.006755902684404,-11.272522139992986,-3.761973891960224,-0.6761395505991459,6.982665525266498,-6.195535866039222
0.8079999999999998,-11.676759911503382,-10.426691370076583,3.804297999710741,-13.461430409150353,-7.474974851709192,-1.3544139997866296,8.29934314868433,-5.302645156728431
0.8119999999999998,-12.465127396511775,-11.26225688302236,3.1242377163482615,-14.377214721319774,-10.67787512222742,-1.709149160788229,9.113495678805975,-5.150364653016823
0.8159999999999998,-12.302208306648879,-10.95566067685536,3.145074794254697,-13.952888669055653,-12.255234573804046,-1.7174221945841737,8.80997742716147,-5.674650221636625
0.8199999999999998,-11.408666837339013,-9.782159976196112,3.8396930015630346,-12.522872234587908,-11.639634239098598,-1.736075162602674,7.303047417545713,-6.721477232326151
0.8239999999999998,-10.148960114800502,-8.376150352410662,5.009261131625863,-10.638455207369418,-9.065383191011449,-2.213877671898331,5.148711522668805,-8.096639465297471
0.8279999999999998,-8.801525817527931,-7.408519102952653,6.410385708267029,-8.78627377017591,-5.422320403276842,-3.3184045809857707,3.3045792522838155,-9.595248766211512
0.8319999999999999,-7.389446751405387,-7.247960127339638,7.879367157545005,-7.165436583234907,-1.824233833920573,-4.740221947472833,2.6522304065179583,-11.022711631865036
0.8359999999999999,-5.683592660882539,-7.784642230982058,9.380472075991179,-5.642274768782386,0.8729032411711728,-5.813611960605158,3.5330256467033223,-12.222237425299
0.8399999999999999,-3.3995849248354943,-8.51120240288202,10.944108997811043,-3.9148231102549857,2.3489227896771467,-5.893049939326943,5.532452156138106,-13.122122675699075
0.8439999999999999,-0.4573644389556648,-8.791695481303009,12.541673754776923,-1.776940270649618,2.7966154636146427,-4.743104410910064,7.641451661096539,-13.770691207734103
0.8479999999999999,2.8624947664529827,-8.169318904826241,13.986015039811662,0.6770713976471825,2.66053286847432,-2.697759591514796,8.72417920981809,-14.344476539441644
0.8519999999999999,5.976475518050165,-6.550154829394444,14.942014491592943,3.035004619416327,2.3265778111885993,-0.4802985995710287,8.061569950210583,-15.090944750754488
0.8559999999999999,8.255178660669173,-4.194623422939799,15.055988668832754,4.750424984521487,1.9384839945494434,1.1972297537631675,5.7093831964238575,-16.214304906619077
0.8599999999999999,9.331156288089687,-1.5703070280496547,14.122430367110667,5.423040989383992,1.4023765476809729,1.9965675190834418,2.47644263058703,-17.76174891416713
0.8639999999999999,9.290440215228728,0.8379216793952935,12.206988737926707,5.028998971280714,0.544784022873813,2.071753365675363,-0.4578102264338213,-19.55741079131309
0.8679999999999999,8.623542563052524,2.652291632779793,9.651309416397197,3.961809591528038,-0.7050263011690276,1.8897591120086759,-2.092269733407079,-21.237370650564287
0.8719999999999998,7.954029106010353,3.6272268694205536,6.952092969456544,2.8471792412271952,-2.233396225014502,1.8782030974728627,-2.0511006251874733,-22.39206607523522
0.8759999999999998,7.700181826923853,3.618507260686698,4.571272749534359,2.226816991788951,-3.8063193300649516,2.137838217592389,-0.7288243582245286,-22.753668417247468
0.8799999999999998,7.843567585008515,2.5563286719878704,2.760288322588366,2.2658334917297793,-5.232621040356378,2.3934882595102067,0.907036515085963,-22.339268880364557
0.8839999999999998,7.944640295156972,0.48127582094821264,1.4842792181172229,2.647512205595774,-6.503001639671112,2.20212351636917,1.7530503739722008,-21.454280663843008
0.8879999999999998,7.407986388640921,-2.378113674501776,0.47400013284229203,2.72460095526543,-7.805366345781977,1.2643960726181263,1.039266828424104,-20.540705904318827
0.8919999999999998,5.869007060961792,-5.553703703574939,-0.6091706907254775,1.8793774374062195,-9.376939563849874,-0.3494378601559447,-1.3506206511851815,-19.937938884234654
0.8959999999999998,3.4762614585383176,-8.386101292095816,-1.9657357959650597,-0.09160586104422919,-11.262773139353357,-2.1986268913783533,-4.829783593436559,-19.69669662581964
0.8999999999999998,0.9103876055213505,-10.199679477488758,-3.5133720914524247,-2.768441334634872,-13.13210158020226,-3.690531465457866,-8.322006684588416,-19.566053260316494
0.9039999999999998,-0.8742150774164656,-10.529737508744802,-4.866564441953244,-5.192280901440824,-14.266376176079945,-4.365421955599572,-10.630738379747413,-19.157852553002385
0.9079999999999998,-1.087745106082707,-9.30541575113341,-5.46834576742333,-6.241492770649188,-13.777049267564337,-4.095762099602098,-10.852100589814427,-18.199536232449418
0.9119999999999998,0.48540483715680693,-6.914056782656303,-4.846697138204263,-5.155061768724295,-11.00935534752466,-3.119779513917365,-8.715987215202404,-16.74931733007429
0.9159999999999998,3.3209692722392106,-4.097902935555339,-2.8788432186794353,-1.9488056965310534,-5.945041616759511,-1.9050481659455727,-4.731599252921114,-15.228830195253522
0.9199999999999998,6.333713773627096,-1.7103470393744828,0.0748908245972757,2.501358587083587,0.6245220739381239,-0.9369003051405116,-0.06512833512988436,-14.226070798598812
0.9239999999999998,8.354039314151464,-0.3981764014384339,3.275402543173641,6.7948948758908045,7.310035483610363,-0.5240664938626196,3.86135361186939,-14.164267355893116
0.9279999999999998,8.681421070116585,-0.34775859323758596,5.914581394604852,9.623163023641837,12.651463158593515,-0.6876331482950491,5.9305758109819635,-15.040020983843306
0.9319999999999998,7.450349828168328,-1.1994034763882837,7.500013445809259,10.382729859703431,15.733545692618918,-1.15844028741094,5.833724830511414,-16.371727653530115
0.9359999999999998,5.603622839345576,-2.1775351596127166,8.107706664059208,9.465240283028606,16.571500876619154,-1.4771963461334963,4.259592931570182,-17.406715084144707
0.9399999999999998,4.457221561453252,-2.415878015164253,8.329815174253099,8.050342640661597,16.02719602889198,-1.179230594368505,2.59767477091998,-17.48987805397485
0.9439999999999998,5.046936277460077,-1.362410028340605,8.9076252782815,7.476638604867048,15.264087597292644,-0.020577455938564526,2.222149470243039,-16.40421883710178
0.9479999999999998,7.5572172976385446,0.8939206999588123,10.21374371182992,8.484077735431015,15.001286720952407,1.8276086277346622,3.6685754551264154,-14.524782482504179
0.9519999999999998,11.128465125590424,3.536662639435008,11.874309916802531,10.728343143962093,14.98523054800313,3.710602803138727,6.130593476311901,-12.729882692022784
0.9559999999999998,14.164070520082532,5.254933182215268,12.77936834652212,12.844835345206775,14.011701297976174,4.640038457280525,7.631702428141239,-12.12846566002986
0.9599999999999999,15.019441109983063,4.738553184042644,11.538452641851563,13.066436402231034,10.541291479766642,3.669873331095914,5.887357309729396,-13.729315632102498
0.9639999999999999,12.778436109801078,1.2775633235316946,7.210882456807894,10.121124415622148,3.6390025459191975,0.38009060065542144,-0.495988245665103,-18.14834546010934
0.9679999999999999,7.7399536270309,-4.810709396307402,-0.06362932423553502,3.95034063926812,-6.277395791791605,-4.7676902755595165,-11.089000140082362,-25.408201106293518
0.9719999999999999,1.3482800936817512,-12.159113987380238,-8.888109508523826,-4.127056003962593,-17.320419405502435,-10.43346111813662,-23.501231956052834,-34.80827402579803
0.9759999999999998,-4.409446195150167,-18.78402571528386,-17.0251112647436,-11.904459728022402,-26.75814094352836,-14.833453149445859,-34.200517449057315,-44.86868806132816
0.9799999999999998,-7.838339311472851,-22.816037170866707,-22.24814175876827,-17.189241921397752,-32.101371235414945,-16.45654110062742,-39.949581617977856,-53.40265860430782
0.9839999999999998,-8.218491468092225,-23.21108515016499,-23.233277584389725,-18.682931373327392,-32.111592816212806,-14.741420594593365,-39.16480733710068,-57.816700874325534
0.9879999999999998,-6.004447721032648,-20.11022840176372,-20.050527719827187,-16.413136720649618,-27.213178328721824,-10.349209898995468,-32.51174024869374,-55.68168281369162
0.9919999999999998,-2.454459446350029,-14.672989679414513,-14.026168232412829,-11.531652981499747,-19.127809056094975,-4.859590512556224,-22.453933406460237,-45.4790565428782
0.9959999999999998,1.0802358705125243,-8.480433610854334,-7.06228157358828,-5.640561121609608,-9.97097388686916,-0.02607931419220222,-12.018530012678639,-27.290261218858177
0.9999999999999998,3.8138774558351543,-2.825070642834362,-0.7706438637630981,-0.03728688550881998,-1.3250724341962723,3.03376823032022,-3.435388501466605,-3.11296316759649
1.0039999999999998,5.804629947228705,1.7700585052311908,4.144812860326965,4.743394309303312,6.235050892355275,4.295802579032852,2.64144733377816,23.447484648131194
1.0079999999999998,7.717558125031019,5.547570667690934,7.953649186444409,8.875608336091545,12.95136404575203,4.688353070156381,6.957917408559979,48.07906838506278
1.0119999999999998,10.235963215922766,9.065770289980037,11.433095276000586,12.775534125251852,19.229704850541793,5.43953807440721,10.732252269242508,66.96137637648667
1.0159999999999998,13.48624876482495,12.599666294828808,15.166629655296333,16.551911028047925,24.990325701779057,7.2902864821294315,14.581861282078535,77.81544615925259
1.0199999999999998,16.81250926091161,15.750293242682346,19.00910722107892,19.719538751627624,29.436444362718817,10.02187331119012,17.96369087723633,80.39271648523845
1.0239999999999998,19.046506986321674,17.51894421064935,22.02696979112011,21.354193004343642,31.3895009212348,12.573935699195317,19.45511368884081,76.250572385954
1.0279999999999998,19.128923817428813,16.830229474235693,22.9577730342005,20.6082726603654,29.987191460469944,13.68415793018903,17.698652768782722,67.98260826343949
1.0319999999999998,16.732774442921254,13.207504762384815,20.925655636548527,17.277930591163567,25.29886924948528,12.664260585095235,12.40784329589951,58.27182322627232
1.0359999999999998,12.525732362990539,7.2017933939932846,16.01776378571776,12.076729441345378,18.47061184719155,9.856768053496126,4.805568935669726,49.15381425261239
1.0399999999999998,7.919341967076434,0.31877616732595015,9.411932818042033,6.4541586665959585,11.312094938996552,6.507696785356529,-2.785771230346654,41.734610489228544
1.0439999999999998,4.439732645339973,-5.543681375646884,2.9665656174840933,2.0306658559034076,5.551244919762894,4.126967465245798,-8.012001075573153,36.33324588003643
1.0479999999999998,3.0356274679372746,-8.879382177109619,-1.5349293336862502,-0.08447027983311273,2.1543597146296634,3.7028831913103204,-9.604296445258115,32.82705641579605
1.0519999999999998,3.68848505529013,-9.174046532495595,-3.106486942751644,0.2523968658213107,1.0663656822414396,5.210883516591366,-7.9281999768058995,30.955120704044475
1.0559999999999998,5.50348498932135,-7.03527163556646,-1.9164017546045216,2.200357279794389,1.4493198519535326,7.669329730264963,-4.688030304725999,30.431587985119677
1.0599999999999998,7.213841030625645,-3.809214768189804,0.8813838370294889,4.355217161365999,2.233816060936988,9.701543217451217,-1.9692363869876317,30.91401742148082
1.0639999999999998,7.825735377179626,-0.8999000746835009,3.7461805407556312,5.4025889284848745,2.661523028042211,10.269235465906604,-1.1625255770377407,31.953373323693995
1.0679999999999998,7.073657332583252,0.849715460858306,5.48167561553214,4.693373599047391,2.5544154836456983,9.164942654720562,-2.3416014316485416,33.05099092579758
1.0719999999999998,5.469521822011984,1.4184515071729038,5.7384198219035625,2.479718223344207,2.2225732242995946,7.017449872809266,-4.398523693202151,33.81743050338628
1.0759999999999998,3.9526296603007722,1.4192616660834574,5.052233410693816,-0.28033174110350956,2.1359272345539466,4.8526256712852955,-5.801025706633482,34.13825097478093
1.0799999999999998,3.3585498905908935,1.6186727593083106,4.438269500660908,-2.423509764395021,2.595309215899988,3.4891722540774026,-5.505922820525484,34.21581270304523
1.0839999999999999,3.991880699598596,2.465361163465559,4.783546732530112,-3.133693286291418,3.593848646785318,3.130341406116713,-3.5110031232584333,34.427447706008024
1.0879999999999999,5.508779783672026,3.878981491351169,6.362311974442264,-2.2945732053958636,4.896821423149504,3.3684864616107006,-0.7773032102286379,35.06534043269403
1.0919999999999999,7.126636145563225,5.3777241065779435,8.720144379158455,-0.49993212439676427,6.235059517905029,3.5484256991694565,1.3767695869460113,36.093208639560544
1.0959999999999999,8.030986052463959,6.434639786528805,10.967243626824938,1.2576073382292634,7.464435555697719,3.228898778819712,2.0150189005853463,37.07079961086174
1.0999999999999999,7.765165578429787,6.827880715112315,12.295348013852617,2.059031685039372,8.595812238893359,2.453611192451717,1.0385470190035448,37.309051896864275
1.1039999999999999,6.4023015523414415,6.777310468814221,12.428633644125512,1.4581364751220462,9.70999654487946,1.6866590575700684,-0.8528896184179757,36.18922621193087
1.1079999999999999,4.4515560169772925,6.788629177896382,11.745311710794567,-0.37095186766646293,10.829973693045531,1.475841093298186,-2.6352405701122734,33.474083582622825
1.1119999999999999,2.5808981618547477,7.308785925316215,11.014928239998653,-2.777621737532172,11.845480347131343,2.07456914746399,-3.55949166254959,29.467804009635074
1.1159999999999999,1.3359162697070133,8.413844151073818,10.921679186461688,-4.9613126736667255,12.533682754448364,3.2769509789727636,-3.515980578149083,24.93754288899163
1.1199999999999999,0.9623005453186124,9.692262497752381,11.641168261286111,-6.330409375137606,12.631491415932715,4.55365886913296,-3.002757659463896,20.823447501011287
1.1239999999999999,1.397399492920158,10.41506569260082,12.735314709828572,-6.718703446017116,11.92205336733241,5.386771792973377,-2.757995795892839,17.878897104503267
1.1279999999999997,2.388066455758235,9.90390018876451,13.415385247705217,-6.3825880941230935,10.286423210083285,5.579563227538529,-3.311295810428419,16.390498529081924
1.1319999999999997,3.6264824960012447,7.895068727808848,13.016570289931224,-5.820415838943063,7.718852100337017,5.336313932527446,-4.721773280867637,16.093576501653843
1.1359999999999997,4.827519106231648,4.705446029736322,11.396364422732859,-5.527570761424613,4.330995559286748,5.062647166084389,-6.610580560447488,16.300628618871997
1.1399999999999997,5.732405624983585,1.1089095752404319,9.01883293726678,-5.801022986681801,0.3628782725465953,5.027049184813222,-8.436762612224811,16.182682706057676
1.1439999999999997,6.092174664579943,-1.991852627274966,6.69917912147821,-6.655496969417527,-3.7919784626183173,5.117532417119946,-9.808478088683842,15.100381228473452
1.1479999999999997,5.6987365492582285,-3.9303960981860655,5.159041974694901,-7.855141053254556,-7.599296208581791,4.8657106076716445,-10.644913085837743,12.849375235067782
1.1519999999999997,4.484460620124992,-4.49158508473738,4.6700665196613045,-9.011827124960291,-10.464988525808167,3.7454222237493013,-11.11511400197287,9.732534881907668
1.1559999999999997,2.6248040614127603,-3.893906232141944,4.989326505228291,-9.713525745865809,-11.890634124872122,1.566518398768494,-11.429609986605556,6.436798667817129
1.1599999999999997,0.5668057804809905,-2.588048194775183,5.596987867820644,-9.656150210357282,-11.660822032835313,-1.2913781445349741,-11.649273847141558,3.749374299261035
1.1639999999999997,-1.0635121262353096,-0.9826301226339638,6.080967344900273,-8.739296509567794,-9.950745933821054,-3.9659364151430054,-11.625058722384892,2.2463957420732186
1.1679999999999997,-1.6850342181419364,0.732700808955542,6.410582503796832,-7.119118033345785,-7.289399647084792,-5.501657655275267,-11.095176414302841,2.0821971778141233
1.1719999999999997,-1.0181369595547949,2.5883456084652607,6.923072516117827,-5.189108414232578,-4.377266477516969,-5.337925726517824,-9.870368223988407,2.963325845079453
1.1759999999999997,0.743526365848993,4.681088629381975,8.03146757734521,-3.47911020236279,-1.8364455196938252,-3.627327922413315,-7.983655806203387,4.312881183851459
1.1799999999999997,2.9554447539831017,6.982367868617075,9.854904724177686,-2.4827870627163975,-0.0028037790307280375,-1.2091570205939206,-5.716497776361393,5.538736716547646
1.1839999999999997,4.759734376713368,9.25109722433217,12.031244529498963,-2.459471106666115,1.1552876049695442,0.7622437889649518,-3.4961912326361926,6.283195618409081
1.1879999999999997,5.432356954268016,11.10814604983807,13.849570491174745,-3.3059508952901524,1.9588222582970047,1.3469194698600404,-1.7353699023924491,6.554290967941597
1.1919999999999997,4.691112352250457,12.230172850730924,14.637710772577975,-4.57962210493497,2.8247559708429435,0.23469642379131983,-0.7000893101694601,6.670548544396297
1.1959999999999997,2.8322306665572796,12.541833571990537,14.172897700082103,-5.675160292188593,4.05354788545128,-2.141832875183354,-0.4510424405152662,7.053409839703818
1.1999999999999997,0.6187444266242892,12.266819312871121,12.852955914410813,-6.090888526973686,5.684908595623256,-4.841024512083095,-0.8696614863638388,7.97754530929069
1.2039999999999997,-1.024381503674249,11.811966733299869,11.524496728212853,-5.6442231328983326,7.493110838519897,-6.850577358558439,-1.7123990322788814,9.41301890937575
1.2079999999999997,-1.379531839698302,11.540836979266714,11.041530898854035,-4.524078968689537,9.09684309109889,-7.501490472145633,-2.6615877689664558,11.022709301381838
1.2119999999999997,-0.2273926407028739,11.564328524315442,11.798516569883304,-3.1500762478835895,10.120524014442253,-6.681544418054727,-3.384602593215277,12.3039248410023
1.2159999999999997,2.049327806853853,11.679937555114066,13.50094590005574,-1.9232462188756472,10.33309118820307,-4.791395125537747,-3.6037927134411802,12.806410226437947
1.2199999999999998,4.585793416877095,11.48750039844117,15.288085627234977,-1.0192783859611154,9.70387572264417,-2.515422108997882,-3.2002248499575217,12.308428473219465
1.2239999999999998,6.3386873997087605,10.632865300261983,16.145194252305373,-0.34470774757483014,8.379220900000291,-0.5411810525329201,-2.3155243797718867,10.883920787731768
1.2279999999999998,6.487738069356055,9.061025661129406,15.400960003615637,0.3415587019335362,6.624181834482897,0.6559392564058726,-1.3727759476987558,8.860605281528478
1.2319999999999998,4.797992978745242,7.143703333193571,13.070416836950244,1.239476537387418,4.773935632096254,0.9135318707176339,-0.9377920022388935,6.707886785522533
1.2359999999999998,1.7907458340750964,5.596677839552285,9.871743545669688,2.3780266538051364,3.193393617162201,0.37031049403958605,-1.461305438013369,4.879442747390385
1.2399999999999998,-1.3886108991123365,5.193680014326674,6.90547910359237,3.6158736270581358,2.2166440165015047,-0.6239234875874899,-3.027644046583191,3.684806318808114
1.2439999999999998,-3.4059928608526207,6.393560991679351,5.150932984436622,4.744868340761059,2.048997588043676,-1.637317497240474,-5.260838100737601,3.223494083080368
1.2479999999999998,-3.3305752433716407,9.055923735237684,5.010056909224659,5.608793511102704,2.6537482892867956,-2.288157495597261,-7.473034820150133,3.3777001291082343
1.2519999999999998,-1.1238710686452578,12.394930324019697,6.103137312954914,6.144801936961812,3.684018743338129,-2.3608654459076206,-8.992180503047166,3.8555828349826697
1.2559999999999998,2.2254280888910216,15.216328633508056,7.4040950748758405,6.319335377396783,4.525484156182301,-1.8763123860171618,-9.513147830246453,4.2774457460263875
1.2599999999999998,5.058702582207843,16.36665132636699,7.673360166795646,6.047421918578948,4.492099819094619,-1.0768051137874863,-9.256247271939174,4.309637928585289
1.2639999999999998,5.7908519246011565,15.225406921941612,6.025345500369895,5.1934398819958005,3.1366165566992095,-0.31678118663694477,-8.805263576821744,3.812061078600891
1.2679999999999998,3.7165020108031968,12.024300417529503,2.392260855672248,3.6992605811410613,0.5375282227064417,0.11180465890538471,-8.710726541890836,2.9526066044709296
1.2719999999999998,-0.5340818698068688,7.833214771580515,-2.3240133694307588,1.770251261872545,-2.5987196504611347,0.14099301578426093,-9.092526979100512,2.229236305242921
1.2759999999999998,-5.192523467130741,4.166691580240695,-6.528630602680096,-0.04720997093590995,-5.132266407732914,-0.021663975689079962,-9.510739861940237,2.345848918748743
1.2799999999999998,-8.163052332321058,2.352262705152498,-8.567913374866293,-1.0130613948158498,-5.952935957960108,0.003627204816439189,-9.214015463694523,3.942545372494351
1.2839999999999998,-8.076165729470631,2.9340860433853777,-7.469248646497363,-0.5602102036809811,-4.517052550383596,0.5507385336350126,-7.648984537414435,7.265134888109969
1.2879999999999998,-5.032329726287571,5.400356517464388,-3.4573874388561308,1.3035777148306806,-1.1886925170074392,1.692691719326831,-4.930564830062394,11.926519416407245
1.2919999999999998,-0.6125214596304431,8.389233288747164,2.028499601312433,3.8234139070691526,2.823339090553418,3.151519426919549,-1.9546676053523697,16.895461845229875
1.2959999999999998,2.8964054186271824,10.309877348802729,6.886190984514542,5.7234464423145255,5.95176806184827,4.404128541269529,-0.026222284404866514,20.77175351060214
1.2999999999999998,3.6662708469493737,10.090044156528165,9.253882691192302,5.779131235140994,6.972922526024377,4.939387314798296,-0.1675604143183591,22.27879570920595
1.3039999999999998,1.2701573179965635,7.693468733603368,8.358067364713861,3.462694718066814,5.5875625156677415,4.527409411279223,-2.4810993357114057,20.779056798342936
1.3079999999999998,-3.111351562265554,4.137072853218342,4.877168446232645,-0.6988738575173556,2.57057339939729,3.3508844749139826,-5.9703832579289156,16.569705919446278
1.3119999999999998,-7.344295570381291,0.9904162256989366,0.6167198445591566,-5.285425878497335,-0.5975057677860605,1.9214057368535578,-8.961185798805673,10.80537982484202
1.3159999999999998,-9.486057006987721,-0.385692839139665,-2.3551229489903562,-8.61523301638772,-2.4324464242781687,0.8167465316291782,-9.917947298781655,5.05359960910755
1.3199999999999998,-8.781034478436595,0.5147757799950341,-2.69650807060043,-9.52991411225321,-2.1423978714319674,0.3898922738590045,-8.24064038715369,0.6610789428195858
1.3239999999999998,-5.966492518600717,3.1495447504166805,-0.4038246142636126,-7.924661069915601,0.03675725272660202,0.6108292361204803,-4.6032791957823065,-1.7695765592852695
1.3279999999999998,-2.7616707392680837,6.261534889333234,3.24978447142621,-4.751067974594662,3.018893753759585,1.1149081003204628,-0.644495066260788,-2.543362111395254
1.3319999999999996,-0.8555914168755407,8.54815020526712,6.406643027457903,-1.4934446183251566,5.446792719993937,1.4332640522879956,1.8481511984737153,-2.591917238678434
1.3359999999999996,-0.9909438044905983,9.296386030458962,7.568144378218676,0.5812827996051055,6.352834290471947,1.2701494201046444,1.8240193487617944,-2.9003736413797014
1.3399999999999996,-2.6675676838249274,8.638624990430799,6.282945013876997,0.9785076319258224,5.545891879918599,0.6525793220789637,-0.558459296466026,-3.9667995505824365
1.3439999999999996,-4.582382779514774,7.331953023706774,3.243993126442547,0.06259820006471273,3.5589582784805316,-0.11751337655368843,-4.093716203362419,-5.5667184484937025
1.3479999999999996,-5.486357428604606,6.226800824974816,-0.20989735524653952,-1.3079684190524858,1.2434659548925993,-0.6589868706068955,-7.183618004346499,-6.931181951043982
1.3519999999999996,-4.920872381777372,5.756795420474191,-2.858019221379436,-2.3444382193292768,-0.7158979205560172,-0.7372781976118858,-8.626167417070974,-7.223403124231481
1.3559999999999997,-3.419111433139733,5.732965928718841,-4.1814895418028755,-2.752990003436935,-2.085935532231815,-0.3874269504176482,-8.11316548909599,-6.031221693698171
1.3599999999999997,-2.0915205324236013,5.535756348243012,-4.462167068037161,-2.789680896250502,-3.0336358524818934,0.13046578845751355,-6.200942863444652,-3.5955390539511427
1.3639999999999997,-1.8828165564573283,4.582056903772354,-4.3808733556143125,-2.9505500674276846,-3.798206340111392,0.5092009211639379,-3.835383677820573,-0.6293623622696032
1.3679999999999997,-2.9814824799213966,2.768137897840461,-4.411747510031091,-3.5351090713356825,-4.338986023358302,0.5846409504702024,-1.735626540328667,2.1492697706835315
1.3719999999999997,-4.724059815481269,0.6211222212932626,-4.42045823846729,-4.379567024559947,-4.214031551150583,0.42076241005815973,-0.01777945653157076,4.4617036684594495
1.3759999999999997,-6.033514641949296,-0.9407885454011193,-3.731551807230062,-4.942802516188749,-2.7988686309718105,0.23194806143146707,1.7346094668191654,6.597968466114253
1.3799999999999997,-6.106236872624322,-1.1169971640538279,-1.6359226498298085,-4.685997093409242,0.2558400444677318,0.19425091368611902,4.026924414793029,9.127046318999419
1.3839999999999997,-4.915462735568326,0.2964572734381363,1.9907480293813933,-3.4865666026234976,4.616455351957484,0.276829669255676,6.931463005797923,12.36261210986595
1.3879999999999997,-3.2546043097690927,2.7105212261503766,6.351263148398175,-1.8247370778899494,9.171184662776795,0.20323515629388567,9.825224481381156,15.922327956908703
1.3919999999999997,-2.3078336943108297,4.952860853725724,9.9237292981079,-0.5971269180517993,12.363687688693062,-0.4112016008257342,11.574775111319468,18.703666605770195
1.3959999999999997,-2.9941634068254643,5.801435313773254,11.142100911973102,-0.6282268521645165,12.850429773226097,-1.816164395704618,11.102302462419175,19.360901116953755
1.3999999999999997,-5.462184091461495,4.56594749330543,9.206247403952148,-2.159534196385721,10.162869599311307,-3.9258618702788226,8.02566523074529,17.049290615901555
1.4039999999999997,-8.991766997021841,1.4428101927351236,4.582827946260295,-4.6122532844601665,5.041509412901178,-6.284538487887403,3.01441467546465,12.026741972098534
1.4079999999999997,-12.322008808519968,-2.525438595477681,-1.100994811239616,-6.780398071679883,-0.7582465583545854,-8.241662773780263,-2.3661039135913597,5.733385078672654
1.4119999999999997,-14.216512182512815,-5.877704634436668,-5.74616947184586,-7.388807742352583,-5.13511755300533,-9.265413629998875,-6.291547108492523,0.23467759270351962
1.4159999999999997,-13.996526829887443,-7.367275259330199,-7.72067751067334,-5.743106667330721,-6.509375581499626,-9.236656242665049,-7.506796719802878,-2.7159840446529415
1.4199999999999997,-11.785298899668305,-6.502682227736841,-6.5732819482864215,-2.12020170253345,-4.486603605788332,-8.548482507509107,-5.9243498201594775,-2.507496121863369
1.4239999999999997,-8.371538773812063,-3.7424332606969983,-3.166378362540854,2.3185362038420863,0.0011640736256595119,-7.933461113680096,-2.677317917781693,0.06295978856724105
1.4279999999999997,-4.805779036020795,-0.26543444915751024,0.8086490943505851,6.056772754449412,5.13496256390863,-8.099764370232151,0.4240724274823151,3.238015336361059
1.4319999999999997,-1.9456247180423816,2.5652934998070123,3.662842993695449,7.924290285536699,9.018198272003247,-9.364054897878304,1.7651460988181498,5.216999526510335
1.4359999999999997,-0.14647800648162956,3.799910273433852,4.453886480569963,7.62799288698443,10.48518081776001,-11.46814628500033,0.708012727989626,5.058893759520288
1.4399999999999997,0.7800345595951512,3.274291828582136,3.2804752900483436,5.841677930857259,9.524646887124618,-13.688369206500283,-2.1235287692234124,3.080746967010782
1.4439999999999997,1.3335859852322756,1.5799600405962337,1.024394237031629,3.8013737040128035,7.135878900919124,-15.19917205848651,-5.205880854226052,0.5472405246873677
1.4479999999999997,1.9488863087099162,-0.3290253144350572,-1.2549867914995048,2.6311052673172526,4.732187779201013,-15.493309909395975,-6.943806386439974,-1.122994439674585
1.4519999999999997,2.690702825048902,-1.6620709346389049,-2.891058816390796,2.7660716256323212,3.4283882176641782,-14.62589172558728,-6.505981594775221,-1.1605806751049386
1.4559999999999997,3.1868513556846665,-2.1619799922136735,-3.823412780857325,3.7809439636457682,3.5788184256962268,-13.154281837725648,-4.217624103306662,0.20370549277868122
1.4599999999999997,2.844113480062333,-2.127189413945416,-4.378963851970184,4.706407390400273,4.773901488977572,-11.809617622087899,-1.3012261662370292,2.0175285741297557
1.4639999999999997,1.260535556501054,-2.083397081122712,-4.817075098192618,4.649339298521227,6.249712269525844,-11.0865239132836,0.8888394151072134,3.3160626899098133
1.4679999999999997,-1.41217268876062,-2.345960967087194,-4.991010120749706,3.340837873482087,7.413302870028019,-10.989775426514825,1.6816717439869535,3.782552665550611
1.4719999999999998,-4.382916912956716,-2.75921870320326,-4.377495485512554,1.2994969756582577,8.159188996192825,-11.07878986554715,1.473944899677008,3.946324801272567
1.4759999999999998,-6.505175751670322,-2.798665454627553,-2.4806434892825564,-0.47985855750812334,8.803574228924845,-10.777518369541212,1.4433743951958604,4.788032148671846
1.4799999999999998,-6.8222284735347785,-1.9827349969782517,0.6584956068691099,-1.121506890784076,9.716053385768646,-9.759504828527497,2.760055199065391,7.004520070129729
1.4839999999999998,-5.080942241964294,-0.30558436727460503,4.231649710916827,-0.37207237752591027,10.940980351249891,-8.159995013678781,5.7802045641929,10.426373380450968
1.4879999999999998,-1.9185034228976292,1.6167293613489164,6.928287094423467,1.2922564338878146,12.080531242436336,-6.481298186368804,9.71125366533306,13.973448205868408
1.4919999999999998,1.4144332848554768,2.8301889280364776,7.598922544255402,3.017236350387975,12.541467414184808,-5.252252140286146,12.980053717028568,16.22269912144293
1.4959999999999998,3.683183492943499,2.6268291972428415,5.94613904054313,4.167261516373401,11.987589201095943,-4.65959956586812,14.119623720747768,16.248794989707676
1.4999999999999998,4.304123352378156,1.0563935265963664,2.792225428571328,4.773629376453755,10.664784488740224,-4.40700152084537,12.634599814588,14.21040444881146
1.5039999999999998,3.621184446818006,-0.9831661104262821,-0.29265261802902387,5.5338399564334395,9.341804338950169,-3.9012682992797636,9.329617743680501,11.301901627417465
1.5079999999999998,2.6512266380941583,-2.2011497452867843,-1.8431474891185644,7.3351467346892605,8.847503795171178,-2.665622965156217,5.877806826165397,9.056539569708548
1.5119999999999998,2.434783098564367,-1.6890220821769617,-1.3528948960956768,10.591873107840001,9.48614378142247,-0.7296480902550684,3.8732461725558096,8.413729019834136
1.5159999999999998,3.3880102079419885,0.4550718305808914,0.4031016933149658,14.828505136196327,10.7270239217969,1.2765703905024566,3.9211335135441914,9.121344943294389
1.5199999999999998,5.036812740241658,3.051681903360077,1.7974585187948833,18.790229445954537,11.401941363497826,2.418265882268315,5.309509126112971,9.850931446122559
1.5239999999999998,6.304716299835491,4.425774564391759,1.3283479631372757,21.067596255299577,10.36207613890656,1.9944649849567213,6.469402489528875,9.021044936645922
1.5279999999999998,6.1948592507797,3.3525980525610066,-1.416876167850205,20.88692820110373,7.218712804373354,0.00643313550244784,5.937702850505957,5.857457557031012
1.5319999999999998,4.460766114085345,-0.1670197581697721,-5.38045053964197,18.601841543268165,2.713059748593878,-2.7168546068351134,3.272984978146269,1.0764136169382255
1.5359999999999996,1.8392982970435696,-4.7893150658865125,-8.512350066388535,15.56028559693732,-1.5682659417207105,-4.850680487659702,-0.6193849213304929,-3.2621923388032883
1.5399999999999996,-0.32181701775880356,-8.483507982395167,-8.874338361820264,13.387313285071286,-4.019539790521776,-5.217333977943781,-3.949909572937031,-4.714205098360253
1.5439999999999996,-0.830926570108204,-9.600655626018124,-5.745734798261765,13.078309490581887,-3.9034713939545327,-3.3863247166336805,-5.010312180354958,-1.7187483697161952
1.5479999999999996,0.6266315044831572,-7.771141081191672,-0.10503580353906727,14.406575769398842,-1.7798636530696967,0.0950515347867622,-3.0701104127419967,5.494045904899394
1.5519999999999996,3.225047010311755,-4.128231323938962,5.7944997418981075,15.976984301763878,0.7945702704146242,3.95413743568497,1.264889329104335,14.853240315293078
1.5559999999999996,5.354750745154888,-0.7290125571071258,9.53089569761869,15.910133266032062,2.144027704172913,6.787809634592122,6.408714890101692,23.298562070413027
1.5599999999999996,5.429888355083676,0.49981461748393485,9.69854242088877,12.804822288948344,1.4275320009292045,7.681651673468878,10.621468570094294,28.10190815988608
1.5639999999999996,2.6985381321555906,-1.2888360879060201,6.537440543681441,6.470750149801461,-0.8868009755524326,6.537812984464836,12.823436202988887,27.991455529736413
1.5679999999999996,-2.3840576630846044,-5.523807415198462,1.698404591450526,-1.9351170998779708,-3.3060487218681374,3.9734263703976467,12.972611480749038,23.54120926038013
1.5719999999999996,-8.370980635198066,-10.611711231375011,-2.6660603226519015,-10.390476775015486,-4.182636055660623,0.900431345035031,11.863672423452954,16.690942214176175
1.5759999999999996,-13.490340815584204,-14.794212326323759,-4.953503271597583,-16.83963399950153,-2.666981204161857,-1.9433232723131368,10.54695257457206,9.71866762683203
1.5799999999999996,-16.39539656668785,-16.968550584955665,-4.7499865333484195,-19.956747367137723,0.80385801680859,-4.259919103242282,9.734881442633196,4.218591188116989
1.5839999999999996,-16.62918440336034,-17.04316394388661,-2.7877929423066234,-19.514676998409413,4.742603891902036,-6.147156307746627,9.521162982997339,0.5780412177737162
1.5879999999999996,-14.619943651410722,-15.70027236925307,-0.3380221772549703,-16.26077343893121,7.42590876649956,-7.823866350096068,9.501842822013714,-1.8469809597845597
1.5919999999999996,-11.29151082390672,-13.794069953172766,1.5463510298195615,-11.451500665962158,7.80676604402106,-9.340421786282604,9.15730207730303,-4.055104700397351
1.5959999999999996,-7.5663259747416305,-11.805826634627465,2.486621597220619,-6.321712484198542,6.01182949136728,-10.465039336761947,8.211466645490873,-6.663560518609302
1.5999999999999996,-4.040565427398178,-9.687992352963192,2.7394676717003676,-1.7319622817240088,3.172449640821469,-10.810129563426017,6.753026625405255,-9.526456444436917
1.6039999999999996,-0.9519970666324298,-7.128482669248115,2.7967260515579255,1.9214956431878818,0.739326840162903,-10.100859829970432,5.103848313976414,-11.882505414325351
1.6079999999999997,1.6419797358448704,-4.00475719818678,2.940342852150934,4.6001126664741605,-0.3029482160927728,-8.399415279938694,3.5642746363737388,-12.893758745740342
1.6119999999999997,3.663412329604398,-0.6874056974920677,3.0505614171870548,6.452480981210101,0.11968650165908912,-6.135942900440568,2.222622327019053,-12.218405923056707
1.6159999999999997,4.923632023293976,2.0066396398851793,2.7413213499639824,7.659162243722676,1.2521677834520233,-3.9371386165475997,0.9382025370105112,-10.292513609871094
1.6199999999999997,5.207532031150549,3.200781614288644,1.6877243971575808,8.349783633833795,2.0118591110913258,-2.3458250180265168,-0.495239840594877,-8.152102502001071
1.6239999999999997,4.461560653962806,2.470609475287347,-0.08737559191831679,8.591349816553702,1.602708481314039,-1.5783680222957628,-2.1104238801090105,-6.885623614398355
1.6279999999999997,2.9534529709562776,0.17484733168203093,-2.1489123854480567,8.424001040404619,-0.08586973139153997,-1.4454512794400216,-3.6010607214921038,-7.0186193617591925
1.6319999999999997,1.2693238596293668,-2.6035216893396864,-3.8361028638173593,7.9124142427408515,-2.472446652882354,-1.4753724774855073,-4.349502075887358,-8.167946660563757
1.6359999999999997,0.10356646727996122,-4.5140771031838085,-4.587086403016656,7.167837351147682,-4.6290108069406415,-1.1857774653653905,-3.676042643654,-9.195165166929655
1.6399999999999997,-0.05765695707304985,-4.5803814656428585,-4.215472431264061,6.330714057578007,-5.763079901676974,-0.3664755825229804,-1.2216313350836572,-8.820587539375992
1.6439999999999997,0.7914452909062675,-2.712045012784074,-3.0120537832044647,5.502308211998752,-5.596695074955278,0.7523345021327259,2.7061247548444953,-6.406063755486684
1.6479999999999997,2.073584775385825,0.15122616316148196,-1.6641592194955592,4.628968436196374,-4.5009497160381216,1.5068545093090506,6.98077627409657,-2.5189233546625474
1.6519999999999997,2.7840084127528826,2.360060075043293,-1.038902571077415,3.4218615228655835,-3.347040876853498,1.002431976085063,9.849525756080766,1.06532877225618
1.6559999999999997,1.8708808329647582,2.2245068487936805,-1.911788718041862,1.3993618217573385,-3.151920060449811,-1.553166922290984,9.486024565752814,1.9814828019298147
1.6599999999999997,-1.3012592784234585,-1.2371515314716817,-4.70187645909391,-1.9046655450074468,-4.653684127511042,-6.499924787076452,4.740915534706801,-1.6959781905825366
1.6639999999999997,-6.58538591092838,-7.773467437589716,-9.252190808956584,-6.60911600847794,-7.950240638628202,-13.480927949934994,-4.190090617230453,-10.457478700223874
1.6679999999999997,-12.9453725525982,-15.837425308975071,-14.72419573570187,-12.18437254058881,-12.335996981624703,-21.40357140552078,-15.514887545290549,-22.882027683932392
1.6719999999999997,-18.69528269813236,-23.041516725159454,-19.68955121010731,-17.38616166180873,-16.4259155399468,-28.65757977651083,-26.234316266132737,-35.94411380264137
1.6759999999999997,-22.037713247193096,-26.98449448486099,-22.473574981748243,-20.548433358391776,-18.580247130349562,-33.54680130887937,-33.101549262250046,-46.03909893538366
1.6799999999999997,-21.71433508971859,-26.152403285631408,-21.71961221004858,-20.190945367303357,-17.53484601035325,-34.80279508231615,-33.81349969680559,-50.3222650388343
1.6839999999999997,-17.521247262444376,-20.53237394601001,-16.98806486340618,-15.697649324838494,-12.993738769950141,-31.999378471471573,-27.942091179589625,-47.78422094585585
1.6879999999999997,-10.44912333103639,-11.665487355302503,-9.10738631365075,-7.7221023254624015,-5.906799783775568,-25.70815174523159,-17.151868420458413,-39.587469820256956
1.6919999999999997,-2.3487643804692198,-2.083026457431515,-0.038847482795063115,1.9335103513931244,1.7665647611420354,-17.31880151434234,-4.5668555152115005,-28.516820225137053
1.6959999999999997,4.7603483161783515,5.661015627347297,7.77702892355228,10.97043887262953,7.781870279847681,-8.585522600762488,6.4611301958630065,-17.80908903798263
1.6999999999999997,9.441113273142037,9.934794499025884,12.337497877821079,17.488405801454064,10.509444315170185,-1.0861334270557563,13.611988211436255,-9.918817378071253
1.7039999999999997,11.309297474419509,10.529325958370464,12.834154713026692,20.692732248544417,9.57943130860076,4.1883574153071095,16.301710905079744,-5.771853064097741
1.7079999999999997,11.017488152743681,8.51148782981727,9.880530577585887,21.06741178577431,5.947926164461933,6.982637435055949,15.55131166616411,-4.783191477625223
1.7119999999999997,9.78391091308913,5.5424206994239285,5.10098141684648,19.95367977722708,1.341764075181345,7.653554723759953,13.167362808055259,-5.507883740741818
1.7159999999999997,8.714265286922455,3.023219355128276,0.2901648723982362,18.767335320406346,-2.6413427183279055,6.881202664384546,10.727566843213935,-6.511886752856299
1.7199999999999998,8.25766491903596,1.4929567030494582,-3.420704229963121,18.27602325306907,-5.298827385082404,5.369778349482658,8.912420354696224,-7.004059287679411
1.7239999999999998,8.070832056228028,0.5641234565246123,-5.951955748307228,18.315672257002007,-7.034154942788518,3.6601065060422115,7.493238372067935,-6.952020324846671
1.7279999999999998,7.34090626840225,-0.6193980437046775,-8.041445897337326,18.059510451830647,-8.90611897553481,2.0968303494828433,5.888818405792335,-6.731472980489343
1.7319999999999998,5.369674961880264,-2.6931785418801155,-10.553463337620087,16.645272260528145,-11.77554080155278,0.9005494024204381,3.870583517385967,-6.606210781616028
1.7359999999999998,2.0902209009545913,-5.555890751948937,-13.755247839570075,13.775959888040234,-15.550862358357335,0.2447271654928045,1.9379896912287222,-6.408483822378912
1.7399999999999998,-1.773870261810771,-8.334377569608478,-17.004638362534934,9.942936419707621,-19.006881187436193,0.2582943470169994,1.1202629880062887,-5.617345616576131
1.7439999999999996,-5.000211729408875,-9.83382026484378,-19.021775024835733,6.167697939770733,-20.306862451272536,0.957819258710515,2.325758156765005,-3.750206883982173
1.7479999999999996,-6.4334169757121344,-9.196458753216575,-18.57830753291455,3.4529794212976412,-17.95687966699188,2.175376182058244,5.674512770008732,-0.7813325632541819
1.7519999999999996,-5.523576198381306,-6.389134034845483,-15.19880113713316,2.2783920152614883,-11.67203385477842,3.556520012267356,10.236438309857476,2.699780001930776
1.7559999999999996,-2.5741205091790107,-2.2442939016154924,-9.474005979922367,2.428477541108805,-2.6710429317327,4.669177733134347,14.361923102653236,5.71899908650812
1.7599999999999996,1.4060364551514795,1.943207970518415,-2.8267143427874544,3.21636090013817,6.761132481797176,5.177657066991742,16.44419526305137,7.388508053827536
1.7639999999999996,5.158402461556761,5.034385929899145,3.123930931245013,3.941565882965733,14.217519134776012,4.997254380836239,15.687931945629316,7.325852176647459
1.7679999999999996,7.683944392520971,6.530620127043221,7.22933612882116,4.282534480349568,18.123965988150303,4.339105571101754,12.455507702648902,5.7786402137171535
1.7719999999999996,8.55626116143867,6.672928554569808,9.151786287208779,4.382883290143582,18.230635972722666,3.595399416082728,8.005820486388984,3.3865383797128743
1.7759999999999996,7.9400269060797655,6.1439296596036,9.24712380940582,4.620543630036991,15.450841440618206,3.1254757394635817,3.8059084953310958,0.745577902362129
1.7799999999999996,6.367837468120342,5.576268772878393,8.126073534495845,5.241909196887718,11.208468286868992,3.059093704505358,0.8209878086508979,-1.9360868121730164
1.7839999999999996,4.433102271730604,5.1688676248504635,6.203481793523679,6.10827558550227,6.694150834968241,3.212811658939245,-0.8615566836433572,-4.895793458470507
1.7879999999999996,2.5708262343623574,4.626418726425982,3.518374094141109,6.721068523398571,2.4248876124656817,3.1791187497183273,-1.9021063215859613,-8.548058655182103
1.7919999999999996,1.007907012171927,3.439121831301236,-0.09483170467501623,6.518411329157971,-1.7072235378709593,2.5677211641486792,-3.1754220013463055,-13.046607814185336
1.7959999999999996,-0.1566177101840367,1.3182086814322247,-4.632895612936409,5.249024538066806,-6.016321457301274,1.274382648694882,-5.169329106773148,-17.95600067581654
1.7999999999999996,-0.8612530499131026,-1.5057578693777032,-9.63492518885414,3.1703306455674465,-10.569237759844327,-0.37685595616858336,-7.67058697695029,-22.25118752733215
1.8039999999999996,-1.0739617572926363,-4.318229348111345,-14.208414140151035,0.9344886105245678,-14.99962831123321,-1.7167021496970847,-9.889919011140591,-24.67297756876178
1.8079999999999996,-0.8574745944060851,-6.276868166397435,-17.388370552308515,-0.76953788706669,-18.68362589827484,-2.0140519197320828,-10.929148296265339,-24.264031412147233
1.8119999999999996,-0.4599992647445106,-6.892636376898736,-18.63402618642158,-1.6137376955612126,-21.136905235132872,-0.8360154813362897,-10.310193465504199,-20.818285748693597
1.8159999999999996,-0.3118250235775122,-6.338128997278545,-18.150351900936585,-1.8204564824900444,-22.343461179204496,1.7053446749741852,-8.26708053557013,-15.013467176731865
1.8199999999999996,-0.881526737666718,-5.397728805019142,-16.825456768638105,-2.02967388471734,-22.791117868802758,4.959973758068372,-5.655593121618949,-8.168520784687644
1.8239999999999996,-2.446858667329252,-5.062776198357824,-15.781847908117925,-2.9075554032442597,-23.174317354941195,8.005331337419193,-3.5432808873538306,-1.740958171310922
1.8279999999999996,-4.89437418079433,-5.9759651352324,-15.763627473059387,-4.710093976713324,-23.934432306959934,10.05703183827245,-2.682206348725231,3.210243693461962
1.8319999999999996,-7.68265462837735,-8.028889884975797,-16.689394863668895,-7.061188175695861,-24.920533830693785,10.813128326930382,-3.129801387682164,6.364790821398856
1.8359999999999996,-10.022666719540211,-10.34498455875655,-17.631957156154385,-9.08373333626605,-25.386579307446482,10.549918149907171,-4.203153930286135,8.150323263169412
1.8399999999999996,-11.223514105537106,-11.702681715181825,-17.27338363155468,-9.83875599561361,-24.359581395107853,9.910277370359836,-4.787168271937844,9.425312434927037
1.8439999999999996,-11.052088386505602,-11.19644695489842,-14.619744733648076,-8.85069490351998,-21.193234713499805,9.491485298507541,-3.8668474221358338,10.989496769752805
1.8479999999999996,-9.913651182471767,-8.795890994450929,-9.617297089532258,-6.434202911748798,-16.01163926474146,9.466720964119304,-1.0425752067349094,13.139305729648186
1.8519999999999996,-8.725013243338253,-5.483191004581386,-3.3410770978971414,-3.621984394001629,-9.795940703929773,9.461612381763189,3.214024003056693,15.459476390065902
1.8559999999999997,-8.507003418462773,-2.8516489290495883,2.3812596222742286,-1.6993157499164226,-4.0416039258198,8.770389049052028,7.682781508352491,16.959552118787542
1.8599999999999997,-9.867271977680502,-2.34138918374083,5.747823927031277,-1.5572896886169474,-0.1508203558742025,6.796349455569725,10.852278518359526,16.503345282097143
1.8639999999999997,-12.618107961729947,-4.47899163234797,5.802311579484922,-3.178285981625777,1.150916069998857,3.470884844500688,11.534632106786376,13.352775896144522
1.8679999999999997,-15.736388367827203,-8.518016322083895,2.9006689032321447,-5.540777656103273,0.09701593554291321,-0.5898025608694297,9.371860942132116,7.584647113435494
1.8719999999999997,-17.725860220129107,-12.698169989777853,-1.4261726846971214,-7.03709073684422,-2.2775588065997,-4.303673274744142,4.988702811613621,0.15759433993662242
1.8759999999999997,-17.255008648950025,-15.032514778146833,-5.167952083533237,-6.2443881255267115,-4.655242752643062,-6.6119155996602785,-0.2923650514530891,-7.4328106743796525
1.8799999999999997,-13.788505524180437,-14.257170063682679,-6.762436068478564,-2.6921740530633542,-6.062783284091893,-6.984558485319212,-5.045545905279141,-13.770402769261636
1.8839999999999997,-7.887431776147423,-10.457286665529864,-5.799527837755704,2.7754036871201606,-6.301033313719017,-5.6735794685937435,-8.367045185023926,-18.1126689349785
1.8879999999999997,-1.0422862562190858,-5.074098421598137,-3.1717042583413786,8.239989411418719,-5.99236093054742,-3.5818112390370516,-10.223468714038972,-20.66663176669681
1.8919999999999997,4.904688253508539,-0.26946597396636207,-0.5853940929600867,11.485809410914044,-6.221929863648256,-1.8242483716585411,-11.352404618590299,-22.375409762140407
1.8959999999999997,8.493740783779685,2.0549574779797695,0.31565035995572543,10.965440930413024,-7.95060262529114,-1.2131186631158926,-12.758192491071895,-24.308225809907526
1.8999999999999997,9.189400862369439,1.0948961525537015,-1.2368899221464744,6.491723358424679,-11.493793585877029,-1.9215887905102136,-15.06776873747367,-26.973179627817444
1.9039999999999997,7.483879927642192,-2.565448597145405,-4.797223142914845,-0.6882919747158667,-16.329961048420046,-3.4860643163374334,-18.118927128739415,-29.946790609412346
1.9079999999999997,4.535492959846124,-7.329640294959972,-9.016064886599452,-8.47673221317109,-21.33326192028744,-5.111565121133026,-21.008462508073535,-32.04746240060376
1.9119999999999997,1.55230487353856,-11.424634736287771,-12.427280341903497,-14.879350096460257,-25.315498073803155,-6.0983023162407335,-22.593650676993093,-31.994659791353115
1.9159999999999997,-0.7489701938693543,-13.748158831380351,-14.261013658118372,-18.839094760634907,-27.596728690676173,-6.1576566779713175,-22.171176863558685,-29.196650227419013
1.9199999999999997,-2.3282857557514944,-14.298956675526824,-14.827799128329389,-20.526827777042854,-28.29846553803918,-5.467580598155109,-19.93180907234455,-24.189527745986197
1.9239999999999997,-3.610811689752154,-14.007826656414181,-15.252703727463995,-20.985050628751196,-28.2019220217353,-4.485406815112583,-16.913306890292006,-18.46727324829226
1.9279999999999997,-5.03109060193492,-14.087497548792726,-16.696460564819972,-21.34288498681599,-28.225320850554,-3.6457584005547687,-14.440915413000766,-13.744804711476718
1.9319999999999997,-6.6435369567234375,-15.28033072042399,-19.511336586598645,-22.069295242163207,-28.80553610572406,-3.1276308165806768,-13.356425357523221,-11.056334239121497
1.9359999999999997,-8.048424999417875,-17.41058287225951,-22.833422337992033,-22.702157415458714,-29.52427112947271,-2.8017429350020393,-13.474841660674429,-10.20812387378919
1.9399999999999997,-8.652714387631022,-19.46676789160574,-24.87653661277818,-22.178118066560273,-29.203297771790858,-2.3590431220272876,-13.60833805594757,-9.907052053047664
1.9439999999999997,-8.080357451739019,-20.14752416497322,-23.812362941175707,-19.548138112610104,-26.463818752311454,-1.5221839966079642,-12.174356983719008,-8.534229547493851
1.9479999999999995,-6.468647961061379,-18.575880052519096,-18.78994394836127,-14.653348538411592,-20.49884636158231,-0.21793471931596287,-8.088739367922244,-5.135998886499692
1.9519999999999995,-4.443508077773458,-14.801862157310552,-10.528544340831559,-8.351126021491837,-11.66284911218736,1.377497222855709,-1.4727633858356057,-0.07216652233910281
1.9559999999999995,-2.78593591076924,-9.840393203285657,-1.1477463083674593,-2.1622558217468395,-1.5583406618266054,2.9258603689168012,6.237486548922789,5.060528185164912
1.9599999999999995,-1.9870181869587213,-5.2438671091995275,6.702986481107473,2.4505418865583124,7.459070193882781,4.08338685972376,12.860558269457215,8.20638821882676
1.9639999999999995,-1.9603177047524696,-2.4239635655908387,10.997475302849125,4.757753883912301,13.163101000530787,4.640940556190799,16.437454291520226,7.904499950321224
1.9679999999999995,-2.079655401605123,-2.0416200381378076,11.198203932663546,5.032977886625304,14.34419518251525,4.597401855992757,16.130973355669994,4.071414597370676
1.9719999999999995,-1.5055811525271565,-3.738205756962543,8.411757237222446,4.303026013441922,11.299774142957176,4.148947492119987,12.602056709979479,-1.8941876915960165
1.9759999999999995,0.3987311992705145,-6.302049323459414,4.78575816814373,3.7588732675994834,5.713111816680339,3.613989701158971,7.675851556969974,-7.719959186971209
1.9799999999999995,3.7840290332246695,-8.18512317093564,2.4717803549933706,4.18491283075673,-0.022354992632699577,3.3363981208067344,3.495986009077569,-11.240017326570523
1.9839999999999995,8.274930406568274,-8.145025726029871,2.677168776715007,5.702016864810503,-3.7335851758548415,3.5819800408744413,1.5914418827896952,-11.256372533594003
1.9879999999999995,13.13263020349359,-5.754764717644775,5.236723508349314,7.88906727164067,-4.262611724373073,4.455521897707513,2.2929913272191698,-7.888765035229881
1.9919999999999995,17.501275931545024,-1.5815144636185323,8.85327889892369,10.130989510652398,-1.805662393145667,5.8603027352128265,4.758178557993233,-2.328022466103903
1.9959999999999996,20.595827881386867,3.0288901225385416,11.826170680444193,11.935311013275168,2.305715236526794,7.514131574235762,7.532181959235459,3.7986404936618783
1.9999999999999996,21.810026157317225,6.475007855215608,12.875459289792161,13.047822853605794,6.242887869447259,9.035223890589805,9.320898825364566,9.099241897198226
2.0039999999999996,20.821152771519337,7.535639670443743,11.669542617548359,13.388535348629375,8.450567256758404,10.08169302519127,9.584657455569868,12.836189979965638
2.0079999999999996,17.72652376235419,5.8648186589698525,8.848144262477035,12.93549636620628,8.218312205501206,10.494525027053896,8.68648483096058,14.992224949815864
2.0119999999999996,13.147033518332591,2.1223454563714768,5.582081977864618,11.68174058760951,5.827190060848807,10.373109793640651,7.56670330723864,16.053263922064616
2.0159999999999996,8.185889167342339,-2.3218279922070906,2.934134366300441,9.708412175123158,2.2649094472149045,10.030736866497136,7.144614035642917,16.68086959500397
2.0199999999999996,4.132778031172165,-6.001956036930096,1.3484468157498668,7.2659687284744905,-1.3252890503094932,9.830195540316709,7.784032391729852,17.42305850647699
2.0239999999999996,1.9340177938506713,-8.024604493587503,0.5014277942609624,4.729726842933815,-4.180972880000354,9.96633332098645,9.096729747684549,18.531877551684374
2.0279999999999996,1.6821753276644813,-8.467983041241496,-0.4459148611786077,2.4088348873783616,-6.189436979259426,10.31393191184361,10.161817929813878,19.910232369543337
2.0319999999999996,2.4462783956155363,-8.298357175864567,-2.332542830453349,0.32265893437079285,-7.776775515680129,10.444643860755605,10.04066750846414,21.17751131960631
2.0359999999999996,2.658875974128023,-8.802304385352727,-5.46232036227093,-1.8496848152071834,-9.481912681034828,9.844960936258758,8.332567689342795,21.855956485219394
2.0399999999999996,0.9559640639790814,-10.8155708223685,-9.312924981858941,-4.5307643422715955,-11.458583575532884,8.246405611633236,5.487796546789468,21.646547045009356
2.0439999999999996,-2.95134202666668,-14.159122554768146,-12.65271724325612,-7.8211993660188455,-13.200824881353128,5.887479258595704,2.68860059585586,20.66880917220078
2.0479999999999996,-7.90284057305189,-17.60757099750026,-14.029609498468744,-11.165271626349295,-13.669382574724978,3.538226349524848,1.3470459844588731,19.524411991577836
2.0519999999999996,-11.719785016076912,-19.44716477836073,-12.431264935087256,-13.385292719650806,-11.793889084333387,2.2274401505892456,2.4450870751779803,19.088118646872317
2.0559999999999996,-12.291966927052272,-18.353559660130486,-7.813689235889342,-13.171271400596652,-7.104405388950454,2.770414335300302,6.024947908326794,20.070353057727516
2.0599999999999996,-8.78923638476499,-14.144229179653848,-1.2400655030355665,-9.834479065368669,-0.168211203719693,5.3090319929087855,11.082742259211045,22.544404034932995
2.0639999999999996,-2.28336671533998,-7.974557616909806,5.473170533819484,-3.885153596636883,7.440501472272672,9.118793353701221,15.940309548721416,25.720979337274002
2.0679999999999996,4.6579539315093825,-1.822485050369778,10.490995651650337,2.979976416655063,13.702002552332033,12.841552682401925,18.961137631138172,28.187784552789708
2.0719999999999996,9.249042235830075,2.4802645213751475,12.742404631699856,8.56237471559507,17.00481830688227,15.06481988008909,19.280384767299893,28.56102459072372
2.0759999999999996,9.966728285637146,4.160751468062699,12.374032196706594,11.20893735115942,16.87790479870955,14.9761826873073,17.19767657442071,26.23509241499778
2.0799999999999996,7.379849986946283,3.8462143976844345,10.626487067498601,10.650966183459786,14.213957446856512,12.757494326328015,14.019137155028602,21.804857675827407
2.0839999999999996,3.814305148456242,3.134755976391716,9.167218542111641,8.1316430769607,10.83598615521555,9.488364974969045,11.411686081200969,16.857972587778022
2.0879999999999996,2.005943176427536,3.6224855821044457,9.205685508488386,5.7050016928660625,8.592545555743072,6.594656586116798,10.577546144984808,13.195577495379894
2.0919999999999996,3.485169697637957,5.920712777596918,10.827404156799957,5.060872331149767,8.417052348239622,5.11035011300055,11.64920186481595,11.883427277819465
2.0959999999999996,7.63319018421339,9.22446195234852,12.904506794644249,6.543822587248542,9.83509987434536,5.152429813593699,13.61379477387436,12.6730245375702
2.0999999999999996,11.969251967740092,11.677818393760617,13.644682511144083,8.931523474339429,11.181330689787956,5.902330432532381,14.819501697857959,14.142704564605538
2.1039999999999996,13.550110195566504,11.361078236357798,11.519712317300446,10.1359297348381,10.44458370913253,6.111980858852803,13.818534181327777,14.517069588296636
2.1079999999999997,10.699212735501987,7.3741836201975275,6.11250877457087,8.452843767186096,6.336194876065747,4.86034512314518,10.135558243317064,12.719629400536178
2.1119999999999997,4.0805099547696955,0.4301043183290858,-1.542398337320492,3.6540806214356962,-0.9386493771337427,2.1306539578313277,4.576335275548445,9.05000312750144
2.1159999999999997,-3.5061296839235183,-7.352146021375347,-9.301997156871721,-2.7122816467945086,-9.593399090499133,-1.1192503653119275,-1.077585453681877,5.101143206152301
2.1199999999999997,-8.52447321390423,-13.35472055417631,-14.772659866320737,-8.014204449070348,-16.914274069434214,-3.4541608104968873,-4.8270382077153045,2.953271242072333
2.1239999999999997,-8.536488617499117,-15.609985455088008,-16.28057447808237,-9.875530559989784,-20.35763218494867,-3.7643569616234345,-5.309817041093993,4.076792394194854
2.1279999999999997,-3.477832841670761,-13.630004774134932,-13.510751148253348,-7.451796587843091,-18.592021761715387,-1.920932333192468,-2.3417140422939156,8.555610324909594
2.1319999999999997,4.31049043105395,-8.5405854956648,-7.5520097727180655,-1.9477534647353423,-12.025787626439069,1.093540279125591,3.081020983817325,15.046693612845502
2.1359999999999997,11.292170199894827,-2.494673287522801,-0.35480069396953695,3.9208387195199066,-2.589250436715247,3.6792134695501773,9.284861379618178,21.476656150657163
2.1399999999999997,14.500005851728929,2.282631865715757,6.089900614908856,7.23151647746181,7.077128455417096,4.466435965746314,14.646684576020562,26.04799899619593
2.1439999999999997,12.938135817425064,4.368086562767758,10.481127921226516,6.273054067245312,14.652233278312906,3.0566630582447942,18.202984805191136,28.006531797517255
2.1479999999999997,7.922130374281778,3.5629056395168845,12.552339986188144,1.35586008180303,18.924879357038662,0.2472299704240868,19.87784801823409,27.793607580276785
2.1519999999999997,2.259399442294125,0.7590343111669426,12.943355626001903,-5.3675590135703715,20.039270202687703,-2.3857692456949735,20.28837184550366,26.581129298087035
2.1559999999999997,-1.2125099952336313,-2.5886370018035905,12.732532978526251,-10.929764262395793,19.164125928854446,-3.315656532999128,20.293400155947893,25.51877451457085
2.1599999999999997,-0.9553390220353322,-5.1135447767328515,12.850230904541604,-12.904333755735934,17.770447844654086,-1.865468376429817,20.512397599313317,25.118774008464698
2.1639999999999997,2.7169536487028836,-6.025903794366059,13.642300992109995,-10.423245856003177,16.891246614392912,1.4516324294613696,21.021553228282755,25.09057673910047
2.1679999999999997,8.028403940765202,-5.289698834724732,14.748751099553374,-4.403886657822341,16.69844897784901,5.209090277949144,21.35707370368118,24.633954216342318
2.1719999999999997,12.778719910933432,-3.47726589750323,15.331055971653768,3.050340719295491,16.563393976763905,7.803041771229346,20.791642291245807,22.9668806802988
2.1759999999999997,15.43665834287026,-1.41558142398992,14.539034202057337,9.72101061094122,15.54628368704391,8.264006439391778,18.734215477089947,19.80401014412655
2.1799999999999997,15.732284840777993,0.1954878380545324,11.996310722594785,14.246088866383616,13.029637520416372,6.711335036914534,15.08996127107298,15.546969374160653
2.1839999999999997,14.543234888615189,1.0453993964667916,8.077045710248171,16.538342927807662,9.15638526746659,4.23582713333235,10.409343592767982,11.13275068837902
2.1879999999999997,13.220744450415168,1.2559173006529818,3.815416501317145,17.51017383851513,4.832305554262803,2.3082558136788975,5.763115091354393,7.677304618358676
2.1919999999999997,12.779168275867505,1.2122214370898519,0.46612826978889643,18.331558717381995,1.286185455592431,2.042045942503364,2.3720563034544284,6.082667424460396
2.1959999999999997,13.385595498469684,1.2811416517739644,-1.0924922115309528,19.665812011699018,-0.5819013462155453,3.688525949043651,1.1290658764969521,6.748915771913062
2.1999999999999997,14.341635982947878,1.549754087860947,-0.8231276855887018,21.29030686158194,-0.7087747185196349,6.594420860577429,2.2092571256293922,9.475169387585993
2.2039999999999997,14.524404849592202,1.730952718892695,0.400784256465613,22.283517095281695,0.06303388817127598,9.596208230457705,4.949243507284109,13.54335470335377
2.2079999999999997,13.029501025516197,1.3063041076044328,1.2074490880345365,21.633548121829563,0.4272613338953306,11.61155558651626,8.07699347916946,17.930484951070184
2.2119999999999997,9.68192695241737,-0.1416672647752648,0.4614172189387773,18.912481029336504,-0.6274126951896051,12.12192314502363,10.241375045753102,21.626453585246054
2.2159999999999997,5.163290311912078,-2.598801372363141,-2.0632001518265497,14.614713985711205,-3.158144789274047,11.313476011049488,10.601496815588462,23.951065920780366
2.2199999999999998,0.7017448448954156,-5.507863721962167,-5.449552519463396,9.958478396491046,-6.097890295094658,9.855704698482668,9.194171408721559,24.750823835976917
2.2239999999999998,-2.4903630975916258,-7.956676444885147,-7.994508624471905,6.292450976902501,-7.692514262668283,8.48901952218921,6.920845401793258,24.41101731939898
2.2279999999999998,-3.770823666586466,-9.108703205646407,-8.026530938790188,4.428411710833416,-6.364129937574376,7.649734719718936,5.115701033395453,23.645809731633562
2.2319999999999998,-3.3543010313757122,-8.657560485748718,-4.78186607297539,4.266668158186576,-1.573199787192948,7.309705253856464,4.8889011805758855,23.12410936700553
2.2359999999999998,-2.1836614026674397,-7.027898201148446,1.1290448584703654,4.928647055934334,5.790097690538801,7.0904771773905395,6.587117341754038,23.117793236342322
2.2399999999999998,-1.4437402036777485,-5.181018180380647,7.920599952217344,5.313437954926258,13.709323198075367,6.549122049428661,9.63049335169967,23.340139977698982
2.2439999999999998,-1.962411077390243,-4.104898756809007,13.409261676793449,4.75452456890423,19.898673294750893,5.455168646811444,12.79657716077827,23.062362595505647
2.2479999999999998,-3.79654113833476,-4.272220567625709,15.960652064344913,3.395863195557922,22.77718702170432,3.914865384134373,14.794557573277643,21.45724471506219
2.252,-6.188909467994904,-5.368422310484675,15.128609458832216,2.0965135067632445,22.082323291005764,2.303656029853755,14.824343954221604,18.00806606677702
2.2559999999999993,-7.926712940650532,-6.445588519418379,11.704737177845118,1.9430585965271803,18.85770978260541,1.0742148010060646,12.856184004905572,12.799177416970451
2.2599999999999993,-7.943907288129367,-6.446906896081487,7.189184756827785,3.6396166390002236,14.842638577514379,0.5449837068447323,9.519515161940149,6.538957696853231
2.2639999999999993,-5.867621092334389,-4.812451915505903,3.0102989971841225,7.114884631902328,11.609116821621,0.7816700242614161,5.70614558249963,0.31745613092198255
2.2679999999999993,-2.2587577280156665,-1.8385277268044433,-0.08621246243012592,11.535645829099167,9.885032456417889,1.610000165139354,2.124476158031939,-4.7860492678910305
2.2719999999999994,1.5764713105915007,1.4073030913280604,-2.1973992924989147,15.6884463988971,9.36177077551497,2.728791497289535,-0.9588269406958716,-8.066782345422098
2.2759999999999994,4.134377976727933,3.581580230540794,-3.9621320971676823,18.500105171937662,9.01455995515812,3.8546009171038804,-3.6741743920458703,-9.387306190779896
2.2799999999999994,4.357747811732224,3.6948384380907555,-6.0486613156307385,19.420627595686256,7.7016888824045395,4.823697184196135,-6.288124101689164,-9.142958077129492
2.2839999999999994,2.101059977247587,1.5740957201043102,-8.732168824146186,18.522746015966163,4.73478945957811,5.627236465810938,-8.894681150339466,-8.020087975188517
2.2879999999999994,-1.7829557617146747,-2.0600000464540926,-11.770467277875582,16.33806442384912,0.16187798714997825,6.383086869711974,-11.247356627590989,-6.668366755936177
2.2919999999999994,-5.786378546646688,-5.917754593802272,-14.593156121749189,13.578808223326917,-5.312357646834386,7.265918097774147,-12.813496743129633,-5.416838324164473
2.2959999999999994,-8.382664480338406,-8.69250455112524,-16.64829560684109,10.891896430323982,-10.659614034679095,8.419793294274882,-13.019395661060344,-4.167552892125741
2.2999999999999994,-8.683853421309948,-9.578924391744465,-17.687341562650715,8.719535818303143,-14.922807680316367,9.880992482797069,-11.563723173969493,-2.5064073684883965
2.3039999999999994,-6.834942234470191,-8.539373233375471,-17.840829672398286,7.256863867329457,-17.500637511230252,11.532118232102675,-8.640553276541084,0.006486588811981164
2.3079999999999994,-3.9685118038109977,-6.234440609365436,-17.486231676425803,6.4561325767501785,-18.24412288458163,13.107761593666737,-4.95286402337581,3.504656762896616
2.3119999999999994,-1.7240097482894612,-3.677731983077024,-16.994136505963922,6.0573412174913415,-17.362634314756406,14.264468518825765,-1.4860904588250605,7.6201857021025035
2.3159999999999994,-1.5248251243282311,-1.7728702896256436,-16.48819564491231,5.664871290681731,-15.217727201797004,14.69457736167135,0.8805740393237329,11.548511142424672
2.3199999999999994,-3.8965596101024857,-0.9139874206541094,-15.723890356920435,4.920437753751571,-12.101178982382407,14.259652603526774,1.780309461528077,14.383542284759073
2.3239999999999994,-8.161837463646009,-0.8196555560171532,-14.148147842271158,3.7228364747693945,-8.10391453629859,13.074131589705644,1.5829468035317404,15.556326564321012
2.3279999999999994,-12.69362206788088,-0.6884633142269649,-11.15139161792547,2.3553305108832774,-3.171213062416939,11.466131934338705,1.2663909379962206,15.111353762454996
2.3319999999999994,-15.64632012147058,0.35520778478064585,-6.445928272566505,1.3911908381302283,2.648224935868541,9.82348697754719,1.911522062866993,13.622153861921674
2.3359999999999994,-15.862302419496075,2.707481584788468,-0.4274292663793062,1.3494544813797802,8.869110859533237,8.388211324801091,4.01054033750313,11.74561680037641
2.3399999999999994,-13.515182670663421,5.885908687725589,5.653236754114118,2.240770550025104,14.331342479771706,7.096398564614333,6.910705719409407,9.634880083525672
2.3439999999999994,-10.136448810091338,8.53533016574653,9.875604718901798,3.2821388490294794,17.272691292161596,5.5659801774037305,8.753001690792303,6.595148160884037
2.3479999999999994,-7.94127666397236,8.936722737039418,10.246643037175033,3.039385362447092,15.825635191679396,3.279840581281178,7.0959928762580375,1.2962940707419648
2.3519999999999994,-8.737778920843766,5.8526322542581966,5.543070558074987,0.044217342695219486,8.824137144903489,-0.1136459198587545,0.06448828280599628,-7.453008964302853
2.3559999999999994,-12.964988064616023,-0.685012249446288,-3.954395818691296,-6.3738191065131105,-3.4177605919969665,-4.530560098154638,-12.478161176317599,-19.73922427625598
2.3599999999999994,-19.34107755701359,-9.070615863977707,-16.22345951911052,-15.468230520263887,-18.776504777409684,-9.35177845200974,-28.357391885757238,-33.93548579213393
2.3639999999999994,-25.330355594676632,-16.539912321549537,-27.97921681691173,-25.057094911931813,-33.717054921643125,-13.559373796184673,-43.51760161673758,-46.89053011506587
2.3679999999999994,-28.255679316063777,-20.225904435054474,-35.79059455591528,-32.24521619174709,-44.39548944333251,-16.076531574349133,-53.43057826952963,-54.99557839639817
2.3719999999999994,-26.515271654542403,-18.397260590423627,-37.387614666475656,-34.59783437507133,-48.04977978267175,-16.16561407371603,-54.91520625910675,-55.68171456162702
2.3759999999999994,-20.280729024382424,-11.254211696734785,-32.556429962066716,-31.19822932109389,-44.05481690936546,-13.70577880627252,-47.50026326149214,-48.60049575921494
2.3799999999999994,-11.36434635030372,-0.8829106310622592,-23.202224901516615,-23.077204820147244,-34.15596840673385,-9.239684620702292,-33.65947696861474,-35.883387268055344
2.3839999999999995,-2.3570587601582247,9.639662469729217,-12.514126547890385,-12.783109557955413,-21.72469249946937,-3.774132314288863,-17.757541753584633,-21.279986821341936
2.3879999999999995,4.490662031075203,17.554236513731382,-3.634193961433823,-3.3111532111640827,-10.378496721808801,1.5650605242451547,-4.207108048558666,-8.585006955628387
2.3919999999999995,8.085247788078163,21.500478196444703,1.5367616798914696,3.0872960969413725,-2.6031409523452,5.8823549394293195,4.277042731749702,-0.12862916923836565
2.3959999999999995,8.648814649245878,21.853989116545677,2.8605741050459983,5.649655355633286,1.002798993127442,8.726741259796427,7.482707449125655,3.921818102632187
2.3999999999999995,7.246661891691019,20.213546284693905,1.639575022780889,5.102528594708701,1.574833382874317,10.11798590675312,7.258797752589771,5.159730932727143
2.4039999999999995,5.043514796948784,18.384437065710017,-0.2888350617765809,3.017760254052064,1.0984308408046672,10.40229795675873,6.1642316925632485,5.730137870228418
2.4079999999999995,2.7538941484492625,17.454879039579964,-1.483996982169856,0.9373531113551508,1.3296119384579583,10.035506506287675,6.015366992539157,7.039291869834642
2.4119999999999995,0.5489206599032741,17.442556102891217,-1.3917972649368267,-0.2733654810870121,3.062168381968945,9.38833069096313,7.115578103717439,9.085353577421756
2.4159999999999995,-1.6505972108013793,17.6108749043417,-0.24562010833994918,-0.5855389512458942,6.0269116152148285,8.645665128294922,8.485984756579683,10.710077046518563
2.4199999999999995,-3.802706427815224,17.15717053613298,1.407991747351275,-0.5290166155531324,9.322231498330439,7.816718291403959,8.81339155094247,10.527766485225584
2.4239999999999995,-5.59393478670836,15.810859761259053,3.1743605049178996,-0.7255716716920233,12.029753421701514,6.828207025385154,7.462647206844508,7.928031884460097
2.4279999999999995,-6.620208353089083,13.982510360552169,4.965826318336212,-1.5265871936677513,13.640205170044453,5.645247330615348,4.922450706108748,3.5469059031668166
2.4319999999999995,-6.728151988221157,12.438250316778067,6.813989876296773,-2.9068973074474798,14.110863167404432,4.353156477048287,2.460248676519882,-1.042513146701367
2.4359999999999995,-6.209688393989495,11.779196064618304,8.564381223436726,-4.568268611121084,13.654653142509346,3.162543713080595,1.2785445670205036,-4.176063546906789
2.4399999999999995,-5.666228054439102,12.089729266870222,9.750436335468407,-6.110217629387989,12.4979825556984,2.3372661296807564,1.7571863753521484,-4.945249281284532
2.4439999999999995,-5.58971883002198,12.97155941694416,9.787678920695157,-7.139227760082349,10.794249287045773,2.0734837886550395,3.2544028217644154,-3.5761566424423563
2.4479999999999995,-5.939635030003274,13.898805761779158,8.370134111579205,-7.291385311631075,8.71748888134914,2.3966539640641713,4.566044280382812,-1.1624254180960634
2.4519999999999995,-6.05183200060344,14.602126212627468,5.774055774678345,-6.264758570928279,6.5777293769158405,3.122786852436775,4.703836026443469,1.0179463209271944
2.4559999999999995,-4.988125761640163,15.21358650874538,2.832436499533628,-3.918355454090033,4.7983810694134945,3.9243599061865098,3.491747402951887,2.1747332563329564
2.4599999999999995,-2.1429730642049662,16.085042115384567,0.5547234273465165,-0.4090148788487795,3.72257529258502,4.477366203543852,1.6102476141513762,2.304219967478275
2.4639999999999995,2.281165001912882,17.440122431080795,-0.3868939790067998,3.7377818448622975,3.3740929646562563,4.615759437611814,0.10555979731793741,2.005071117854186
2.4679999999999995,7.240399015597859,19.122094270034154,0.020437936781490862,7.724514813236624,3.3742625724981963,4.414313793491374,-0.2754513298175425,2.0034189152661384
2.4719999999999995,11.32100923474411,20.626912790684173,1.195299173854096,10.757685753269925,3.1337095731068985,4.151698706182742,0.4795982890452706,2.724723739437195
2.4759999999999995,13.449180644082958,21.391871867632176,2.35245849761327,12.366726788392043,2.2251777942578883,4.155789715885021,1.688428790352873,4.130515261742403
2.4799999999999995,13.407349326146687,21.124836477613144,2.946020049112917,12.569938548081609,0.6989172986112635,4.607085815932351,2.4237129994410225,5.842978433646067
2.4839999999999995,11.8659980034721,19.957847041352693,2.9078108114732686,11.783515276358457,-0.8678866860057042,5.406476242898634,2.061084791592748,7.412854005759527
2.4879999999999995,9.916948835570679,18.319356395382783,2.5480222124583634,10.506348350429107,-1.6555927491606326,6.181774317873078,0.5827860184094789,8.519144774403003
2.4919999999999995,8.413423071665648,16.63300785729814,2.229906843042727,8.985461666089577,-1.0630096921327095,6.437571110083809,-1.5020313396641995,8.99221602729699
2.4959999999999996,7.5513030035591555,15.087308041883034,2.100940076984898,7.107996545378228,0.9625090059531658,5.796479035434686,-3.4917749568423915,8.73545427078443
2.4999999999999996,6.938323396038413,13.635845960897768,2.0760016008669027,4.604229355462849,3.9307210008374796,4.209655654643484,-4.830379460116319,7.673774478355199
2.5039999999999996,6.032278240586493,12.190211040896997,2.0381899339537313,1.4102065523363763,7.122661211032209,2.0148135639833527,-5.260014440631039,5.803480315521028
2.5079999999999996,4.629196173768605,10.829874961899236,2.063987909844286,-2.072836697662524,9.995642984729898,-0.19076233898840655,-4.772396426005116,3.316789946687777
2.5119999999999996,3.062691025162394,9.834915559456931,2.450703516662884,-5.037412034181671,12.399189267897555,-1.808379926387488,-3.477507846996332,0.6674847634426442
2.5159999999999996,1.9532647748186491,9.471177567160566,3.4665214003309757,-6.6877512093549285,14.454750348343396,-2.512500907705544,-1.5491740212985405,-1.5365190862864893
2.5199999999999996,1.718571096258529,9.687384934854776,4.998286428437609,-6.769706256771769,16.215541786140875,-2.395612966587123,0.7096876257426175,-2.791339018312783
2.5239999999999996,2.215475861004734,9.975292554923385,6.389821234199076,-5.849740632458179,17.392629837191635,-1.9132825754061287,2.7828622064203046,-2.9685174600076607
2.5279999999999996,2.7867393455755973,9.551731803609641,6.658977459202561,-5.110507159768986,17.386260133566225,-1.6527503616071044,3.9867947769366765,-2.4256831437226083
2.5319999999999996,2.701261950576736,7.801847480938363,5.0365969558126835,-5.727793623241951,15.652006023338458,-2.035978466237111,3.7011144431712637,-1.8652329757139796
2.5359999999999996,1.7086709178739738,4.728244735142766,1.515057164904647,-8.165807456066432,12.175181519699322,-3.103525937578297,1.699406820841432,-2.000572341691395
2.5399999999999996,0.2968775038402782,1.0733862191802928,-2.988217543310384,-11.838242684431634,7.691411897260878,-4.497705747043938,-1.6434410662941445,-3.2250109754008918
2.5439999999999996,-0.563214589957397,-2.008427572550886,-7.017570478285961,-15.377749285390792,3.4474450715916873,-5.658637517917214,-5.4383243493780355,-5.4713966424717455
2.5479999999999996,-0.05042768122689267,-3.5734871729205224,-9.348136404688034,-17.393698540506875,0.591364231553257,-6.135717079072492,-8.657657004432394,-8.326097095438627
2.5519999999999996,1.9068115122456675,-3.429850346685271,-9.680631827160596,-17.280956768654278,-0.4539988366892658,-5.849721118974912,-10.61007662207021,-11.294575512637948
2.5559999999999996,4.479479248950838,-2.248120941176694,-8.819997085345221,-15.587254901302913,-0.22512577727684402,-5.160607210183798,-11.24013187658852,-14.041335436948884
2.5599999999999996,6.363086470748385,-1.1523145632635305,-8.192871173570325,-13.701930832411108,0.12162113608474101,-4.690392823383263,-11.078863831207173,-16.443451806954727
2.5639999999999996,6.542787377336936,-1.0277675033734113,-8.957706391566148,-13.03199060721181,-0.45934574867044375,-4.981951369585204,-10.876759100248364,-18.452041406935905
2.5679999999999996,4.908258619168464,-1.9920330152302768,-11.258808009369545,-14.171326641776204,-2.231301714707115,-6.176352455915094,-11.161477842086924,-19.924166826720466
2.5719999999999996,2.3211848065575396,-3.3636569579934985,-14.08257987409388,-16.567990093931257,-4.483002877874128,-7.889272568217166,-11.990085171709552,-20.588093897974886
2.5759999999999996,0.07973259022514867,-4.14943904485051,-15.82237360946624,-18.893661816856138,-5.949191541167465,-9.376131719495788,-13.020736482362508,-20.20361710629004
2.5799999999999996,-0.8964046358241831,-3.74213667818276,-15.226814148454196,-19.88832602686466,-5.586461870190078,-9.911507369647097,-13.826075842792534,-18.818364710880815
2.5839999999999996,-0.6237751173880497,-2.3538805603559467,-12.141002897346652,-19.1408556593492,-3.2085086800033196,-9.179963028911061,-14.192465675522953,-16.90184560164016
2.5879999999999996,0.0018637247671904333,-0.9018482252065496,-7.606901758280856,-17.320077844872003,0.4025126299115982,-7.462064323987761,-14.201510026388405,-15.206714461428419
2.5919999999999996,-0.16995780786078285,-0.42358013589387156,-3.2833180292764155,-15.724401223180848,3.955571348905437,-5.503218851065867,-14.077314266289022,-14.39220078112021
2.5959999999999996,-1.7573947489315742,-1.3965128070219635,-0.5411206033547842,-15.438360806221453,6.37858731444112,-4.127689052772439,-13.934646214551321,-14.618114145856453
2.5999999999999996,-4.405981046449824,-3.411363341459264,0.21910361873369766,-16.623940777404187,7.348260049980809,-3.802368050696714,-13.641606514215027,-15.384225335812062
2.6039999999999996,-6.98679795628118,-5.4239427421607616,-0.36480885349396885,-18.404540428440214,7.297872920316422,-4.3999771963895,-12.93419063422948,-15.779404748567686
2.6079999999999997,-8.295887729178048,-6.418663372245874,-1.1435624944197116,-19.40458336929464,6.953201645844274,-5.292783502028669,-11.706650280877284,-15.019119596169276
2.6119999999999997,-7.808136603715184,-6.0509603846546725,-1.2011407673844587,-18.600471971935804,6.743691025485759,-5.73642185455401,-10.236909611553074,-12.976756547240711
2.6159999999999997,-5.997334724928578,-4.848920488979957,-0.3450044964552035,-15.952546692307806,6.502310008821723,-5.32519555973704,-9.139153580278617,-10.372730497012071
2.6199999999999997,-4.01456797702258,-3.839731035432578,0.9309893934841966,-12.420393707388484,5.663469791171792,-4.238169976355493,-9.01849000576567,-8.435979313398548
2.6239999999999997,-2.958987399222906,-3.8582401667501927,1.9067006832349307,-9.380819238284175,3.785127164499727,-3.1379563044088172,-10.02944585888281,-8.218092456201248
2.6279999999999997,-3.2235664841605285,-4.998229711031627,2.1589875810120702,-7.826745208503098,1.0012213742290896,-2.7724117049474444,-11.640913827304303,-9.943489069027692
2.6319999999999997,-4.317256922538718,-6.559407645433339,1.7901539900499301,-7.832603019797716,-1.928804248939059,-3.507806239427282,-12.81283254199434,-12.773008325206774
2.6359999999999997,-5.263630970420309,-7.5245490376121325,1.2368531115562291,-8.604274394597269,-4.033302488748859,-5.0707673718889055,-12.518184096635196,-15.141526385621091
2.6399999999999997,-5.276404338601878,-7.2410715218422865,0.8509504692447081,-9.045396818228483,-4.727927455424378,-6.653553780206039,-10.33469633580944,-15.519179033036835
2.6439999999999997,-4.266158598836228,-5.850782092175223,0.5923591451853554,-8.460995534368067,-4.186758412893596,-7.330780255395894,-6.7404233090856,-13.182319961935718
2.6479999999999997,-2.841776987736239,-4.179860611296135,0.07665567553704022,-6.95058046274562,-3.214356083651637,-6.55182483583485,-2.901333979223182,-8.56744880226006
2.6519999999999997,-1.8345661758792176,-3.171395381733646,-1.0533067492078771,-5.2785687028713255,-2.694809852057915,-4.430308334931851,-0.06359146162185425,-3.03994100744103
2.6559999999999997,-1.7044882745747145,-3.2469017936164164,-2.725682202641792,-4.3539383084894325,-2.9864864966302775,-1.67761211836023,1.0957138671424218,1.77104288823557
2.6599999999999997,-2.2446573284187252,-4.03272192831605,-4.33126629229173,-4.674532621028902,-3.673181660055434,0.7734952001396778,0.7881107176676778,4.7130061902507805
2.6639999999999993,-2.7739710776604625,-4.628783810541108,-5.014452717018912,-6.070179710897264,-3.8393545528811046,2.238093959732396,-0.08787461723613887,5.532028687815455
2.6679999999999993,-2.6646206924428952,-4.2340705554538545,-4.193495856564368,-7.860118216879073,-2.694998835967681,2.584223717678924,-0.5225217420456829,4.80252423110278
2.6719999999999993,-1.8096212677899075,-2.705753663454516,-1.9647055253317376,-9.267393674420418,-0.1322742355794162,2.208756671805986,0.01529333085863982,3.4797764679842658
2.6759999999999993,-0.6981055157243645,-0.6818943029393267,0.891191600354432,-9.807847332887377,3.1476702896079587,1.7151827457623767,1.3033352137572365,2.3463460180150832
2.6799999999999993,-0.03878605283807701,0.8159164950095601,3.326979990348036,-9.418584949480191,6.019549624237925,1.5133690283391843,2.5677444455054683,1.6794613607144129
2.6839999999999993,-0.2018854628522604,1.0298413216844438,4.603474450316526,-8.318079338610005,7.567773243046304,1.574091690500154,3.011739463788217,1.2615603180802282
2.6879999999999993,-0.8851797194497522,-0.0675128893310557,4.655995213943925,-6.766270821472972,7.555860845189045,1.485279948740299,2.3202847286165706,0.6599916795689751
2.6919999999999993,-1.261133599193954,-1.7876043740197929,4.033139534651582,-4.924382268782665,6.4454690293041494,0.7637978535162802,0.8378910569917934,-0.4306524962889853
2.6959999999999993,-0.538218525547336,-3.210924235551829,3.45302181358511,-2.9131980175325225,4.977608743300152,-0.7816308419101006,-0.6779041059526207,-2.014704715578773
2.6999999999999993,1.4487155464998978,-3.7925176231037767,3.307462286170221,-0.9583385492078378,3.641864351209051,-2.8464044671368356,-1.542690496924024,-3.8420975808276125
2.7039999999999993,4.0127482603975295,-3.6902921301366405,3.4370240140640362,0.540696518740333,2.3998951824912638,-4.727155624446368,-1.5697082179126483,-5.609138314979191
2.7079999999999993,5.93450483626134,-3.606798833455059,3.295835363363949,1.1263987488459861,0.8289034221716065,-5.669987474058416,-1.1726665096825855,-7.1590340991783705
2.7119999999999993,6.157013079699027,-4.245485489313069,2.386990586460115,0.5528053337370693,-1.4275818643859566,-5.266923705753925,-1.0906591154266607,-8.538092271492587
2.7159999999999993,4.410214095410311,-5.756947202246238,0.6479199880957367,-0.991536793702835,-4.246873801101856,-3.6867242199764405,-1.9198364165022213,-9.896229977239727
2.7199999999999993,1.386279704558092,-7.556040269852019,-1.4925630410257327,-2.8979130800657913,-6.97083556335042,-1.6063270548552282,-3.7364156266971804,-11.317842291688066
2.7239999999999993,-1.6583550614659543,-8.644784197817671,-3.4132034608796857,-4.439189196374173,-8.765453358006198,0.11072889675733677,-6.029997528624335,-12.709442983926238
2.7279999999999993,-3.6231051391571327,-8.227587126841172,-4.720578443063232,-5.19251655859307,-9.14747402558828,0.8268983674593073,-7.96733696654519,-13.805524006409087
2.7319999999999993,-4.135330358338706,-6.215129341117972,-5.475070909309807,-5.310737076580608,-8.31170058224916,0.4173205244660494,-8.810208909368157,-14.291350890178819
2.7359999999999993,-3.6440245102028257,-3.303762254897265,-6.061943364334411,-5.454133582334407,-7.031775660346511,-0.7298017273910773,-8.266871971609817,-13.973817772762231
2.7399999999999993,-3.0187083533785426,-0.5873137889720965,-6.806688244618499,-6.396217133324626,-6.183289075729135,-1.9767484749436335,-6.601813359922744,-12.89820692358444
2.7439999999999993,-2.9343784581421914,1.0555202688747158,-7.6201169934061,-8.530816790895415,-6.186152227717685,-2.806177122414283,-4.469541100355855,-11.346203197584146
2.7479999999999993,-3.4338879913518667,1.4160283716196318,-7.946803160350328,-11.571317967196137,-6.730296692211368,-3.087008196304396,-2.586720284537023,-9.709162546871084
2.7519999999999993,-3.9383385121993797,0.9918498777956302,-7.089824161906563,-14.623522313326248,-6.964992152490595,-3.081038470470503,-1.410881964625787,-8.305884267628244
2.7559999999999993,-3.675526445976402,0.6105219102291812,-4.72352894093865,-16.613628306412465,-6.033607777683528,-3.2070948002888144,-0.9813239506343052,-7.241761312748622
2.7599999999999993,-2.24285225969561,0.8880858543295744,-1.2581962726771962,-16.842532617014285,-3.6336692164215947,-3.723614206352522,-0.9751036907878188,-6.384215138230047
2.7639999999999993,0.06713156854789304,1.874816344196688,2.2124096718782766,-15.355684084054928,-0.2555491131238341,-4.526561273410607,-0.9212511313803589,-5.476285221089711
2.7679999999999993,2.3728174647521882,3.081528306506925,4.387059311564144,-12.941992222171393,3.0298017653062743,-5.189666523265714,-0.4563804678559791,-4.341031454483073
2.7719999999999994,3.656056660059676,3.8290194263552166,4.392372681718143,-10.780001318245013,5.089301103455682,-5.238403549736631,0.49467744599223806,-3.077490545102137
2.7759999999999994,3.2953237019137305,3.686395663425401,2.229565716681236,-9.9058644494894,5.267543860783007,-4.47844810316019,1.7120122042369985,-2.1119196625218137
2.7799999999999994,1.384050175252014,2.7223607996349983,-1.217298996537238,-10.755458878626314,3.6667057698514327,-3.1606875325687724,2.8431278184912117,-2.039367529282572
2.7839999999999994,-1.33275315731089,1.4358253476418668,-4.60759072814335,-12.978752825217498,1.0527983505169232,-1.874926724242414,3.6367673248901156,-3.311555128832879
2.7879999999999994,-3.839418845430373,0.43818969547373854,-6.76165712887223,-15.590957605172434,-1.5219055177383325,-1.2236879351949028,4.1257294556749,-5.929397569992034
2.7919999999999994,-5.319860414452023,0.10479080670233998,-7.139047937963369,-17.373094155238277,-3.1557739312111153,-1.4614341880023858,4.653415364233297,-9.306123729962565
2.7959999999999994,-5.478600069257027,0.40621378849937173,-5.959569946958254,-17.35515992491264,-3.3961283844419086,-2.329178312681961,5.702616298248358,-12.424837854397538
2.7999999999999994,-4.6015644263050035,0.9835526829181163,-3.97604255016563,-15.211231247293654,-2.3325171155574935,-3.2116265205595482,7.585909955336319,-14.265261058937085
2.8039999999999994,-3.35472228259664,1.4055613639645799,-2.0653903898924,-11.408657344245285,-0.499567645384559,-3.521712763521464,10.172201678778038,-14.297243979111954
2.8079999999999994,-2.4432415573123762,1.433508629590733,-0.8729415254797459,-7.0517552606329446,1.3257906830183401,-3.0845869327476976,12.81845386787245,-12.775312760030829
2.8119999999999994,-2.3097937180696135,1.12547710538297,-0.6659797290474216,-3.474065477028944,2.348054029128207,-2.2813724829188686,14.586349696287016,-10.657486563010934
