Timestamp,O1,Oz,O2,PO3,PO4,TP7,TP8,Fz
0.0,-8.100187187665142e-13,-1.3287149158713873e-12,-1.2647660696529783e-12,-5.4996007747831754e-12,-1.4281908988778014e-12,3.922195901395753e-12,-3.780087354243733e-12,-4.121147867408581e-12
0.004,-18.442614359931426,-40.51527734925532,-33.128258941151344,-20.67054360705376,-37.97463633091722,-5.454408611565597,-9.842008866031819,-5.5579082530866515
0.008,-29.97539479184946,-69.09744027824587,-56.46845111776862,-34.635594318386076,-64.57365631517722,-9.35157481351672,-16.331892222894794,-9.225183374943896
0.012,-31.00921094921607,-79.27632171066021,-64.6652259298274,-38.34352587648939,-73.5241973911476,-10.814245491904273,-17.710411832079927,-10.038789513455754
0.016,-22.868377513783877,-72.69579932305591,-58.970664120608305,-32.91668273001928,-66.1762298841808,-9.988112750742218,-14.598750009341614,-8.417609765220448
0.02,-10.850607014345563,-57.650367952321815,-46.10546309189763,-23.28386169797401,-50.226026580131034,-7.886225620019857,-9.578588681814026,-5.910745684384807
0.024,-1.330093629888232,-44.43992318071068,-34.523400722000154,-15.457941629688285,-35.45554011637982,-5.828585542742857,-5.796674780199709,-4.368423429263174
0.028,1.474645114328915,-40.1543617688757,-30.17363269584944,-13.476411827095035,-28.867933185376263,-4.777154479774595,-5.361949045802334,-4.962128689568587
0.032,-2.6555980857954964,-45.678532832427685,-34.00284562472081,-17.631904421201867,-31.784812384752414,-4.908765646888909,-8.35224509497381,-7.560316935511352
0.036000000000000004,-10.363556762669035,-56.30403785113008,-42.34458963667534,-24.842246817241715,-40.23511824628436,-5.641290505502681,-12.936439620640712,-10.80820993878612
0.04,-16.95142719056492,-65.19065765502279,-49.65798427985182,-30.75144151711033,-48.027926422060446,-6.063334644786963,-16.48651116041289,-12.850009290314773
0.044,-19.03900830604347,-67.43886439391417,-51.853318830661294,-32.25301924183573,-50.51415209721388,-5.512912544065415,-17.025552936274877,-12.320326217018248
0.048,-16.167420416484056,-62.46856797379769,-48.3179630467441,-29.03408743139301,-46.89839033694,-3.976073999469193,-14.238553308962523,-9.075431367477876
0.052000000000000005,-10.602005241295764,-53.64613371305889,-41.71236861173364,-23.410533768728257,-40.04153016967094,-2.0866781697199173,-9.510678002009811,-4.256351930704426
0.056,-5.6771130237593965,-45.803766453009246,-35.98874854522385,-18.756589103208256,-34.25228762645351,-0.7438839468845231,-5.057490351431028,0.3331796470492918
0.06,-3.7916490967679906,-42.351998630437706,-33.981581264774604,-17.54898600418379,-32.585069729385125,-0.5822355746330032,-2.6800792062535237,3.2021661191831328
0.064,-5.222472426093866,-43.66473789891806,-35.96584812632531,-20.13047528527619,-35.24004151061893,-1.6075947211904378,-2.84316024533927,3.952307431505872
0.068,-8.30739895230252,-47.45077701730055,-39.869180133143615,-24.772309577890965,-39.832439850932204,-3.194971256244685,-4.563396699271593,3.4321646714625587
0.07200000000000001,-10.69466506054917,-50.57954444829139,-42.78874899896086,-28.82484095274011,-43.128249140633486,-4.4351083868918835,-6.083501283458034,3.1961706302122366
0.076,-10.805801217708648,-51.088283493369325,-42.792655876750544,-30.20557940837041,-43.07522179483632,-4.61806541172264,-5.92126294798971,4.55133495130292
0.08,-8.603978993381396,-49.10889869259326,-39.908247779994554,-28.35797880792078,-39.870215300746736,-3.5760915642565863,-3.6643664011265287,7.752163706839724
0.084,-5.301699748454595,-46.29734898070201,-35.800679340473664,-24.23451347109752,-35.519625793170796,-1.7066814521328837,-0.07053574584841726,11.79987793950336
0.088,-2.3419258390275104,-44.36209689841073,-32.516691562840805,-19.49474683896338,-32.33757915774822,0.3050150355532395,3.5024994355494314,14.95194729343116
0.092,-0.4270190070669386,-43.81816619041529,-31.204199620582333,-15.5402435749427,-31.452208502587872,1.868468813595257,5.92708268310065,15.649994260369404
0.096,0.7697743942199224,-43.7935185881781,-31.594840137600954,-12.969537115800101,-32.25251925444094,2.740472380470848,6.876190574296473,13.349617656959396
0.1,2.1102989983160754,-42.88040139376129,-32.45167987007497,-11.659009497222108,-33.000141916865466,3.023805324429702,6.8152216645563115,8.79737742479847
0.10400000000000001,4.160070358855286,-40.30144573990083,-32.5345230835391,-11.226344536458143,-32.06810292846011,2.9690196738815473,6.513376445249861,3.6386748937366207
0.108,6.643687536840435,-36.54309853855376,-31.40200462326464,-11.454232011400457,-28.96983037499221,2.755821847369745,6.452013372040653,-0.39065422535671246
0.112,8.562787443448393,-33.07052360743084,-29.58909667811322,-12.384653431640324,-24.60126870712989,2.418951463455663,6.530076741997618,-2.2412841645136794
0.116,8.873262634713697,-31.38169980272322,-28.13552267258761,-14.088452186643558,-20.647170191033553,1.9577429957167922,6.254302213909533,-1.9015520795860539
0.12,7.234997096450364,-32.05404781045429,-27.838901591786854,-16.35825401758607,-18.575784011001932,1.5056259809659451,5.240970765791033,-0.2026616097812024
0.124,4.33023858978801,-34.383930448505,-28.716890249886507,-18.596758364784826,-18.83535224109651,1.3820641696532903,3.637780306488999,1.7265758817584427
0.128,1.530649186662849,-36.81348379712905,-29.98880122407424,-20.013197382477834,-20.68425928521843,1.944089703065643,2.1699783211022634,3.025358515449632
0.132,0.09887246966116336,-37.883407075935864,-30.59528806851995,-20.029775620219425,-22.725520362672416,3.312808512175728,1.7307884500536375,3.39174419636079
0.136,0.4185507844936822,-37.11810439807104,-29.918859145008597,-18.632430913107278,-23.780753012216515,5.167034562928315,2.760999716889984,3.017902878794139
0.14,1.7678266087964118,-35.26163858924751,-28.22150280063068,-16.4011982306372,-23.534380944734522,6.7957562850627795,4.86281688194935,2.3205732861954615
0.14400000000000002,2.7855445018820575,-33.725103338253945,-26.512057419095864,-14.176829121243266,-22.57160201105168,7.436886843697145,6.935576673168846,1.6736589527054448
0.148,2.3471072716400663,-33.61198846338152,-25.91386707114569,-12.561973326943189,-21.83213147633399,6.74024370702584,7.798433457765654,1.3147862304060638
0.152,0.29082206327096927,-34.97948366655109,-26.94666113565303,-11.594920906556297,-21.90148952193641,5.061028406405441,6.911045516431173,1.3894696995223796
0.156,-2.45484459590028,-36.80217334159323,-29.162359541637112,-10.800301325444451,-22.608666962267808,3.369261783088092,4.73884200879241,2.0125710236980794
0.16,-4.40903466889614,-37.61385792188368,-31.335598319055773,-9.569095111147547,-23.144109389770996,2.7779232832343013,2.516121615335514,3.2456636642336676
0.164,-4.401810681111325,-36.39347645179645,-32.08376870870319,-7.610544364631927,-22.583035865092953,3.918821428752679,1.5330573975821267,4.971475481310513
0.168,-2.2567589786323765,-33.16786530332572,-30.60297234906838,-5.198546449065326,-20.4906060279282,6.536847278015259,2.3631402316935635,6.782994521403467
0.17200000000000001,1.082165148113937,-29.034576325395797,-27.16108167805145,-3.0804669241707785,-17.275141099796194,9.556897480754053,4.491284045734012,8.035255656154696
0.176,4.0155190065348805,-25.642308493041003,-23.08628588296114,-2.1218240112499487,-14.097248064622026,11.61896225485362,6.578060849471171,8.09547650029048
0.18,5.073365613413166,-24.405103084518068,-20.22489692229119,-2.8889863309124912,-12.351309522614372,11.803545251563193,7.207041536716176,6.684596081360596
0.184,3.6145835160935036,-25.828088330134864,-20.082100436083124,-5.372126186838312,-12.956621710066765,10.133420724126012,5.676049967218191,4.102267853361205
0.188,0.08959733775716572,-29.271728229697615,-23.05222346974403,-8.976187084572238,-15.825501675887859,7.572681467765953,2.3897025196833823,1.178648044242209
0.192,-4.245941126460565,-33.28777279929436,-28.163497279631706,-12.775135907063884,-19.83925560089958,5.517099803063324,-1.3704411378967656,-1.0737413273406133
0.196,-7.9649370203391285,-36.339283431336625,-33.494839658024105,-15.88058479507269,-23.373762810492416,5.050724672230963,-4.151428289651204,-1.9371883355000747
0.2,-10.10863761560195,-37.49793031276522,-37.052487693334754,-17.7409715457507,-25.076058634982697,6.382076452547508,-5.071093747678642,-1.3237848478497654
0.20400000000000001,-10.509459479632916,-36.75171637201437,-37.646683362894265,-18.238236567245877,-24.455073055445947,8.7648524835991,-4.168354598545516,0.21841763684044224
0.20800000000000002,-9.677245075567942,-34.804151892570076,-35.337073703779836,-17.59094677577293,-21.98718925877902,10.93858942883346,-2.1962224340921743,1.841622755254626
0.212,-8.405407619923105,-32.57817562970224,-31.279136088453136,-16.19241945981002,-18.756240125631987,11.827725975854754,-0.047421755966595924,2.886700786788275
0.216,-7.351817807125208,-30.752245530838756,-27.10519432609156,-14.497344872516155,-15.881518568350762,11.100185068276058,1.7904912262065302,3.2351006487302527
0.22,-6.777929332285344,-29.531138095307277,-24.145639755004094,-12.961787246734431,-14.023451561743798,9.298913277164978,3.4245931735828137,3.3431066311087108
0.224,-6.528913540927235,-28.703239824742678,-22.862802579773565,-11.995133332687853,-13.18870648492093,7.491790172097847,5.302937174842423,3.9450574773076283
0.228,-6.225565633068523,-27.915228259062733,-22.778593177442104,-11.894172347892638,-12.908018139514168,6.662898783809386,7.7263784681697665,5.609731175776535
0.232,-5.560534353225135,-26.997927024945394,-22.902971220467784,-12.764502881899027,-12.653037926075848,7.191162865797171,10.465610073290641,8.408494234512581
0.23600000000000002,-4.530643388741439,-26.10950241703184,-22.360410227767154,-14.45009527941183,-12.184593746006836,8.691548112953917,12.770066069579375,11.864451298805033
0.24,-3.501322233903,-25.63368651375056,-20.868402422139642,-16.537921730293675,-11.644016450199162,10.27803733049122,13.764208442465321,15.189576431804841
0.244,-3.0836449244577793,-25.948575389462224,-18.861733092862504,-18.479441016137628,-11.40795285685197,11.076031368696565,12.97116688001298,17.655468362250133
0.248,-3.845155013942504,-27.164899763564893,-17.20302384158249,-19.76992726327326,-11.797972410667684,10.690039954113622,10.63910485143752,18.88750982140498
0.252,-5.957419191523714,-28.96361308586854,-16.658887151396698,-20.088836293002128,-12.82423948233804,9.377317273849613,7.663814206778856,18.940000952641256
0.256,-8.965489383098166,-30.66045947146737,-17.48317763403478,-19.347301197301192,-14.150346810894803,7.86785535766705,5.1320922777833005,18.144511792550084
0.26,-11.847419702205507,-31.499434747402972,-19.34642936392625,-17.651499687409355,-15.30554539092915,6.955888375647788,3.7571526036223233,16.87769168778754
0.264,-13.394852781872173,-31.04075859177809,-21.60952967771744,-15.229426767144187,-15.997580654082613,7.0983852989208565,3.542520197960137,15.398806571799955
0.268,-12.752988883016526,-29.395494376903997,-23.701073079304507,-12.356978873451235,-16.27344846590967,8.227555039427518,3.863781882430736,13.829167561157966
0.272,-9.872182219475084,-27.161035805523262,-25.33654312667964,-9.321829885722131,-16.405618250076895,9.842817963368422,3.909257486645455,12.249224401532292
0.276,-5.626165425193101,-25.108957514803684,-26.486753927550435,-6.435414237298222,-16.618768668275667,11.297038362980487,3.1925740692542313,10.807964566034322
0.28,-1.501889579201217,-23.824191310034998,-27.196887902040473,-4.059283508518771,-16.890854304843202,12.104019061017947,1.8180959359423952,9.732774921394487
0.28400000000000003,1.005519517783183,-23.507441211017454,-27.43851826578291,-2.596068550256229,-16.997660788353024,12.112818802671136,0.36038899994117735,9.21842701988991
0.28800000000000003,1.0512601531154413,-23.967249475070947,-27.08170255738596,-2.382214214025497,-16.736120442730286,11.489316951547373,-0.5346849101351285,9.272190099153903
0.292,-1.1741360361534579,-24.754015167868314,-26.001532568040574,-3.511195677371772,-16.146005527706276,10.555804850299005,-0.5696161619301243,9.633223006725796
0.296,-4.5479449509711065,-25.368471981597146,-24.227952002735805,-5.692865647549933,-15.556536157920247,9.607214915900622,0.03312508725179697,9.853438385658809
0.3,-7.570892980049731,-25.466910959174214,-22.018890361690794,-8.26649063790399,-15.403956652877273,8.814427035552834,0.7091888127031414,9.532628026871928
0.304,-9.09839528577972,-24.993671876763543,-19.800725635014135,-10.41691840042068,-15.934604691062635,8.240382471756712,0.9451305003505066,8.578500051318393
0.308,-8.841942342460138,-24.159060084327674,-17.97649416705063,-11.500696538225402,-16.96438752994197,7.923518378342536,0.6198042144007196,7.324986166339896
0.312,-7.3812630151451515,-23.276931764386454,-16.713097780946477,-11.32421753694809,-17.869321502600133,7.931401640022232,0.07055693651171602,6.415215659629808
0.316,-5.73518638458016,-22.589455706610323,-15.8825824489267,-10.243365018241356,-17.90018697708973,8.331127747339803,-0.1705006636837112,6.470084690298732
0.32,-4.786765726916242,-22.210841555443583,-15.241728165301167,-9.042586075620347,-16.703370599695393,9.092592824183178,0.1833281947099472,7.697203713253616
0.324,-4.90491738257618,-22.218694745288346,-14.736917958396429,-8.640842063767659,-14.75150638821992,9.995672988103536,0.8494089898030559,9.658440840290154
0.328,-5.923100742853531,-22.751600133918267,-14.683849195293202,-9.715822392989057,-13.334627902419372,10.635333796986412,1.020369100647633,11.362247434390868
0.332,-7.404348633004707,-23.97939995243301,-15.637936392637616,-12.382045881479424,-14.003161664128312,10.567226214351773,-0.1919037612323855,11.68908042992102
0.336,-8.96418283648148,-25.948921608480035,-17.993800828435155,-16.070886501811994,-17.71248753174494,9.545898437172168,-3.1472286880608804,9.972713622343207
0.34,-10.433522303125194,-28.424809495975254,-21.57984992768977,-19.701544726667276,-24.15912329556265,7.72223223380206,-7.283899403315175,6.433219068717031
0.34400000000000003,-11.793985975130418,-30.876164496247874,-25.554127037959795,-22.101809260300413,-31.734106442957927,5.667421380290974,-11.218135057905027,2.1980743567797774
0.34800000000000003,-12.981870817491485,-32.632157900642994,-28.698713589771963,-22.499997485375662,-38.15644092413748,4.165002142491313,-13.345423904964349,-1.1524472005537945
0.352,-13.744684998672163,-33.13484625851022,-29.979023872206753,-20.866523546296474,-41.480776664545466,3.841937931572156,-12.659309392693077,-2.3328777400256406
0.356,-13.71283018939479,-32.18408166622309,-29.069228084412465,-17.954490421114475,-40.97826498984709,4.81771226308882,-9.339896094349182,-1.0192766841422314
0.36,-12.679376147864602,-30.067007881512883,-26.56060093324419,-15.022651738027596,-37.46189789963836,6.567393356940139,-4.783465917974226,1.9192027283425146
0.364,-10.868925754668016,-27.4756528385882,-23.69991536356233,-13.336122919367368,-32.883157969732196,8.10070896853983,-1.0068049573441642,4.785959309670328
0.368,-8.949023487998618,-25.187563264983,-21.742820504188938,-13.625126067446708,-29.36433954943996,8.396167978089109,0.3078042062258848,5.879689544368893
0.372,-7.711952784434576,-23.646639337535547,-21.263717717786015,-15.738823644962181,-28.149998159984754,6.892552405599858,-1.3603267376215311,4.37001396787434
0.376,-7.59834484395361,-22.70031760995763,-21.83410005961912,-18.673037696702217,-29.032573309410726,3.785730275947751,-5.109112293336003,0.7624548857636593
0.38,-8.37550347102586,-21.68892815548912,-22.29397421019662,-20.998786781301767,-30.56923659462266,-0.03396609901581904,-9.077168520983532,-3.311887856193537
0.384,-9.22816206160774,-19.88755141073483,-21.49062819807053,-21.52677381949727,-30.97326775394518,-3.3885508586287187,-11.39183510338719,-5.9083425761558805
0.388,-9.228953050594985,-17.014303977338948,-19.015107000150884,-19.87213505554089,-29.129970712463166,-5.355287080793099,-11.084785421884433,-5.753421177136227
0.392,-7.904018986007426,-13.472121410585284,-15.472156042793525,-16.630922135869735,-25.157143661202063,-5.6764097134814415,-8.494072430338713,-2.8837299343952725
0.396,-5.55822244045906,-10.1861785835197,-12.123452594264874,-13.08844897899343,-20.25339339341584,-4.838731157882173,-4.971499635195256,1.3894440290635357
0.4,-3.1455045261464463,-8.128823359702762,-10.12529707369162,-10.602889064778022,-15.991047297254802,-3.7831774693271334,-2.0838354346103762,5.174701003738631
0.404,-1.7578510872118969,-7.824044731527541,-9.84487536555643,-9.98620359645108,-13.513727888578682,-3.4075115801225184,-0.7762376724330957,6.967430038801879
0.40800000000000003,-2.004338242315468,-9.080341047523083,-10.656652675735584,-11.166797540688696,-13.069500023335863,-4.123709911116904,-0.9538830746477238,6.364356177184757
0.41200000000000003,-3.6503781987210893,-11.081498718878823,-11.335153599867638,-13.277450524956931,-14.074660668118582,-5.689454171705559,-1.677367245250469,4.172665767075453
0.41600000000000004,-5.749764189050593,-12.811071633775677,-10.842437507295955,-15.121146917336795,-15.629163132056805,-7.38721284704785,-1.8274653839519428,1.8759079140928065
0.42,-7.175566984367467,-13.576173688861907,-9.03460796004601,-15.752236090752238,-17.121602350194237,-8.420035661871678,-0.7999351394523038,0.8045165196754707
0.424,-7.239007462941674,-13.34588029763854,-6.836603855808097,-14.881703395692952,-18.54072614206762,-8.303574375077483,1.1833363479121624,1.4894469739316225
0.428,-6.03011157591195,-12.697056563522032,-5.744282887950366,-12.915308139957258,-20.315443327138045,-7.068749858222534,3.293543021821689,3.513733509458045
0.432,-4.280472432494482,-12.390313446973625,-6.913359085991466,-10.632004941262018,-22.81405105567679,-5.20057081504835,4.669581912497286,5.886523690584171
0.436,-2.8673407438402716,-12.8590364627872,-10.381078439427725,-8.733187995368374,-25.886865271561636,-3.387724127655828,4.945621767473238,7.640676882413074
0.44,-2.321130174511291,-13.972102496326867,-14.952484562422647,-7.567877163532263,-28.834666582786465,-2.2576243676548504,4.363677540212063,8.239068558183892
0.444,-2.645049602418048,-15.225467794365002,-18.874267700974794,-7.173785192584063,-30.87444613578556,-2.2297113961034123,3.3978643473019066,7.571061948574268
0.448,-3.5124731046117716,-16.191433543031764,-20.89803828909274,-7.54137598178155,-31.776939696448903,-3.5152288753951906,2.160893088758401,5.625073456028206
0.452,-4.644950999670105,-16.878350613684685,-21.070082905732384,-8.85318224747546,-32.19770932885841,-6.185244875632953,0.04834618900106813,2.156737934704
0.456,-6.066769293530417,-17.741032007235923,-20.74061301536055,-11.475170677282902,-33.41308672833671,-10.196718943187513,-4.060799594697752,-3.3255157974074447
0.46,-8.042441735860525,-19.32084895932705,-21.751600391386113,-15.656877353095524,-36.55196473512397,-15.3151289789382,-11.08198151204304,-11.161423666494796
0.464,-10.731991292045942,-21.748649941893255,-25.24895923733319,-21.111007907885366,-41.75649932455838,-20.986105577787622,-20.86927110742935,-20.950887519495566
0.468,-13.800258800067208,-24.40836017619187,-30.776306244953226,-26.759216065560366,-47.757124390382685,-26.27636576863044,-31.746867430332987,-31.18911810607655
0.47200000000000003,-16.294333984284435,-26.016505728426132,-36.208085163548944,-30.88409522882442,-52.182943049978846,-30.004153025409646,-40.816154741897016,-39.47468457969221
0.47600000000000003,-16.94167797811557,-25.150747168954723,-38.63876533691207,-31.715030260625596,-52.54039956176179,-31.0758973453001,-44.9914808320215,-43.316219580741105
0.48,-14.767648073871786,-21.004020243555363,-35.82073325311433,-28.23313004010394,-47.42450376457972,-28.908707395771135,-42.31960071414965,-41.19791319175805
0.484,-9.718762554096141,-13.978975293456845,-27.420063166675913,-20.801560936290244,-37.35467144948662,-23.742448222338062,-32.95135584785319,-33.36360733122123
0.488,-2.8911560817024355,-5.725941493959003,-15.384787137925866,-11.232674500067715,-24.74264466971807,-16.663699937031495,-19.23315044379418,-21.873860451762297
0.492,3.8089782892799104,1.4518867252440426,-3.204809242033452,-2.1933410073776947,-12.97089159214307,-9.297485089249252,-4.852108202630241,-9.876124763562313
0.496,8.429070269967045,5.551999312796346,5.567735174195707,3.8192460802541324,-5.0234452587159035,-3.2751980569668744,6.580924796929205,-0.4179368032889452
0.5,9.781150094518711,5.702604631294221,8.784845090590634,5.457435596943368,-2.344957795914805,0.29968303164763377,12.843949993860331,4.63215078395147
0.504,7.888506692288834,2.44274597903821,6.43438786391073,2.998805812008714,-4.462434501608062,1.1675466198159539,13.736253164471904,5.076608705391571
0.508,3.871669186565424,-2.631996168009242,0.3692238999187465,-1.884424920750563,-9.45951481945909,-0.10576766737961951,10.810599686441499,2.130389618605205
0.512,-0.6123239017795576,-7.607796973561149,-6.703066097007329,-6.90272521690873,-14.956636301412,-2.438997172502489,6.441492091559212,-2.350650370440349
0.516,-4.073176547240019,-10.998886967618311,-12.398370589124934,-10.08605364130057,-19.07826088544419,-4.6761959784177405,2.7466793032780235,-6.704506026511478
0.52,-5.717062323052517,-12.201839535260039,-15.464367026900765,-10.481425989572292,-21.000716781879433,-5.975894900768738,0.8355032979059565,-9.988644048796878
0.524,-5.595698609578245,-11.530118110068937,-15.935864291872496,-8.34819540971372,-20.937524354359667,-6.010562385919973,0.654715093319028,-12.034071457636879
0.528,-4.377512262228444,-9.883291852685414,-14.703398657841444,-4.839546392055912,-19.693264915228923,-4.945954208404402,1.3799780685585428,-13.147317362269936
0.532,-2.918971486647971,-8.266985269031576,-12.851184665233633,-1.3891140747744632,-18.09994347325303,-3.2654838056314968,2.0287499074559276,-13.746601414151307
0.536,-1.8646738499442987,-7.39736985232738,-11.14551048883519,0.8869586038666171,-16.634560524435912,-1.536245772982797,1.9650333790940668,-14.149363054615412
0.54,-1.4631293720723235,-7.543525189463175,-9.89218035353162,1.5222036495128943,-15.363067833216375,-0.21159196817868753,1.0919232340099243,-14.556249769841555
0.544,-1.6169567151986666,-8.600490280332322,-9.112702336940627,0.6960111909625442,-14.144104680198556,0.476415032264778,-0.2700109789276923,-15.132533153583923
0.548,-2.0634974692875767,-10.240993731592477,-8.779259233470322,-1.0056243126606215,-12.861377542415237,0.5280246072213105,-1.6549563745355163,-16.035991823187363
0.552,-2.5505938654305993,-12.018076155377543,-8.88919420021535,-2.8898129971077298,-11.501769718343384,0.11071343326938221,-2.681063525078608,-17.324655716480198
0.556,-2.938149740449589,-13.423007712983354,-9.365381824075069,-4.402275294957501,-10.084286936272196,-0.5504945744824594,-3.1578049714358767,-18.821794779215075
0.56,-3.195447103134999,-13.956235896820436,-9.921213773500368,-5.26312809606083,-8.556319143332106,-1.2765588420602598,-3.07233683865782,-20.075386575631214
0.5640000000000001,-3.3614745219117346,-13.293537975201074,-10.096708222713618,-5.517392664088298,-6.806045955184448,-2.0003747928479694,-2.542453794013195,-20.509884047709775
0.5680000000000001,-3.490907932554407,-11.468277321021105,-9.48613033629162,-5.4932369614006,-4.785577392552829,-2.768019191604733,-1.7917655555999574,-19.71804241268257
0.5720000000000001,-3.5730393530513833,-8.924198851597536,-8.000505977200474,-5.646072590799818,-2.626057993147506,-3.671400315410159,-1.1102058711518052,-17.720800856858776
0.5760000000000001,-3.479885004777259,-6.3886074926293475,-5.998696021591374,-6.333900628274918,-0.6492369432918705,-4.748223883779354,-0.7818915679295619,-15.027118428484147
0.58,-2.9703486359552347,-4.590378743199959,-4.169602779742977,-7.598364467938467,0.7626208224438962,-5.899167317671369,-0.9755178420858037,-12.425853226981168
0.584,-1.7706581549169895,-3.9640839698229344,-3.2153933396930476,-9.067907215186947,1.3554346817557477,-6.886309868687166,-1.652788456432635,-10.626582207555503
0.588,0.2789726321102153,-4.478637140559455,-3.497957013154723,-10.062843561092684,1.1464206779381798,-7.426105069227394,-2.5524597522269286,-9.945201564901037
0.592,3.0763213996825707,-5.675994605863889,-4.847634974758207,-9.890583259063739,0.43068608013573684,-7.334025548824125,-3.2897405836360605,-10.20687194812317
0.596,6.189805337473791,-6.915262189174516,-6.666124981042247,-8.209004116421173,-0.3805935411204193,-6.641635630673027,-3.5512773536413187,-10.913739274449135
0.6,8.927136836170927,-7.703481889782232,-8.27766246052714,-5.279773759982672,-1.0159441896070192,-5.612446403171651,-3.2866044293655894,-11.56089255234274
0.604,10.548553760083081,-7.944336015957582,-9.324712345255337,-1.9506546437168888,-1.5433940230902583,-4.624821017304161,-2.7752717942992966,-11.895858785385958
0.608,10.536544747707126,-7.9592197784785785,-9.954934956742868,0.6661153943680942,-2.363705618087869,-3.9821208875897036,-2.5035712887079127,-11.982563485028404
0.612,8.822622654285531,-8.250740951900118,-10.669304934233955,1.6940782232766423,-3.9608655223959053,-3.752294107466117,-2.8953716925737196,-12.056128704489607
0.616,5.853637266763762,-9.168384185972362,-11.944907123098828,0.904623111467324,-6.556850793781403,-3.7347706891191415,-4.0584286918752355,-12.299422771911736
0.62,2.443023250751276,-10.686082672433319,-13.875714416613729,-1.196149530074826,-9.881293118890087,-3.5861265446670068,-5.691789626208297,-12.701598526903403
0.624,-0.5467321494501665,-12.442400769380747,-16.076062051210936,-3.675202708971695,-13.224545339074865,-3.044557680533395,-7.234090927790945,-13.099236272735439
0.628,-2.5197588530797574,-13.986559039320465,-17.89123026116617,-5.691086486351036,-15.742409859093637,-2.124940427171653,-8.176790354858285,-13.353710924853644
0.632,-3.303286681320889,-15.03682303895548,-18.754154455992712,-6.907092981629954,-16.818469340281037,-1.1588254401302374,-8.350179668016182,-13.506851535919324
0.636,-3.096921135442967,-15.598129800754306,-18.474969130202172,-7.5679502570874995,-16.29855443840996,-0.642976416487512,-8.017540361269504,-13.790485290155418
0.64,-2.270651541914356,-15.87512220694817,-17.29715087945806,-8.207043193807156,-14.487127426337775,-0.9703206074142976,-7.719858335165743,-14.465011955007435
0.644,-1.1494342793797263,-16.06688295429324,-15.708451525943326,-9.186646257896623,-11.93801988514718,-2.1833368892129688,-7.953574724818758,-15.589256654323894
0.648,0.10185325250315458,-16.170926862813772,-14.12939703254229,-10.373888290647187,-9.162884761185396,-3.8970872572396367,-8.872279818136938,-16.89040548123117
0.652,1.4599694694902374,-15.917427260197835,-12.67283671742189,-11.169406921649097,-6.422569573241178,-5.449944566464383,-10.179594134404725,-17.84671856532152
0.656,2.938651653812982,-14.894099780330503,-11.125451120844268,-10.884053594762957,-3.7169921493136666,-6.2109306588377695,-11.282722258573665,-17.956263638787732
0.66,4.463470757291038,-12.814922176671953,-9.176852733359102,-9.245378708161411,-0.9702523985942464,-5.894132487052552,-11.626859068752633,-17.043998353727027
0.664,5.827401908641447,-9.774819028126345,-6.733281834546892,-6.696956108882944,1.7283236385397753,-4.70080975901491,-10.998095565737724,-15.39310647426153
0.668,6.7514308236804155,-6.324820898368751,-4.103925075621845,-4.27453708172837,4.002419758979487,-3.2137482290404495,-9.634627815238506,-13.610179244941513
0.672,6.993628814290652,-3.307239090941154,-1.9291245547926454,-3.106946835360014,5.285561690961008,-2.098626261764834,-8.099016465375463,-12.297994118897478
0.676,6.441692791416302,-1.524327904889737,-0.8744876741944116,-3.8178678056319093,5.095184266784521,-1.7687774204073279,-6.9871876133481905,-11.724053108121844
0.68,5.133971763219627,-1.412056748869451,-1.2824561013659448,-6.178587453455138,3.3161339842651154,-2.188610057100689,-6.656520422572669,-11.689203874498453
0.684,3.2139235840689233,-2.8960012789563567,-2.992986288644537,-9.219646540188737,0.3116958182421188,-2.916031114979161,-7.113005848174231,-11.67332407854207
0.6880000000000001,0.8669699124618098,-5.466747886804988,-5.422877328332618,-11.72992061562465,-3.1943101833561593,-3.358929050056719,-8.098592396387115,-11.16473856430817
0.6920000000000001,-1.7044718878385712,-8.401036282949239,-7.839685251234483,-12.841580521342186,-6.387996789618135,-3.099453533811138,-9.284530274968011,-9.967342105329017
0.6960000000000001,-4.26446023199291,-11.020978738003096,-9.672446260391503,-12.379034443520016,-8.649334031314954,-2.1169088628778128,-10.432513115667149,-8.301006906359678
0.7000000000000001,-6.53051276302707,-12.884245489868537,-10.702170857335151,-10.810843520513497,-9.718092263531553,-0.7936548769833793,-11.440760610605913,-6.64354037588101
0.704,-8.214043810895555,-13.861050021496633,-11.058799622793952,-8.884600558688915,-9.691710980119435,0.29455220396081305,-12.269451251016784,-5.414869764313686
0.708,-9.102280322181505,-14.078196737751892,-11.037369163603547,-7.187499520898674,-8.872265519966543,0.6849805279664531,-12.825710390261222,-4.707523571819902
0.712,-9.145050628162668,-13.777638005208981,-10.859331573622262,-5.8950590374618415,-7.566114717070963,0.260512597595179,-12.92328980413602,-4.247762858721412
0.716,-8.478558686899607,-13.165586104278411,-10.525756329532989,-4.821120131119996,-5.952247899099465,-0.7100034977538066,-12.35669954763424,-3.602248620614147
0.72,-7.3491268005289125,-12.313443148602893,-9.838724978424974,-3.6798617916977485,-4.078391321517332,-1.7290751426496853,-11.04054542198965,-2.487034409593698
0.724,-5.988277242340962,-11.169825679515105,-8.58021584961496,-2.3627261255371543,-1.9729745098195155,-2.3312647430258124,-9.114955133194883,-0.9822573550569738
0.728,-4.508566720053173,-9.643003944567125,-6.710834522015622,-1.0314009826569812,0.24560582630827144,-2.299728768438544,-6.915367764015114,0.5011008608404488
0.732,-2.8787026663527753,-7.686767120995221,-4.4446316321755885,0.017789255344108135,2.3565570950533696,-1.7295065646166052,-4.805787588624768,1.4812665599647978
0.736,-1.020272556617031,-5.365209786050764,-2.1706973570188515,0.5804682821747877,4.123701318631825,-0.9230690587336183,-2.978903795840635,1.7207135173126789
0.74,1.037427113416641,-2.865279808602373,-0.2688879257236949,0.684885564878194,5.422652502448749,-0.19184893670323167,-1.3572739169831203,1.3959980370549374
0.744,3.044578193363227,-0.4718054189312151,1.0624823534667076,0.5366546928378144,6.305205806310125,0.3104264173736031,0.3329226422768068,1.0065031216519493
0.748,4.535275230119695,1.4899508177924758,1.8681693879064647,0.30814950272083363,6.947311242829862,0.6256270631659473,2.3498171150219918,1.0676173020206168
0.752,4.981927539257401,2.74227667831052,2.3670682799119622,-0.05534832710293536,7.5119926762091485,0.895794925770014,4.715353264152539,1.7755409834141727
0.756,4.039134487811275,3.1384677387026416,2.801925798168263,-0.842631589291889,8.010520524833424,1.2123204844722215,7.131777604175069,2.8579885531179854
0.76,1.7353234226978387,2.7036421348828155,3.2868631047944197,-2.3765103129846974,8.240532357158795,1.5117984536731477,9.090329569481424,3.7032986176754736
0.764,-1.49564124162427,1.6057291187785383,3.727766293405022,-4.727439272972202,7.843346534735379,1.5918623500009175,10.111607035282042,3.691638082302781
0.768,-4.950866748414616,0.09027182957888424,3.8701263970589093,-7.523591083470198,6.480286078375124,1.2427779735744497,9.97344316233798,2.530171201797887
0.772,-7.888596625982704,-1.569524755092917,3.4576697261081017,-10.000415568488464,4.058485070617184,0.410568803845897,8.810164581576998,0.40725390475413636
0.776,-9.760842104335426,-3.105156787035824,2.39731970792243,-11.29262174056587,0.8727886195819936,-0.7151599070599284,7.022762776274426,-2.1165473579019816
0.78,-10.346512333891349,-4.268441334992749,0.8477811516226035,-10.81689104545824,-2.4206304170402237,-1.7501974343415876,5.066178681190708,-4.399456075811788
0.784,-9.75778383573846,-4.869840902285826,-0.8273163123292062,-8.550489376495584,-5.022576559627015,-2.281112418909398,3.2553209481816157,-6.012800848581016
0.788,-8.36528485355465,-4.848277839961145,-2.222569404380088,-5.061871764968863,-6.315886906303896,-2.0579029755452476,1.698176247700447,-6.8843364998619725
0.792,-6.676403591753326,-4.320468990786561,-3.0621720126220717,-1.2713804404471538,-6.131476050022224,-1.1052744441882436,0.38088736046814997,-7.23199661420587
0.796,-5.199420702067999,-3.5640475722310434,-3.289200128963833,1.9295280112651993,-4.820916823966461,0.30819287877577306,-0.6723042536479564,-7.353569451927285
0.8,-4.322386731238174,-2.9179641974895363,-3.0354754027030655,4.002046603496945,-3.0925681029799215,1.8149938329804591,-1.2977952145144274,-7.4219578453010975
0.804,-4.213130449641697,-2.6378422149359837,-2.5069212147219457,4.883669423080026,-1.691791046217193,3.11961136878646,-1.2359327575828907,-7.410545914656213
0.808,-4.766382382354388,-2.7601952129226817,-1.8508660693198542,4.886127487372017,-1.0687920547669947,4.093831111843479,-0.30151570941959616,-7.173957288301603
0.812,-5.619476986495882,-3.0443958892718825,-1.0733075123787121,4.469239588068211,-1.1846937027901792,4.753146178789615,1.4339570490448832,-6.602980329664897
0.8160000000000001,-6.273662612437887,-3.057696482184718,-0.0547387099763057,4.016391370533108,-1.5581076699366525,5.143603242192755,3.576701106571285,-5.740110688786077
0.8200000000000001,-6.290064614678264,-2.3815191122312442,1.3452372752212636,3.7156484497862214,-1.5296559473871927,5.23806218202409,5.527476569726373,-4.775181039870488
0.8240000000000001,-5.507925016065742,-0.8749339648301833,3.1369506051688036,3.551999244692512,-0.6371888010079605,4.915367807404763,6.712955453613551,-3.9465303682055892
0.8280000000000001,-4.170915388881889,1.1686958457821448,5.110601829494782,3.381400486475618,1.097631215428268,4.043503792310503,6.820528634047443,-3.424129647533088
0.8320000000000001,-2.871057470886031,3.0918715867882005,6.874279277564625,3.032869567623453,3.1373291252120588,2.617011844667931,5.911543117907355,-3.253921140464951
0.836,-2.303655570263397,4.15863410479799,8.01079918555943,2.392959288384188,4.67642554759663,0.846056249753655,4.3567342699759495,-3.3925773879045984
0.84,-2.9294879698763054,3.935789990920533,8.289853878031094,1.4625882735244584,5.057248913553829,-0.8826865845177441,2.6490655803107934,-3.7912332867017504
0.844,-4.7151277579209125,2.555933249099489,7.815095264890028,0.3810584469670193,4.124172265032618,-2.1618263602001813,1.2073074684649896,-4.4459252890705585
0.848,-7.096413199017283,0.7071966632221063,7.020591719116105,-0.5894470258610678,2.330652336559104,-2.7507569947981825,0.2682240555330857,-5.363772059567208
0.852,-9.195276578798136,-0.6513667802630683,6.507640474030074,-1.1214602276888836,0.5501486109414481,-2.687200348340732,-0.09639988806651845,-6.464462050947729
0.856,-10.205471579805538,-0.7280682340037647,6.78241149349935,-0.9326252204766465,-0.33225584209554515,-2.2528125738384226,0.09946353797373053,-7.505507865571892
0.86,-9.773921298336532,0.7217572122743818,8.011310019372603,0.08009194512822404,0.15570930038144226,-1.8047562466515774,0.8093535269056513,-8.101220260485947
0.864,-8.186706308276014,3.2526462777461367,9.899145436057164,1.7416411330320996,1.832801357152495,-1.573252646397305,1.9340939441886995,-7.86472644130773
0.868,-6.261253939856559,5.9008747512350626,11.767579521188875,3.599071636713015,3.938438345623183,-1.5505511604403248,3.2598541673895483,-6.61243851926659
0.872,-4.989498178453771,7.601092836954578,12.816133964465271,5.055450976692118,5.493649837189661,-1.5378381051753147,4.43393922819509,-4.511097766033124
0.876,-5.085151214087432,7.652724305236971,12.465265627660301,5.612167195060012,5.770187305146269,-1.3220717914934967,5.050852113459003,-2.0697224213732004
0.88,-6.6425574209818015,6.029324688650627,10.636383286108261,5.114848269382074,4.640568970859518,-0.861995994981161,4.840183671751878,0.04618359737495048
0.884,-9.08484905726106,3.3693501563439767,7.811599479120117,3.8484916196748564,2.6139657365298916,-0.37088911997840746,3.8473449629155114,1.2806241883086527
0.888,-11.420732960891089,0.6742146834654497,4.843859239201455,2.4174389282384423,0.5532751345872695,-0.23968474969353415,2.4764921229639816,1.3960564302458969
0.892,-12.679052032559474,-1.1175516793198832,2.6097176309515966,1.462983407024876,-0.7580216605722447,-0.82743387490738,1.3356342666217227,0.5343469688392726
0.896,-12.336773129274592,-1.4963295949166748,1.6581518455994395,1.3421164001895134,-0.98316429584695,-2.241728373336808,0.939763875806797,-0.8885955293714023
0.9,-10.53440398397605,-0.5272621616034693,2.0294726570501322,1.9423992263923648,-0.33906663745943955,-4.227268658370429,1.4413952233486977,-2.3784796218820263
0.904,-7.9939631601208205,1.2317953685987137,3.2941234044727357,2.7300469974757844,0.5732119328395766,-6.235274978288266,2.5357542283812986,-3.55123122873703
0.908,-5.683759141851825,2.9863682886693432,4.787930191614881,3.0222341535846526,1.1180657099063616,-7.644311255305433,3.618935677661632,-4.225504124791054
0.912,-4.373475704482203,4.038864986994455,5.944718472845626,2.3522159976918964,0.9800446215110372,-8.020138998338007,4.134134623716816,-4.400141288644642
0.916,-4.300196603295038,4.045805924402733,6.546054214234393,0.7254610006307654,0.32228860075520593,-7.298351669203577,3.8976911797571963,-4.180447850682034
0.92,-5.08493274591451,3.1224800850015852,6.778523815050392,-1.3595471695823473,-0.3227026567035258,-5.807973598463127,3.2058735557445877,-3.7230620291243577
0.924,-5.941635663821041,1.7586161752297027,7.080355223817343,-3.1500153515274354,-0.37288474245138126,-4.127459637948819,2.6493894128188114,-3.2240089156198213
0.928,-6.082569799438584,0.5826767572129237,7.857617249308485,-4.008490276172421,0.4490570175772728,-2.842179133177776,2.725269890280635,-2.9174320917647245
0.932,-5.111181611822084,0.09282837087153695,9.23634341509808,-3.7032910933103658,1.933665274364988,-2.3100407373928427,3.4932682773899213,-3.0313150291528705
0.936,-3.205819509989304,0.46430608049309696,10.984307173940806,-2.4664081668914433,3.4901688680105587,-2.531089579744097,4.511476301973323,-3.6778822782299407
0.9400000000000001,-1.0088111885284192,1.5089973594869543,12.62602130424157,-0.8001776315423612,4.486697971800868,-3.1593314341288723,5.0980232866655815,-4.721152218438936
0.9440000000000001,0.712214815806222,2.785008430769553,13.669280646790913,0.83967904768304,4.622797175935801,-3.646820229227353,4.76990613879703,-5.718759363288232
0.9480000000000001,1.4573070826968406,3.8045517876135055,13.818395414910244,2.290294081841087,4.125485009787327,-3.4667160141401254,3.591531220846021,-6.031791323910726
0.9520000000000001,1.2327351854940662,4.2488929984304304,13.071197786737859,3.710801615377251,3.647691670116018,-2.3295000244377677,2.1995574200079018,-5.102268921049192
0.9560000000000001,0.5090521204425418,4.086017384770449,11.66676116402169,5.3837053632543315,3.9035287440599897,-0.3121990961008926,1.4696140798588928,-2.783459947870768
0.96,-0.06630220928043862,3.547816786332941,9.941354521795812,7.422290183391911,5.233840394001797,2.159034331302005,2.0107021191087195,0.46717580045525264
0.964,-0.06807069604833904,2.95483519587282,8.155767578316725,9.55648054909318,7.32081671928394,4.463688304772232,3.7736071051378657,3.664650863842038
0.968,0.4352985620181764,2.5023523985484024,6.406976961199756,11.15863393378343,9.249644324561814,6.030532272155756,6.039367817497197,5.673467615666365
0.972,0.8989935197083114,2.148912342786164,4.670508050448095,11.528728238340594,9.936304405603744,6.567071178067246,7.822616894230087,5.734491006677538
0.976,0.600714017339838,1.6669388708098878,2.925702221868279,10.290605905346473,8.70921423012245,6.170784635637303,8.446389139127916,3.871896690438019
0.98,-0.9199420525179876,0.8465620975980604,1.2848975072309825,7.682705104470753,5.753532961741129,5.278254003580583,7.9514277901665436,0.9635504879441656
0.984,-3.531275490915541,-0.28800345630422264,0.024248829458301202,4.562029861782862,2.1454533925108685,4.470485138779719,7.0828209403377596,-1.5983306731753464
0.988,-6.479473087748729,-1.3934528448313328,-0.5118240756010257,2.086562778483141,-0.5851024138066787,4.226316875616424,6.844974670918274,-2.520332036981813
0.992,-8.6912260646332,-1.9212232267256626,-0.07535911143392582,1.219550810432432,-1.1553627941328584,4.741260795878759,7.887594268741378,-1.1961640151086155
0.996,-9.284285392606265,-1.398150619120281,1.3347047533571574,2.2870038575905776,0.8471626465322153,5.886054424724049,10.089130974445151,2.0127041735923337
1.0,-8.019118632610786,0.2814890542798405,3.4275473532008034,4.8124583020425815,4.749524591710544,7.3108904065999,12.59154008689972,5.942561859009667
1.004,-5.451231377186552,2.7217517056420633,5.714312414773468,7.719459285198557,9.106786374225102,8.628186171311285,14.279011567821476,9.160323448496001
1.008,-2.7068920810522217,5.135233016902383,7.678365793142012,9.806789159246973,12.381137548548741,9.573512552927454,14.4080551752744,10.59287391826797
1.012,-0.9646928079522814,6.6829008777695,8.952595667918825,10.297717460524169,13.655978839518431,10.087057254346455,13.025056215585579,9.967074333537777
1.016,-0.8978617402192013,6.87210220535492,9.420854774893062,9.208377406423041,13.016398935191477,10.294157548549848,10.927245385157049,7.868334583331278
1.02,-2.3561922724159734,5.800842298868151,9.195531244450326,7.359415301062998,11.40642987803983,10.414004244461806,9.189264689255886,5.416078632092321
1.024,-4.4520244038989025,4.10081149641254,8.499929505647891,6.018315000549913,10.058050316713825,10.663973785638095,8.549984883452213,3.750572723205363
1.028,-6.012163037487321,2.59769108498464,7.528923938916695,6.322488680650765,9.807997563516434,11.197394057428701,9.02224943419951,3.571865365423944
1.032,-6.156893841666909,1.8784324520641205,6.3746787867116845,8.74404060629088,10.680577342668139,12.07207767185293,9.94571490218693,4.919878784576518
1.036,-4.724251782635909,1.9881941780576833,5.053533057057445,12.831264355602501,11.948391010285757,13.233947481282192,10.437116458514332,7.248885666264364
1.04,-2.3281323833114156,2.425433119296769,3.6036612786879134,17.356517344048342,12.617592908855773,14.506830313880094,9.953101119813939,9.71439400253853
1.044,-0.025954979289367852,2.436047224064289,2.168763518845383,20.82429491487967,12.044149709402696,15.609090153116286,8.631637397080269,11.528791993891579
1.048,1.2426376817229183,1.457504576915368,1.0035523152405985,22.129791718632,10.335153422997482,16.2327995682468,7.2267819633636154,12.252597796646905
1.052,1.1413262942647124,-0.5278462618019613,0.3829230142836113,21.066207205844165,8.318566416820495,16.1746371659055,6.693371109745025,11.929344322666212
1.056,0.10340759017933498,-2.9148012035830795,0.46415133790385404,18.446640557004592,7.111461480489863,15.468409281309054,7.673144369796886,11.040225233942296
1.06,-0.8907514149650875,-4.702211536087991,1.2005997743021515,15.770820633272683,7.549560753955394,14.435752911027276,10.178900362050397,10.32124836847757
1.064,-0.8300918980620957,-4.944527722134625,2.3479079350997565,14.551176303445578,9.767725223947824,13.581845746179056,13.625600547900383,10.491019069834296
1.068,0.7907211450773666,-3.208853452825111,3.559855172940083,15.604970541389228,13.13515435082771,13.357802010158727,17.13753927802176,11.96761541423746
1.072,3.7047047501661754,0.19352716885132448,4.532802888769497,18.662449606775695,16.569369803655377,13.910674630482617,19.94474044761182,14.682469860316965
1.076,7.00937418813606,4.315465908976963,5.126009381583106,22.493014406524594,19.05020553372417,14.970916071031704,21.667402387766543,18.072655665634908
1.08,9.62810692328606,7.980518486634613,5.395766715909093,25.503495185288934,20.07214322221902,15.96953888648675,22.37326212758572,21.282176194154587
1.084,10.847772336021716,10.292714552854195,5.535506613843592,26.518721111759575,19.820028909484602,16.352673142203816,22.449569254430713,23.52929464198652
1.088,10.64512704863434,11.003669866727032,5.757891514903448,25.34566900044369,19.003578048001543,15.932432648294913,22.39377447087032,24.476323433687732
1.092,9.633645538868745,10.568041562889746,6.181866920464043,22.823543363504978,18.454916951225268,15.043650845727905,22.610813318721902,24.403853997523548
1.096,8.670018448312799,9.857560326063812,6.761704675898951,20.319582024580306,18.679292431668763,14.374088975877084,23.250204080664467,24.05943306319776
1.1,8.357686088157196,9.686896752157018,7.2846740246147625,18.948804886209395,19.575869039548593,14.53575494848922,24.100694023352016,24.229966643602367
1.104,8.703393109298162,10.357783370806708,7.400441939042234,18.927524257450706,20.423628163322054,15.599681038039822,24.541581938684157,25.234695914052487
1.108,9.119067991170681,11.459635703579185,6.683945486586326,19.432373222842152,20.145928812221293,16.89247189070902,23.62527137522448,26.638389358463066
1.112,8.775504018158124,12.055633997090961,4.75204926053561,19.06590610310846,17.764869460129795,17.229539117359387,20.35985875526925,27.39784272677683
1.116,7.080875111150803,11.156979108444675,1.4129414480743403,16.66386310693287,12.851783115247589,15.489121066215272,14.139013770378371,26.392027948393586
1.12,4.038380950311873,8.280040684710858,-3.1655152197510095,12.011175621108057,5.812497286995759,11.24084244348751,5.184229310684618,23.08322443833946
1.124,0.2855189392375497,3.794464753184958,-8.35575106802179,6.061140643345711,-2.1349102255574772,5.084528667525648,-5.2391379522206885,17.942024790192452
1.1280000000000001,-3.188058118092858,-1.124408646888094,-13.129203335402968,0.5355639019258778,-9.307447491925458,-1.4969132589802867,-15.02630942019818,12.380656155651128
1.1320000000000001,-5.463260638810903,-4.92483077056834,-16.306402115114082,-2.87095109184596,-14.098201595000155,-6.716592983735397,-21.85644708812175,8.200069004048663
1.1360000000000001,-6.023717130406314,-6.296460872120628,-16.94282214317633,-3.246437196658955,-15.49698570293451,-9.205573195544012,-24.00887258384075,6.832312200857088
1.1400000000000001,-4.827923414641025,-4.670686015757978,-14.684162501337024,-0.7683601111057325,-13.364394397912676,-8.505537288068211,-20.997624842181793,8.778254960384078
1.1440000000000001,-2.14895668870445,-0.4012983917360521,-9.93724302976107,3.554058167909294,-8.375119074701713,-5.121948985361555,-13.720858215661323,13.508501890432997
1.1480000000000001,1.6572526487562635,5.432854238600401,-3.752477081639898,8.498542231393365,-1.6763761707903404,-0.16173896642565477,-4.043825614915473,19.845388136750646
1.1520000000000001,6.28757161371047,11.487828700217847,2.5572422139950657,13.223894671099668,5.556597738987737,5.20318278033757,5.968634500323097,26.564453441283298
1.156,11.438748753808625,16.629870852912735,7.877143788496353,17.49499966986058,12.441539707539508,10.140062841150863,14.76626414783342,32.83701624402815
1.16,16.652825502191526,20.235256444332546,11.629544202210738,21.470757970362456,18.47153712612539,14.258231499448142,21.6460592634138,38.29798632759773
1.164,21.216673758290852,22.20949070057962,13.831687327974045,25.253448998569375,23.370630308827245,17.443210351327775,26.604520753892817,42.780157205618565
1.168,24.268311949568158,22.790923285533157,14.877228100701316,28.547815508168352,26.886529160907344,19.61684917319228,29.89382266733357,45.98396770358753
1.172,25.12716700103133,22.317106398836785,15.211520083853866,30.69189714818043,28.718410475427397,20.635021379034587,31.62805561008951,47.386949620523055
1.176,23.667243638243328,21.075314557918038,15.09085241565842,31.032734649152374,28.647266686180497,20.378878363295144,31.690498999104495,46.49291907313959
1.18,20.504689503355536,19.294908702717905,14.55873156432162,29.390164000701223,26.785858066769684,18.943114063766856,29.95954395280439,43.25279658333316
1.184,16.828052035598716,17.208582934704634,13.600295642780344,26.273235288653865,23.735675264820962,16.744755068178655,26.638967029702243,38.339464537896724
1.188,13.907897352958864,15.074459659957569,12.322016322697529,22.671556561710357,20.47144505473854,14.42423198223753,22.394153909363936,33.015435455849826
1.192,12.511256576104339,13.107632321013456,10.993516536532368,19.52014144661545,17.943024709739724,12.565346016370885,18.146572082208458,28.58640238013576
1.196,12.542426203536134,11.372911584026113,9.911357241528663,17.175342907619843,16.599596043319806,11.40457489825363,14.647279586592756,25.74615483756916
1.2,13.130523969792161,9.750839230080535,9.195291634493397,15.252354893153454,16.148547080330694,10.72833813406639,12.116059977035507,24.236080909141243
1.204,13.126197857135569,8.023853483740112,8.667223000704873,12.938545497113797,15.72220257633275,10.03681635522812,10.207662975308118,23.064515064283047
1.208,11.746342436508247,6.053980716144675,7.927412011241796,9.59829339557782,14.397582409279298,8.872499613099045,8.349551742014487,21.183408441262383
1.212,9.019013207611867,3.949396771561691,6.610763623441741,5.295182707216629,11.79556918262876,7.109138608653312,6.239187421768595,18.216572878288744
1.216,5.787490412106218,2.0961514830746717,4.67704091273812,0.8975761391589328,8.398864759082247,5.015841442541596,4.154454405455249,14.778101015898653
1.22,3.2792506889558277,1.0193050257940897,2.5517420174379164,-2.306316222056332,5.384976947721971,3.069411369543146,2.8545824499199832,12.159711011459379
1.224,2.4735740078241166,1.1192229011583974,0.9824383451757717,-3.275339525740278,4.017254169628935,1.6418942226284896,3.092633438400884,11.54066003636683
1.228,3.6180371133514546,2.434596264329968,0.6744941946906415,-1.773159531446682,4.932860958314694,0.7826732157859759,5.053048398653421,13.209767263967928
1.232,6.1402339314900365,4.5718613818204625,1.899070323243845,1.498916560380568,7.735501134670322,0.23944642918168868,8.092506970238919,16.283569447391052
1.236,8.966787848523811,6.8493363886804275,4.299712855223729,5.249923565139828,11.133303801177373,-0.30694775142554975,10.978105738471832,19.103419965917023
1.24,11.074104356759435,8.612960726663426,7.033453412538492,8.23046590067245,13.580113487537032,-0.9549431321451348,12.51839668606295,20.10038119311509
1.244,11.947463173099829,9.527455972300315,9.154403340988148,9.774330682731133,14.050889365797364,-1.46149240335949,12.202793236023407,18.608637115180297
1.248,11.722557614607956,9.683879259694029,10.039809887249953,9.968632748899518,12.523610601313017,-1.3864903501731631,10.458649662571794,15.144940098790311
1.252,10.998373505159151,9.493780061689307,9.650127677943814,9.42956796552056,9.932170793311801,-0.4100628762204397,8.369780688698844,11.01902589591525
1.256,10.437575386204415,9.424867086180411,8.496059747596927,8.855438761339588,7.634110418287934,1.3792339234074573,7.019567688310952,7.532905754749035
1.26,10.407959709930822,9.764473211581095,7.3774975276831904,8.656012128990753,6.735592515501528,3.427491277373183,6.880605511679088,5.288929129951301
1.264,10.843169404886332,10.518577473808287,7.028160932895402,8.840227532517877,7.622730482902909,4.94741571158864,7.604307311433386,4.012524826583865
1.268,11.348222306766338,11.462839842101623,7.822075216269065,9.148646648646634,9.902576964729128,5.3096214332768135,8.311301358847086,2.9443866580270033
1.272,11.44672992047439,12.292679710773932,9.65446553143639,9.282784592385038,12.718177656073422,4.354426703488069,8.173120116379636,1.4978263989937766
1.276,10.812031729941104,12.758385326223152,11.991473267589324,9.052762385013782,15.189423061754454,2.4452191943657144,6.891882997371673,-0.2830237219643079
1.28,9.37449348474436,12.726978201647114,14.047305399947195,8.37064473273372,16.73078193182844,0.24398637543009016,4.783360271090842,-1.7760679209438837
1.284,7.278103731296595,12.155159897113768,15.018617635963093,7.159925054322635,17.112668284987564,-1.6521737401236967,2.4457936425772906,-2.2956876130387123
1.288,4.74745230993744,11.024230629587452,14.311448635457634,5.3093899212928655,16.327668607114035,-2.983337745109453,0.2662618725467061,-1.6892166635596526
1.292,1.9850877724159255,9.32325474039155,11.735187285480203,2.7646335323049174,14.448900651805204,-3.849596975517014,-1.863754880451479,-0.5744051579427811
1.296,-0.864961687845299,7.096487939597534,7.611186918420062,-0.30244633146718636,11.613717615901487,-4.513833957988932,-4.417339597607604,-0.034118247186960105
1.3,-3.677462622452324,4.538005097091238,2.755638715368079,-3.3788247997103174,8.148508422843069,-5.13042147491487,-7.770794355125577,-0.9336457854813602
1.304,-6.28582522166615,2.033707498151621,-1.7230957616993585,-5.696267531206924,4.668416893398317,-5.589802441197772,-11.75356138694372,-3.3111745762888116
1.308,-8.453644407930602,0.09542593039409031,-4.782353317810046,-6.528488461719398,1.989984177278536,-5.584809885827569,-15.546139968085562,-6.256654517719279
1.312,-9.91961511990413,-0.8137418191460909,-5.84596660688058,-5.569528002142437,0.818418055541573,-4.853586610863693,-18.054924086899224,-8.401183218131852
1.316,-10.509486378182741,-0.49366674315134995,-5.075150151829683,-3.1769962681276414,1.348012498971217,-3.4263851791068416,-18.569340369452654,-8.741158358823325
1.32,-10.234468627528011,0.8763809577131803,-3.3330956746595133,-0.2933324181225856,3.0472619662125844,-1.7033154463276663,-17.275893234035784,-7.287765965596637
1.324,-9.325862967983864,2.7745531873495235,-1.8376327418736498,1.9413320306181496,4.791077308079478,-0.3021997469380344,-15.285906143909394,-5.137874673453014
1.328,-8.213860317656076,4.50321325809678,-1.6551996764749575,2.671717377668394,5.314533144707306,0.22479603549605454,-14.117651360635502,-3.916193046798117
1.332,-7.424573456276715,5.427239524007517,-3.2604220356354876,1.6697035777417935,3.7872996410294153,-0.355527226714746,-14.899623378581701,-4.904659101801649
1.336,-7.414872196778845,5.186861984507425,-6.370438358708913,-0.6334719631834229,0.21056533529496235,-1.8756344982968933,-17.76188326189409,-8.363196091196457
1.34,-8.40761025587651,3.809520141784734,-10.115164058119127,-3.4275039369398757,-4.56713742534423,-3.8918355056861564,-21.76085901223976,-13.414642078336904
1.344,-10.291321191470256,1.6744838127569537,-13.452758927137708,-5.946650169994536,-9.239158295708506,-5.926401845441005,-25.389962959085054,-18.535053785770895
1.348,-12.651545557118723,-0.6566795294782146,-15.620121700580233,-7.808370437961262,-12.627700790135133,-7.68141300272983,-27.38931891570531,-22.343445218378665
1.352,-14.932662432982664,-2.665611217966685,-16.3951125022786,-9.10131354704283,-14.155892595050016,-9.11292857385812,-27.386962528720787,-24.226537641080036
1.356,-16.676839003121632,-4.063352229853779,-16.06628825682747,-10.212534493249617,-13.978810920051664,-10.347828625926258,-26.011710783941844,-24.46988423136692
1.36,-17.706370144678246,-4.843045421471788,-15.15908984931086,-11.510047259631909,-12.730840246049167,-11.51891367129605,-24.435641779194512,-23.883921911476456
1.364,-18.16097577044273,-5.203331722205674,-14.10547522209339,-13.07761394051919,-11.087837835298622,-12.627212863181377,-23.64011163439696,-23.207400507956464
1.368,-18.351404121950083,-5.384435769872117,-13.037368567248572,-14.638076924308391,-9.409137538692683,-13.504332463421518,-23.842734659662593,-22.6563899384944
1.372,-18.505859561697783,-5.506671262864185,-11.801214641986821,-15.684757041869553,-7.64948535531745,-13.869496074317661,-24.418991425396918,-21.86502359372549
1.3760000000000001,-18.559484138534742,-5.490623758941204,-10.144414175204416,-15.728226384567067,-5.552050684696159,-13.445743652743003,-24.320497270126722,-20.204503631447032
1.3800000000000001,-18.124459315677804,-5.085051399123592,-7.925463541706807,-14.520486357440621,-2.9502282225478096,-12.085137097973476,-22.71626013654793,-17.24745623072397
1.3840000000000001,-16.701729623238855,-4.009341319818403,-5.242286515205677,-12.1716233636061,0.012226201717618568,-9.854598291204494,-19.482690031673542,-13.09829186708415
1.3880000000000001,-14.032879300525964,-2.1431514091609056,-2.4273099288281004,-9.121102126407392,2.8711937264694916,-7.066997057185334,-15.272270302333805,-8.415650596617887
1.3920000000000001,-10.381163050773557,0.34280131326683994,0.06055771452065617,-5.998540351431536,5.0312917863131075,-4.250300893136899,-11.163494172491502,-4.161252277474997
1.3960000000000001,-6.5339073746907195,3.009268442346926,1.7928078857980951,-3.4212825481355815,6.042451345716676,-2.03491226843643,-8.108653433387762,-1.2315478084360496
1.4000000000000001,-3.470647880118598,5.34031015907061,2.5150802663662013,-1.780860332616065,5.817663396121701,-0.9624637339623785,-6.49989635991659,-0.15094171524012445
1.4040000000000001,-1.8577195568828495,6.992831036869523,2.221256860275715,-1.100298129713904,4.665873909773086,-1.2680283342805154,-6.081896159789298,-0.9477917673453486
1.408,-1.66249820521272,7.957581403459756,1.1423700693768506,-1.0231272050450455,3.1325311455614857,-2.719655261059075,-6.212322515183091,-3.210205444491935
1.412,-2.1290675335177776,8.540371895796095,-0.3170440343611185,-0.948025748923337,1.758642886458262,-4.618021218741733,-6.276796571280547,-6.2442771280058365
1.416,-2.155783251860471,9.178255243731892,-1.664234736652702,-0.2661270353036116,0.8979396827601387,-6.010059672302868,-5.987920701981367,-9.253380520780546
1.42,-0.9057451368204394,10.18103718410431,-2.4322938183184366,1.3573835299110657,0.6543927961748297,-6.079222100422391,-5.452020805397226,-11.527712844373251
1.424,1.6968469606602814,11.537276267213274,-2.3143158003053936,3.775484402057732,0.9289322217437403,-4.53975741217572,-5.01186606410192,-12.61948495504431
1.428,4.897289783362043,12.907927351630406,-1.276933136723168,6.346281342905305,1.5283072760009864,-1.8215911544410872,-4.994473640718856,-12.463205343409367
1.432,7.523182952240578,13.812596610557721,0.39940831529513865,8.146458186463017,2.2616299567682026,1.0792617655462462,-5.529274573567665,-11.395863136700015
1.436,8.649993299683077,13.898389047837984,2.191039282533069,8.340439397389613,2.985878144050387,3.044898060422459,-6.52125920003794,-10.034854207895933
1.44,8.12681512127006,13.14315162304902,3.5176470930462216,6.550166009868898,3.6194272932222473,3.3682322411446255,-7.744119290012554,-9.027406895020764
1.444,6.641721462248568,11.869940178899888,3.97923654048346,3.046837144715822,4.137757297077388,2.0980097565172753,-8.94983662254585,-8.761890308558726
1.448,5.286864133531413,10.562770346114572,3.5377915818607244,-1.3320560417929357,4.5578888584072335,-0.006988999416738695,-9.935784178126749,-9.196095670428768
1.452,4.883235997418846,9.605200359638072,2.55534601996829,-5.504295014962589,4.923511918749411,-1.89364805953419,-10.54093700077572,-9.904894385638258
1.456,5.474021057290376,9.089810282048512,1.6494015507620492,-8.560847983642917,5.278387577208841,-2.784125357353356,-10.626002308979434,-10.345991916725856
1.46,6.310379930658664,8.826984476227189,1.4363254488306516,-10.075859483411937,5.645264808216632,-2.583437781145145,-10.093633593392077,-10.193284510045345
1.464,6.335095816067687,8.521237518370537,2.2577015138534344,-10.186168294069976,6.006046771372042,-1.900554332443023,-8.950977429261314,-9.549074373298074
1.468,4.867679584617944,7.985576762515573,4.01165528242894,-9.432865816671166,6.300459146186967,-1.6724287768521755,-7.3726964392334855,-8.89816301570532
1.472,2.0671837610462998,7.257912348150641,6.166296236688005,-8.466645030618126,6.452838746149486,-2.600255078107098,-5.689825222563558,-8.81361336634373
1.476,-1.1088171582215556,6.549142886933341,7.948317528891329,-7.7700807039379605,6.406538382840544,-4.70955842828,-4.286302468355238,-9.597544074524317
1.48,-3.4167401595370857,6.085520008672223,8.645573128134727,-7.507418399752603,6.1620362918692,-7.287351388378895,-3.4357473871062867,-11.068518293749477
1.484,-4.009443180086643,5.944892908501679,7.886243942954675,-7.547825778883555,5.771438534388722,-9.236407004316954,-3.174636992408518,-12.630975682268515
1.488,-2.8816316558578006,5.9930934325849305,5.769008233775454,-7.612189737151439,5.2772521983683855,-9.654424991428886,-3.306821936837285,-13.602781000271534
1.492,-0.8025697254257034,5.981989513313163,2.8135771833357532,-7.429401228267829,4.653597185349629,-8.322350840575181,-3.531784538082509,-13.59047683170781
1.496,1.1779123375784222,5.717888273615798,-0.2469091117289608,-6.846955639487616,3.778669604107688,-5.850941936851958,-3.6327136207352777,-12.710491404935269
1.5,2.346169048819028,5.209467118243976,-2.7273097066882857,-5.850057128034245,2.4972086416214587,-3.407599116946491,-3.6043160288128155,-11.519863852228092
1.504,2.6873887107761734,4.686000596963186,-4.203070225939084,-4.50970594375495,0.7506262410865041,-2.1667284448324637,-3.628672103153892,-10.694459457961207
1.508,2.764307896713965,4.451299811716803,-4.607831322227978,-2.932218974084038,-1.3074018595536199,-2.7712491239639334,-3.9154007025746522,-10.655920853539621
1.512,3.238223642684573,4.685658323572845,-4.1852768357523304,-1.2328098145678972,-3.2764690973229547,-5.055393621690896,-4.502355215955217,-11.3511516959326
1.516,4.368620445901858,5.32063005688157,-3.3292061829615474,0.46636286236912106,-4.601289689776925,-8.145940461920372,-5.14880019446546,-12.293724799036816
1.52,5.820320234403956,6.079154344806527,-2.3803191549568345,2.0291263069799355,-4.755326176832785,-10.873777416643641,-5.398042787634491,-12.831695047211934
1.524,6.895662741546655,6.654110609679891,-1.4725116755304182,3.3097046008089146,-3.445485954112314,-12.285923007139612,-4.785372250425919,-12.477716528209887
1.528,7.022462838920983,6.909667636387548,-0.49461992553824174,4.174124744621761,-0.7411639121983558,-12.020150412741957,-3.0841566299223495,-11.124562408572475
1.532,6.164755022399693,6.982075894440733,0.8202689008862936,4.527362255730662,2.9393446007104327,-10.389855579388325,-0.4464142681654537,-9.056652411884723
1.536,4.8697060262137635,7.204119807428045,2.7151742760845794,4.327029931246567,6.970478613746654,-8.178245127112692,2.6269080149182704,-6.792745019657321
1.54,3.9207402888053378,7.905476079719685,5.226543628458592,3.5899413488111773,10.727799627822693,-6.259554106636415,5.466680121657013,-4.868062353065744
1.544,3.81307396687329,9.191774259583928,8.075176835643783,2.3796027839856313,13.752444306224723,-5.231359342299405,7.471811748831179,-3.667656979745056
1.548,4.402480084484697,10.829349847929242,10.687612139405426,0.7860824851801951,15.805371593850769,-5.216112700538454,8.28831354421026,-3.355103143780269
1.552,4.9644498819393785,12.310185203814404,12.359451205369771,-1.0843930421726782,16.81894808891532,-5.892016782158313,7.864701840887116,-3.877677693766598
1.556,4.6364529420996305,13.074136170220807,12.51296250294716,-3.111387687409379,16.811315905861527,-6.705610299276102,6.404081814650787,-4.999253566098229
1.56,2.97571435332568,12.78773017319681,10.950708895951259,-5.155881862900881,15.843970448240853,-7.15270514688349,4.273546103439305,-6.340017078758271
1.564,0.2642977560598547,11.511121859394247,7.977193890654408,-7.073635210944637,14.028576303765055,-7.002217572651626,1.9068125359454373,-7.4567476576749065
1.568,-2.6413227608656156,9.665534914545077,4.315638813173702,-8.746410628172235,11.557084285111372,-6.360316409696532,-0.27019009457098697,-7.969661658561966
1.572,-4.824022798503533,7.825374826182351,0.8367252195518873,-10.12063907765587,8.700434457628065,-5.567151884163972,-1.9155142897845279,-7.721153942257121
1.576,-5.863878432834662,6.434924418418266,-1.7909760912734605,-11.229646972412839,5.746013613574682,-4.9987159918421,-2.8606016090230835,-6.893306711652634
1.58,-6.078246237964342,5.61088341329628,-3.355657502810544,-12.178628876666986,2.9123692822667255,-4.886009966303287,-3.1878200080009,-5.989337786942645
1.584,-6.28130542839025,5.123251211391894,-4.1423212112647,-13.089411525292935,0.28990180626973405,-5.232750910592289,-3.2508379379719266,-5.6433011328312075
1.588,-7.211387612358471,4.5512430363374845,-4.734669758693931,-14.024955503581614,-2.14191852964073,-5.854175975549014,-3.572357089895222,-6.31813085529007
1.592,-8.990762533837204,3.5407302437026793,-5.663525197866482,-14.928024601574673,-4.403259884687964,-6.503170700188965,-4.618116549100557,-8.027660812915514
1.596,-10.970270499227915,2.019691173349944,-7.085779933138922,-15.613909349477595,-6.38344523071123,-6.9979191406321855,-6.54168132981938,-10.249996847290172
1.6,-12.066784496253604,0.27081237028317506,-8.657142228376696,-15.825792908196334,-7.773345216002733,-7.280564245381974,-9.02678868969006,-12.101922826158784
1.604,-11.416777619290665,-1.1954545129805307,-9.686596439500573,-15.35192436348427,-8.148908074545442,-7.394212009260972,-11.345114480156269,-12.709458553527675
1.608,-8.969561905841427,-1.9235714166296631,-9.507382778037243,-14.17099510181869,-7.202441151007613,-7.409598217044188,-12.640488562726109,-11.598833378814895
1.612,-5.6478781539809475,-1.794383979609822,-7.867774044554098,-12.551196326579559,-4.998950093941092,-7.36356873577099,-12.322008985208303,-8.906199681061585
1.616,-2.942717823554648,-1.13393032587114,-5.1061534233538834,-11.023998858112332,-2.08064415895805,-7.238431874550923,-10.35167811075943,-5.287622477930452
1.62,-2.167251945492792,-0.5725542577834987,-2.0134305479750094,-10.227796674407738,0.6835914130307292,-6.9882786755337705,-7.272833403270153,-1.599452435571747
1.624,-3.7752503598249243,-0.7172470985257515,0.5468353734559397,-10.661291271552116,2.460760937838915,-6.580408513048024,-3.9500134432541882,1.4762431547302093
1.6280000000000001,-7.118902518896449,-1.7979438848375142,2.0558014895305856,-12.437155414846007,2.862509374657544,-6.010656274947459,-1.1393524012544327,3.677761410434993
1.6320000000000001,-10.789264141683468,-3.4933295732372103,2.560660205036458,-15.157919153605542,2.174155710757212,-5.288114324723294,0.8745910698951133,5.169636607146536
1.6360000000000001,-13.34548816373502,-5.059422098124212,2.56943214261688,-18.00102487759772,1.2444224282665504,-4.415069088238074,2.36997020197055,6.330689141700235
1.6400000000000001,-14.018593319310854,-5.697666421681873,2.701753077142292,-19.994151587306806,1.0768701512381669,-3.392462432912157,3.9642048364038374,7.478414746419974
1.6440000000000001,-13.025780657713028,-4.99653001142231,3.297795507006149,-20.39383402013356,2.3080941799635086,-2.268126667126122,6.198896996270949,8.689563448988242
1.6480000000000001,-11.352590307675317,-3.2145180432865477,4.207407342086196,-19.007779798469116,4.832789442347368,-1.1962109161427774,9.163254879870578,9.784593377526026
1.6520000000000001,-10.160260210210827,-1.225348845782007,4.885732259403321,-16.30953297280736,7.780252619967694,-0.45348807571240746,12.361144361764092,10.446162065370256
1.6560000000000001,-10.151678474521628,-0.116543378399252,4.734016150567783,-13.27317784519146,9.872786742565328,-0.3653095136587978,14.905635874030704,10.365617951382507
1.6600000000000001,-11.236872566922486,-0.6376292597545221,3.4706618657733443,-10.989254631888402,9.992868442800578,-1.1575334726255113,15.926256467657922,9.326585889762828
1.6640000000000001,-12.65356186440647,-2.787731205974735,1.3120564238612866,-10.221762544869616,7.675889350329979,-2.8038892087336516,14.973975590082937,7.214016706277628
1.668,-13.435330251278657,-5.764180644528512,-1.1377078521165487,-11.102081850993498,3.2966795140429213,-4.968845828150097,12.219024518976937,3.9884475746263672
1.672,-12.951437499710991,-8.32511275271056,-3.2241438261897297,-13.099145874900072,-2.1349924268798333,-7.099574827702809,8.344418136156657,-0.30142405931868943
1.676,-11.22114931093398,-9.39470378167912,-4.60239509422669,-15.272469961520274,-7.446269785883377,-8.636955601644484,4.2127376470378,-5.442775484414899
1.68,-8.866718930936809,-8.586417647860584,-5.389807314562337,-16.686648695854963,-11.773139082061487,-9.252397557319773,0.4954491805987926,-10.980049622012345
1.684,-6.759117697803106,-6.366379157242268,-6.023782797401962,-16.79055189841073,-14.799154868183223,-8.971313732440443,-2.5413761769565646,-16.21822883521189
1.688,-5.576998006868848,-3.787482007288345,-6.929898379582456,-15.59769649685644,-16.683043233437417,-8.125598634091233,-5.018699212841035,-20.37276229598213
1.692,-5.502805881469696,-1.9417931865265379,-8.203333206119064,-13.603037177669648,-17.76663797175163,-7.1621906741744,-7.2248722452541285,-22.82427488564671
1.696,-6.175352470365388,-1.4322987921649966,-9.504353230829231,-11.498510238580007,-18.26749937988392,-6.407063294674886,-9.333056375187146,-23.35399360985514
1.7,-6.8874282467685815,-2.1256606836204046,-10.215001746892174,-9.83779442688444,-18.118625782099155,-5.922240887190594,-11.214406327689822,-22.226822055980882
1.704,-6.924241203211617,-3.305810058836271,-9.77253871485182,-8.829265783233849,-17.04168293932336,-5.5339322637024315,-12.445753547623298,-20.056155731722477
1.708,-5.865981606541323,-4.110642750829721,-7.9808192082499225,-8.336678464880876,-14.78351719084392,-5.00119239006405,-12.496330671208124,-17.507594383631464
1.712,-3.764096159956485,-4.014707615312842,-5.144674717109459,-8.076286847480686,-11.380505176845473,-4.22321911723188,-11.009915684215148,-15.008266369727579
1.716,-1.148259378646137,-3.1049619978946774,-1.960193822180337,-7.873534543646162,-7.289636846250573,-3.3591035053378286,-8.033565358131607,-12.606511342004529
1.72,1.147921312089088,-1.9941404505837772,0.7793982480948828,-7.806006101550496,-3.292053951709706,-2.773307295367227,-4.080110265456511,-10.047884108719558
1.724,2.2790446346280975,-1.4426719367772822,2.504348399380121,-8.149822627779105,-0.21749277684738288,-2.824843238385717,0.015657842166622693,-7.005114883180934
1.728,1.7144287602799055,-1.9057178926083278,3.0777174248445025,-9.153504640267164,1.3792327466666086,-3.622382499028772,3.397512680039542,-3.323312172570656
1.732,-0.5093383952176476,-3.2617582002243752,2.798671340576653,-10.777807399274518,1.4269499272729211,-4.884933213587806,5.501079546809568,0.8610951865997758
1.736,-3.7245389941582276,-4.883508894044618,2.2012306619654263,-12.58484157386258,0.3134105827619642,-5.999191040200424,6.222782589184644,5.154046892402518
1.74,-6.822089189801606,-5.9935218031565,1.7727828679074134,-13.87388345584958,-1.3407734992683409,-6.280439979783637,5.864142134378981,9.031721712859628
1.744,-8.661154014888519,-6.113649977735141,1.7135177872357388,-14.020777989340402,-3.005422463554634,-5.319759932529319,4.876925131442837,11.972693006317083
1.748,-8.534626116316815,-5.35237445191973,1.8398777610135766,-12.83396897430055,-4.4961295159984624,-3.237964819811796,3.551694453549384,13.54021950188591
1.752,-6.4720716997522105,-4.3598291757069365,1.6829496505768202,-10.70727106150214,-6.026685925165388,-0.7019482935771053,1.8448129244805305,13.436751216983017
1.756,-3.222481656786981,-3.9751733992074056,0.7353139707282348,-8.451680825328328,-8.032157271811082,1.3320360313187107,-0.5278635774760523,11.59454652552182
1.76,0.10786668919682474,-4.723559602438573,-1.2480650343504651,-6.856198923010359,-10.824664151565843,2.0561346997733856,-3.7652209476738845,8.314012857620217
1.764,2.6081671810514955,-6.43678722910422,-4.029514665821492,-6.204728503411489,-14.256058739355957,1.2342826960182163,-7.604618801661804,4.3820081252547585
1.768,4.007117475979076,-8.232329170688317,-6.880625494422189,-6.052506532188225,-17.59579821530634,-0.6172612230057812,-11.171277637629819,1.0170230385726549
1.772,4.735902676136488,-8.916733322928255,-8.849770958728836,-5.4576194969391345,-19.747283041961467,-2.4272158050122536,-13.242889298110569,-0.4614012622499264
1.776,5.536161952126494,-7.668751879438149,-9.234930894076435,-3.6069395825043085,-19.769276667376477,-3.0927788270748775,-12.876868012831238,0.8001245113004181
1.78,6.8495133625661095,-4.627297008358173,-8.028282412280431,-0.4922569746479901,-17.449753417248324,-2.0881254677556464,-10.104470014458657,4.630908925170053
1.784,8.366835320559405,-1.04075256228806,-6.077784553674225,2.7727951413231766,-13.619688756382258,0.15155827315977088,-6.257668586017551,9.626130694035954
1.788,9.036102083454674,1.1646724589107942,-4.822002360942177,4.257944922172069,-9.982364748186573,2.30476913010646,-3.637615353584765,13.505200382118145
1.792,7.598822597017081,0.26431536834158376,-5.655626913840411,2.0934706528178895,-8.447248062175879,2.7308568481698856,-4.556604852061522,13.99656792667057
1.796,3.3760170735151824,-4.3691117769191035,-9.205769125899636,-4.491599896475332,-10.242358911965285,0.2886774570536948,-10.15796977725295,9.89294765158847
1.8,-3.1383958064565625,-11.787514992710605,-14.864003232084517,-14.504721277352004,-15.199616591962624,-4.991160897236354,-19.595328609190545,1.7700150263258076
1.804,-10.249241939813867,-19.691584790378784,-20.85708661029455,-25.307108459478005,-21.60328970500195,-11.739301874915814,-30.057382559652886,-8.041102129792156
1.808,-15.677221379220297,-25.31037088210674,-24.879175047155417,-33.542018902321814,-26.747752585264926,-17.717763289193933,-37.73033917283422,-16.285558705339405
1.812,-17.547697902301937,-26.55601951292406,-25.036068434520203,-36.492102681841104,-28.021157482641915,-20.746156230479627,-39.313929013181,-20.07064905466436
1.816,-15.24648520266851,-22.92448014713115,-20.678956219459668,-33.23205123896486,-24.05541625742741,-19.63806183299154,-33.406116714588514,-18.012313823065945
1.82,-9.672228750179837,-15.673665540128853,-12.705538941872476,-24.994749895709575,-15.380927955594863,-14.685845583028861,-21.092684625924733,-10.709081766121697
1.824,-2.7695362081751487,-7.213082726591213,-3.2035803863892736,-14.583562026964074,-4.277907634149315,-7.4684097678958,-5.478987793095122,-0.3526978662076594
1.828,3.3785758858598682,-0.03621196774406377,5.371585156884848,-5.1405192017520935,6.107388975419237,-0.09423111960577968,9.577242642305627,10.264718722743229
1.832,7.414331938850248,4.276642382506923,11.093815416689496,1.120928841858305,12.9842055995038,5.717418715125078,20.916028625892807,18.8323390416892
1.836,9.084768828015276,5.4921263383134935,13.117407271987346,3.6072347744585054,14.896474435887692,9.245809207626419,27.037571360119777,24.16521848464171
1.84,9.032771839633378,4.487817028219232,11.731176984839038,3.2232863641701988,12.08810742713438,10.802445894876431,28.24604929762929,26.218774720777073
1.844,8.209394333432416,2.5667647040575883,7.998802873649712,1.6110820584884218,6.164656222146592,11.248438993016883,26.051649489294412,25.63140521524523
1.848,7.306367726684109,0.7477573981753469,3.2423352199740556,0.22350032303809275,-0.7130190306710729,11.330691524928785,22.249735731891896,23.15761324671733
1.852,6.531867222918972,-0.5896555733758166,-1.3673164697101563,-0.27338331143060923,-6.6747658233106595,11.24783924085483,18.184708786425123,19.352817209355496
1.856,5.779928523676144,-1.5874410715437417,-4.984464391972937,-0.028931440861452273,-10.657723875907166,10.683266686962295,14.493476441936972,14.632654647589789
1.86,4.992987728316429,-2.477260741701329,-7.068012808667549,0.4258892282614415,-12.437240902319601,9.219120919965796,11.304598310142762,9.535754102982592
1.864,4.396457195880918,-3.1930102597345136,-7.336772508448936,0.7035811690998086,-12.313929550881856,6.8099004581346545,8.614129632659274,4.886077209529249
1.868,4.406020474161282,-3.3104622431686823,-5.805312427583848,0.8162042588458254,-10.732797236192663,3.972399172177249,6.533574001999792,1.641167312270794
1.872,5.295029459459774,-2.32767786226242,-2.8610965386881464,1.0569164210511406,-8.049971586390619,1.5648069503592454,5.284329625977266,0.4922079881839818
1.8760000000000001,6.877651610255178,-0.09392112894134463,0.7210260858594159,1.6459625509847333,-4.54306236899557,0.29713790438917576,5.005266867163297,1.4700508340072858
1.8800000000000001,8.482433184534221,2.9443319368082106,3.962383495318023,2.4571987940388746,-0.5410217042050784,0.30665432360707134,5.581072768830474,3.857086024728128
1.8840000000000001,9.272934542656758,5.860390546374489,6.038619219131871,3.0398307003389013,3.4902924542411062,1.08711124748613,6.642404695201426,6.513449408395108
1.8880000000000001,8.740495930472694,7.678289192637573,6.65046657511727,2.934995366958313,7.013061024940762,1.8311186311770786,7.747870281795435,8.456812206543411
1.8920000000000001,7.044791677841297,7.857613943378544,6.177723438433988,2.0529875664233295,9.596392602457058,1.9615531186261932,8.603172352507826,9.348142772239665
1.8960000000000001,4.948984016253073,6.51531060599732,5.469366562133244,0.8123716980272365,11.06442548542472,1.4990255501422451,9.148424895862528,9.573804012901409
1.9000000000000001,3.3699690449745043,4.274606907497836,5.361099313050253,-0.08446694175297809,11.51114050704856,1.0155930357812248,9.457041058534612,9.862964592049908
1.9040000000000001,2.824836200001776,1.8593402655291027,6.1881353058836766,-0.10979144875381819,11.1675306829988,1.1985236823228487,9.539140589325056,10.69356923673515
1.9080000000000001,3.145562120813153,-0.28791849735381536,7.589798500904664,0.7167755758558318,10.230713840107853,2.318969959524663,9.241800079289492,11.88800197732142
1.9120000000000001,3.6425500220033955,-2.1340722778469754,8.725490300545442,1.7988067209574428,8.771488165178575,3.9602258181408936,8.328526091365514,12.665393890361077
1.9160000000000001,3.6034817729428044,-3.885611650395318,8.777029755647161,2.323916317349662,6.7806930973827395,5.203238385583192,6.703727522608866,12.14048188590541
1.92,2.819957714617408,-5.647909536694515,7.453691056870738,1.8161210436287456,4.322582458895189,5.182687747175055,4.617307331620549,9.950236052681095
1.924,1.7788730046831027,-7.18617912205621,5.178107530678467,0.506809687575442,1.64977923850187,3.666975251438045,2.6640419755860085,6.5923990840339615
1.928,1.3778278967325495,-7.976042732368103,2.8334508435359798,-0.7427370811128797,-0.8419521342422907,1.2716409391395984,1.5260419898177982,3.224680049821553
1.932,2.3319261407638683,-7.529325138195497,1.2186987167820131,-0.954151136549442,-2.822719458862686,-0.8424085234917864,1.576118542818687,1.0221327196868608
1.936,4.64885003470783,-5.800350076163863,0.5420291403188067,0.31533075088985774,-4.280071214162676,-1.6295336687525106,2.582148357083955,0.4817293332268511
1.94,7.5196933002477975,-3.3891755315309213,0.28112106733137754,2.5890755820562674,-5.619093756171431,-0.785611161138292,3.716761233030526,1.1065931737298609
1.944,9.720621150167114,-1.3662150081423883,-0.48166061891805256,4.62992950118344,-7.486180965131827,1.0509961838690294,3.9181913417865024,1.7023491453595447
1.948,10.294204167674327,-0.7828657751708388,-2.436740799200278,5.0802479442005035,-10.376865931206657,2.6474330686582026,2.4282370162141547,1.1225860751795027
1.952,9.085026688559235,-2.1397378194489263,-5.530356139587381,3.2190370481534445,-14.252642212346586,2.866933607383701,-0.8007809160535863,-0.9939760705662888
1.956,6.798338670389965,-5.109935024973689,-8.878736296401074,-0.6075630912382222,-18.41369403959446,1.2975835906054098,-5.040718638070302,-3.946367906543966
1.96,4.545025577425805,-8.666744988574026,-11.182079844806577,-5.141491729558836,-21.739246637518573,-1.5499361016218731,-9.106750571145636,-6.345507942300524
1.964,3.1628613557875203,-11.550698492419286,-11.418555568879583,-8.865443276352085,-23.202253794472956,-4.567145221367108,-11.890428653315054,-6.934718421462303
1.968,2.7201912630253826,-12.836509110861495,-9.42008637555126,-10.77692877075587,-22.386871782077908,-6.680643705204912,-12.821576126922103,-5.370901083572393
1.972,2.5224146728450876,-12.301514872000531,-5.990793906249545,-10.833261439420225,-19.70758647414916,-7.400475031984288,-12.026968647948408,-2.486947068347737
1.976,1.5962542632836358,-10.456688138900232,-2.5204664780093826,-9.853964983591835,-16.2210240975923,-6.986454269929183,-10.161390183333662,0.11515560503343636
1.98,-0.6214705624107726,-8.230627460879328,-0.2853382515920173,-8.952696263981945,-13.101755219102692,-6.16915478455628,-8.03333782515357,0.9139840010454083
1.984,-3.8349288360939155,-6.5099673138345295,0.16358519484023137,-8.870567677862397,-11.075014118905326,-5.639839470982545,-6.254021034078699,-0.7167183897673066
1.988,-6.980415692668376,-5.785346137337805,-0.8157844004873431,-9.61867161276877,-10.128619035146265,-5.657368135892876,-5.082011916690018,-4.199235679860562
1.992,-8.785742200736543,-6.038432623167441,-2.2650487380959,-10.597954197645361,-9.640418504063968,-5.9927624543205456,-4.4783627195804705,-8.089950592626327
1.996,-8.486878079996485,-6.8907105669630075,-3.2340954111505673,-11.079764957020396,-8.842492605811842,-6.200342583897873,-4.28398728096494,-10.842558866707943
2.0,-6.273672491856286,-7.867796647221678,-3.3133222086680445,-10.70366485304832,-7.325881696280704,-5.993192685694098,-4.367882982247093,-11.553971536763946
2.004,-3.1981925269601175,-8.61871558551721,-2.7921847269649724,-9.668650737168376,-5.300826104202937,-5.452040842330528,-4.657548757344401,-10.28361055823446
2.008,-0.6139623815007091,-9.006801078418295,-2.397245557323349,-8.526085009803428,-3.4924777864453618,-4.932409987013488,-5.083974662095646,-7.836709131315685
2.012,0.5296762923200813,-9.062426640056046,-2.7968549971768146,-7.740464373868958,-2.752682899544993,-4.74868375673528,-5.528253620130224,-5.210224379503925
2.016,0.1459552550602834,-8.883393978840155,-4.198056212646731,-7.338214964856618,-3.640493839990569,-4.875838695372937,-5.850675354699384,-3.068133311060352
2.02,-1.025165080665241,-8.557425799072101,-6.262501596130556,-6.888724471301979,-6.196530159378893,-4.904565010581642,-5.999394124638419,-1.5525596343510475
2.024,-1.8891453425767049,-8.14444164247604,-8.365197107905521,-5.821811378162394,-10.004122369657356,-4.29189832055564,-6.119171078421747,-0.46895294546237953
2.028,-1.6156963598764316,-7.7044193597285435,-10.008334031006445,-3.859139625369784,-14.453094871186401,-2.753447475922883,-6.562488771779112,0.3490379744055436
2.032,-0.05712425157926998,-7.325053052751811,-11.119924014837991,-1.26519127923446,-19.011715445806477,-0.5332726008762478,-7.747922656886454,0.7927113387905893
2.036,2.2359110347649818,-7.1230555338662285,-12.064072799846535,1.2462516038077887,-23.356003379367756,1.6394390637682528,-9.924523615416687,0.527441723268659
2.04,4.380073345692372,-7.183327000554768,-13.338740661375407,2.906778567274677,-27.28933058743713,2.9038301954017705,-12.955098018758292,-0.702626613299322
2.044,5.654999535945406,-7.482498286188478,-15.161534355414833,3.32720712477484,-30.563416226719614,2.735596124601996,-16.254742974960934,-2.747141756251123
2.048,5.84741572882421,-7.844657883606587,-17.20283184232948,2.699646662561083,-32.76423909931788,1.2487139287069668,-18.940532112297976,-4.950986686175927
2.052,5.277832359800567,-7.960819726993119,-18.632383478815072,1.6505091441764517,-33.369674601034816,-0.8413917382350373,-20.134398375368797,-6.386515192571945
2.056,4.528331283283856,-7.500088129657886,-18.479496624531862,0.8404401701079891,-31.983436933208555,-2.5710274267022575,-19.28846469761603,-6.30544648293467
2.06,4.0742017644837905,-6.2533956723874695,-16.102886477331758,0.5779164223826001,-28.59334156413572,-3.2029119828471346,-16.382882621756707,-4.541637029601683
2.064,4.031280361516987,-4.261531601940485,-11.542905635692748,0.6696303470552873,-23.703502934273917,-2.55956734299247,-11.93237695643839,-1.6342025645874365
2.068,4.158361875525886,-1.8614413453673482,-5.57883762022703,0.5858361657998881,-18.240826189219234,-1.0526897745675443,-6.818320037025639,1.400945516450867
2.072,4.078309145921973,0.3806103260383149,0.5328096382425906,-0.18502214913436088,-13.261673165316818,0.5749245720019855,-2.02335594700385,3.5278306194012488
2.076,3.5365743903884557,1.812141530802634,5.488438191083403,-1.8379119140809892,-9.618060708140172,1.6247317594864397,1.617956047237806,4.125689500743665
2.08,2.565095864254757,1.9077089483487928,8.358173068302408,-4.159319598243799,-7.7139381538733565,1.7401485482048296,3.5968799325108183,3.1924140929715232
2.084,1.4771195264036878,0.4766537190204563,8.831862579802737,-6.66143581587947,-7.449911900941112,0.998589462794123,3.81128822762596,1.2565478485512394
2.088,0.7023145747620672,-2.2363665172532086,7.213507267718597,-8.824357140106873,-8.364958308855092,-0.211338453778807,2.535740323709195,-0.9136198207668329
2.092,0.583357295679934,-5.6032698636751626,4.211063496245263,-10.276691316534375,-9.877570192171786,-1.419580826805893,0.30938437137517116,-2.62919010544546
2.096,1.229678175561232,-8.833979899293002,0.6274971998304202,-10.83899806163676,-11.525876991149651,-2.2754052954949984,-2.239921797610082,-3.4839371135002404
2.1,2.486662431360391,-11.281056264809543,-2.912230704098764,-10.4644456120704,-13.109389064520682,-2.639694505835992,-4.600024298154425,-3.4082870335378583
2.104,4.020357392979483,-12.691894523114382,-6.09802892666667,-9.174911775895712,-14.690243608742072,-2.558385716232122,-6.521830384755586,-2.602217650303877
2.108,5.446571837751998,-13.288572611494715,-8.903764052158841,-7.080109276837713,-16.479811858158683,-2.1771663057344934,-8.053478462722058,-1.4278863735353244
2.112,6.448243490884527,-13.626261118191454,-11.431489540177775,-4.462260579238997,-18.667776064762805,-1.6563782636211402,-9.42886257887343,-0.30947047991541243
2.116,6.846196847593557,-14.308131139311943,-13.737311254233848,-1.8290623354058757,-21.279226275104158,-1.1203691161756861,-10.865074797970568,0.3549689978244377
2.12,6.627031351992933,-15.668136635595395,-15.706636660222998,0.18005485835913282,-24.092189271077473,-0.6437923352910966,-12.36542857185726,0.29112999600257394
2.124,5.941037108449322,-17.586095655982422,-17.050742997781093,1.0346062691224502,-26.65384753173682,-0.2608331842543734,-13.649191358131455,-0.5540858324477971
2.128,5.070367600814482,-19.53198531126263,-17.424261052166226,0.5777898621524766,-28.392785222559077,0.022460724344136374,-14.261422484939164,-1.9626134300602636
2.132,4.346319230599323,-20.819703845280586,-16.60776313312484,-0.8677230157464992,-28.79593485947182,0.21033409756306298,-13.827805812823629,-3.4965078849809093
2.136,4.031615894128846,-20.941766234735695,-14.65910675888941,-2.655232181841987,-27.593940361240353,0.2910260869904695,-12.304831135279615,-4.651127315514298
2.14,4.20797864393337,-19.79669244418298,-11.930838837456694,-4.1657967751986895,-24.86441010527524,0.2207857008458891,-10.059638925651763,-5.054404777271824
2.144,4.712965826772613,-17.706399014670808,-8.949773422021746,-5.164197145353858,-21.016508159687742,-0.06981646984386458,-7.720662328328444,-4.618202003505221
2.148,5.179577264660846,-15.238023164271224,-6.217146665903785,-5.930451567395268,-16.658035545697675,-0.6444936972415984,-5.879881076160993,-3.561351186938356
2.152,5.195875791209684,-12.931695783055112,-4.028457981137789,-7.055941967403701,-12.400428593467918,-1.5094674249961426,-4.811487147119246,-2.29308190425839
2.156,4.514382528714949,-11.098125636341877,-2.4198170929711926,-9.010239574050292,-8.699537240642933,-2.572037795179367,-4.379512088313528,-1.2227709975223329
2.16,3.2200480964681732,-9.763146533322097,-1.242121965227481,-11.72180611241054,-5.774446455172333,-3.6402044758200987,-4.190738865980621,-0.597924481186646
2.164,1.7561350457288363,-8.762965789360141,-0.30826968788498377,-14.443557657734635,-3.6239639939149875,-4.468348563213366,-3.8910512346114046,-0.4470783140384684
2.168,0.7546555508390476,-7.913338043443782,0.47356173251564204,-16.0322100276015,-2.1218805083718575,-4.84037773164217,-3.420165005973466,-0.6433555109058462
2.172,0.7362538128796239,-7.127250171236086,1.0721494321606402,-15.516784360374004,-1.119295157168973,-4.6526584335811565,-3.047915633901005,-1.0169076722146562
2.176,1.8199568015108167,-6.4322615577866555,1.409708806696278,-12.64774592237995,-0.5056557508328714,-3.953076007388006,-3.150930228566062,-1.4245207306066838
2.18,3.6041106554528994,-5.8894516036384115,1.4768870834754901,-8.105500496874615,-0.20518109412128194,-2.922841366367555,-3.8811218041306974,-1.7499224542296896
2.184,5.29222076417361,-5.499079217332791,1.390980627599558,-3.229535141876072,-0.13251940480443292,-1.8075488214020972,-4.950899181051092,-1.8534016051523583
2.188,6.027687910074285,-5.177640568790829,1.3484686176074119,0.6059129024303651,-0.15990042797830206,-0.8321336297867452,-5.696540106775393,-1.538487914078856
2.192,5.29369958593181,-4.816275655803954,1.495761051539502,2.6432179352168736,-0.1324716399782595,-0.12832670599942197,-5.421887961856316,-0.5932586286556975
2.196,3.168830577153212,-4.389164283638066,1.7976016873977017,3.0654315311333655,0.055343375775946946,0.2984899695730423,-3.846252555598249,1.092988713298606
2.2,0.321057044685193,-4.0087614721840295,2.0213298467989347,2.8308218253786337,0.38254139597122694,0.5632892203853617,-1.3766251098993556,3.4101778620134464
2.204,-2.2801485190251687,-3.883943523686411,1.839838672006013,3.095584586739876,0.6641548951681746,0.8554764524969443,0.97923762421676,5.98671075619956
2.208,-3.7996299860800624,-4.1982258030499136,1.0018240886033107,4.5443184755692645,0.5910859033668061,1.367265386285792,2.0471290235457036,8.273378144153455
2.212,-3.8961760286873015,-4.965534756275728,-0.5132247929717169,7.0019564225245094,-0.13257163755607104,2.2167624224673492,1.0733900450749152,9.739299538430341
2.216,-2.846042160084071,-5.972063768219129,-2.463937590366129,9.52242879967918,-1.6235531182319765,3.385896042682855,-1.842811666516055,10.089286048668974
2.22,-1.377735839830667,-6.836083131925921,-4.437026038023575,10.902563858664378,-3.6873485221169124,4.7018953527727945,-5.7057343483045,9.391371635193623
2.224,-0.31888179748645173,-7.170871034193409,-6.000573835066352,10.336990891981383,-5.802869201753317,5.88109114691263,-9.00521238306382,8.051411927349584
2.228,-0.24134059688908982,-6.768371335954915,-6.8301495916510655,7.8556224882227745,-7.259692702462395,6.627889734853927,-10.352671020703582,6.644892745388885
2.232,-1.2639831013762537,-5.703349767760713,-6.747796760817009,4.320127024824507,-7.4092549338412335,6.75621181199849,-9.065650360543183,5.680891236053234
2.236,-3.0935201299834043,-4.3225319008576335,-5.704851477085187,0.9859786359085492,-5.955002641403846,6.268283706861098,-5.44697266622619,5.393118727834288
2.24,-5.226889964146335,-3.1013781842410464,-3.741199085030931,-1.1042603767138717,-3.127022085174334,5.354185445552799,-0.629386846218698,5.659495720621996
2.244,-7.189180851796005,-2.4491287287107144,-0.981028613877599,-1.5822968257315901,0.34666277719583705,4.299326402496364,3.924929299587161,6.076149958832866
2.248,-8.669594251246727,-2.535487071164395,2.33965916885031,-0.8311415862889033,3.4916262549535255,3.3486824254442054,7.036644442122234,6.146207736598569
2.2520000000000002,-9.503374520577314,-3.1977869857367973,5.867833080561477,0.3463986688635661,5.485263359893367,2.6122258278543717,8.262951027354015,5.516969682961681
2.2560000000000002,-9.58904014412823,-3.991384463893569,9.182601075944383,1.233792487060955,6.001981570581064,2.0562790609199895,8.003521880301852,4.167246450431135
2.2600000000000002,-8.833884283822131,-4.350067018826831,11.918585000972715,1.5899828525011892,5.343653472475204,1.5799198479117424,7.241696955255335,2.4587899854722215
2.2640000000000002,-7.195530223731074,-3.805147105211649,13.89903503667415,1.7114729556573913,4.27882342233476,1.134701508740478,7.059148450273858,1.0309519124435358
2.2680000000000002,-4.796679480761629,-2.1898190204922385,15.193710794980856,2.1572488611169547,3.6517712805201468,0.7965813048323042,8.144653817512543,0.5608543637458823
2.2720000000000002,-2.006879285919733,0.2604674597547172,16.043215079410118,3.3302949143762914,3.9569301470255684,0.7288389384494102,10.509028464527567,1.4715365260466626
2.2760000000000002,0.5944192703102722,2.9477403781818032,16.66473480509208,5.173738427395481,5.082918047585822,1.0510665658199194,13.514082874559053,3.70513162612995
2.2800000000000002,2.403026034524769,5.107618538530746,17.068733485638685,7.170338732312793,6.37459068611998,1.69752081927547,16.182998288371355,6.669602491657559
2.2840000000000003,3.0567215698241625,6.106593805752462,17.009004612751887,8.642771832244975,6.981948120367054,2.367843452117943,17.639324756709147,9.410221761185095
2.2880000000000003,2.6220773544492793,5.718195301029441,16.125335432057454,9.161804171855945,6.3185927133023805,2.629604725045242,17.472222018398707,10.965641863801412
2.2920000000000003,1.573962835816296,4.244088023059424,14.20690695164647,8.802141809400803,4.376303786772464,2.1383630748085074,15.857785160483195,10.755381874276335
2.2960000000000003,0.5571101046486704,2.393450221789296,11.412523498188737,8.088857583305815,1.7292188305086582,0.8592105819659013,13.399527737996081,8.823601159388343
2.3000000000000003,0.05574975777650559,0.9769141253585474,8.31025017053296,7.675038035512259,-0.7455419130609369,-0.8481866037074175,10.797538779487489,5.821251725953059
2.3040000000000003,0.1650553661332359,0.5511234263955336,5.678887602460077,7.951096379783529,-2.2726011938657336,-2.348411439275174,8.523993334431246,2.729898358079132
2.308,0.5963037600652918,1.1877401372668936,4.166029109357832,8.823205279680906,-2.4846889720896272,-3.0176468552287163,6.6815637437291,0.4482368417424656
2.312,0.9219120386894928,2.500002169279344,4.002928956580625,9.798746757579988,-1.4708440637376277,-2.5528973761498106,5.1048923803003206,-0.5618259084379238
2.316,0.8995976247432976,3.8903154018337336,4.924725479164586,10.308960821502872,0.4015632973841373,-1.1406345180660837,3.605578244061808,-0.41103056598459364
2.32,0.6770027665742522,4.898610284091817,6.3559880762426415,10.077025345146104,2.7609057160753787,0.6172215887850543,2.2031860809970993,0.34736891761758226
2.324,0.7216281728268454,5.439459105577511,7.739457471212724,9.29278228916991,5.405370461124037,1.9847588210390605,1.172649032940801,1.0255162211195952
2.328,1.5047814563210293,5.794841670533912,8.822224068932664,8.496800443880169,8.2840555629425,2.4378721234798855,0.8766018820266157,1.1235347033152658
2.332,3.1377231576273035,6.386407790629391,9.750472770942745,8.263301852148468,11.347461327418007,1.8998088648572196,1.496241559196189,0.5143475349644169
2.336,5.195070417813223,7.461082627456426,10.915137412334056,8.882245514305,14.399352356815019,0.7519712193165125,2.8415249570390655,-0.5659867765140034
2.34,6.86133579847076,8.894961119723398,12.66022428380663,10.237953332971955,17.095991674221217,-0.3850184291338572,4.378529985935269,-1.6830732342970163
2.344,7.33733143576157,10.235895054606688,15.035408911907586,11.933257643179985,19.108078493408748,-0.9747599091484296,5.479182597791123,-2.415921750142941
2.348,6.289879917544962,10.962448101431944,17.738527374301796,13.561043678122049,20.335781429385584,-0.8154134896979048,5.75916033951354,-2.499865370631089
2.352,4.0768100575411435,10.800228671429227,20.26240508244437,14.931211147764225,21.009884994834984,-0.10067968104092406,5.3002443114217,-1.865184828152749
2.356,1.583630721561721,9.875051458935658,22.12454259663921,16.0844527659411,21.55521473905831,0.7154823663455834,4.5995154980391,-0.6069028291431611
2.36,-0.24685053074600138,8.620869478402973,23.05071482425751,17.110965204308343,22.29451491876194,1.1598801261090115,4.2675467523587445,1.0616515511508577
2.364,-0.9227172743228707,7.501893897914892,23.017419843574395,17.92890315098149,23.1779417341842,0.9588420910244577,4.656339128812776,2.843495780632182
2.368,-0.6515101605958413,6.720526457718529,22.154018961124287,18.20879184151927,23.730236148101767,0.13162349056494416,5.641938092142595,4.389155382929282
2.372,-0.16483461818143996,6.114725257217595,20.616525470192407,17.544484038277666,23.30030146811823,-1.0582657091529832,6.698860349781423,5.361115545988264
2.376,-0.21727666283906144,5.306420317694384,18.533577074794955,15.77861439535124,21.48110350516823,-2.2415653511962335,7.222365073835693,5.530993512201474
2.38,-1.0580826178365266,4.008230154695275,16.063397433374714,13.261295303777151,18.44871987180065,-3.0928008301566265,6.8863674029881565,4.862293137912381
2.384,-2.2220570064754055,2.2735035580817824,13.484802225840028,10.81764888002258,14.973816613993773,-3.4319216818798237,5.809949374790219,3.512624799126012
2.388,-2.7824048298618,0.5251498412413942,11.223930984558816,9.390339726365365,12.0642600247101,-3.2514814675046084,4.441266628129425,1.7369832821302083
2.392,-1.9439478728706288,-0.6588170949605345,9.757814594218063,9.52737469886421,10.43345483581642,-2.6894421722110065,3.2433838134636392,-0.2601896759721556
2.396,0.3585639120587911,-0.8914335087406347,9.40837173040547,11.010408321908562,10.094447549351386,-1.9736152042091588,2.388030345967719,-2.4259810537082167
2.4,3.2513198926847053,-0.22331956606650216,10.158590215266143,12.889430159524284,10.352574829357085,-1.3533840484091215,1.666824524012256,-4.83114650898364
2.404,5.263311132208161,0.860565415657276,11.616184205717008,13.944774061325832,10.217469276075697,-1.027126302957512,0.6749925287974223,-7.512904227496257
2.408,5.073785782356141,1.6893478042875927,13.17062977100425,13.343298669492853,8.996217674158764,-1.0727772171804866,-0.863593470486892,-10.297620013295619
2.412,2.2751182307375535,1.7615260645753001,14.273490182157907,11.121478868751364,6.723572627377802,-1.406069326244319,-2.858783337714975,-12.748941080924496
2.416,-2.2941144422341786,0.982384497509587,14.677742998286227,8.189981168770696,4.150504945782327,-1.8005899544788204,-4.871361834556396,-14.321074071815179
2.42,-6.849599422522653,-0.3349405371404379,14.51074241741117,5.8476890285902865,2.3023779477735644,-1.9780378385087722,-6.371425919512262,-14.65715979357266
2.424,-9.458537043083105,-1.6788357229476791,14.145293910629203,5.070741008824666,1.8775489852504799,-1.7366591851384894,-7.054774813856183,-13.844614517143667
2.428,-8.931491685081722,-2.6171200274158757,13.956743338971851,5.982597295134569,2.852045488064798,-1.053572894895772,-6.9929361046032525,-12.433478010068047
2.432,-5.367947681327885,-2.9788389867639533,14.114977866942617,7.8016948531016705,4.523791315913163,-0.1011633003448782,-6.513591575272635,-11.157558045243963
2.436,-0.08149761817173418,-2.8654643419603376,14.515377769785518,9.288237969602942,5.940590476606525,0.8340949830723736,-5.902473657311421,-10.50346586647897
2.44,5.036916550172673,-2.5158429620142373,14.871725695421057,9.430749301760587,6.439986216564855,1.4853192849654109,-5.157845099707409,-10.400212082780133
2.444,8.361143811062808,-2.148217576388041,14.883106128562323,7.968430233852503,5.963602622481717,1.725533706277855,-3.9964389369223867,-10.249134468854045
2.448,9.165257180087082,-1.8882813792363387,14.362253115855857,5.462024477723231,4.963539615636798,1.5996327655565916,-2.133856985346105,-9.318630684113577
2.452,7.784129648411824,-1.7872641756506213,13.264439882982597,2.910976476979859,4.009813866557715,1.2611271581602828,0.3551608345611621,-7.2686674511611455
2.456,5.275537096139886,-1.88324379697539,11.632903684566248,1.1660123309779546,3.378552650763492,0.8730334313206131,2.886642657439297,-4.466049283969155
2.46,2.850433973224893,-2.2020510212249995,9.561944272073529,0.5179427375758354,2.9295737864390112,0.5477572849143008,4.597971977096439,-1.848607439679958
2.464,1.3760973771597076,-2.6820154522982773,7.22791961055527,0.6801660430698777,2.339161323806382,0.36209816355222557,4.862717469427339,-0.38659459709811195
2.468,1.14445077297398,-3.1076875466695664,4.944511488560019,1.1103238767941863,1.4778160692091233,0.40614380655214344,3.7523741269666164,-0.4883327673310882
2.472,1.921897376759003,-3.148426810742607,3.158626815635495,1.4169419316338532,0.6291185711243266,0.7905975675118495,2.101033253389174,-1.7493226785340426
2.476,3.138625120129183,-2.5658124562691476,2.287700790394331,1.5373556026176765,0.31409025134054214,1.5553674228571266,1.0239410359288703,-3.272403979216815
2.48,4.071152122167991,-1.4955466519713925,2.4308060505460203,1.5705604186631863,0.7961350038970425,2.5049853621949234,1.111383669031885,-4.405301592378686
2.484,3.9572405122634295,-0.6159386853616845,3.1141490300916788,1.4157981311402263,1.6028839207578827,3.0962264406885076,1.7953013346543685,-5.408656169357814
2.488,2.099687559665913,-1.021706408309469,3.2898592040509813,0.5389745471541625,1.466221695889645,2.5225775308932343,1.3638173852471294,-7.553729430516091
2.492,-1.9441991554672329,-3.7617564851563334,1.7031858137494271,-1.8740670985759182,-1.14453428407118,0.046145588341689026,-2.246827318037565,-12.463097373699938
2.496,-8.089864127524375,-9.230162382982106,-2.479870403374436,-6.380431697133432,-7.112962168555267,-4.535056519516722,-10.217117554652713,-20.979197426630925
2.5,-15.492682329486254,-16.717209190818824,-9.060714626324941,-12.65657585539263,-15.87966805832689,-10.527665654018033,-21.82909637520064,-32.215842134966586
2.504,-22.561646539740515,-24.429948352212694,-16.590853638389074,-19.232759385844858,-25.29385564834999,-16.357116974773476,-34.311269922591336,-43.43757768603246
2.508,-27.35866657821041,-30.07456935061998,-22.77118285981465,-23.871751274629162,-32.324509937228804,-20.055556495098127,-43.761756088836044,-50.998712334051625
2.512,-28.29104168069621,-31.76071293411775,-25.341653621052274,-24.49515540823459,-34.32898771120848,-20.059288629193258,-46.76716240618367,-51.9458138034387
2.516,-24.813041118809693,-28.82233549573342,-23.07641294100158,-20.21702846384894,-30.25976355869424,-15.945904065684147,-41.930719803144136,-45.46541020174384
2.52,-17.79016083351634,-22.148408271476857,-16.382989481303028,-11.915715668328053,-21.164928018170922,-8.722413605597517,-30.527499825097475,-33.38506338725559
2.524,-9.275722122575838,-13.838634918380974,-7.187490610601544,-1.985223152102468,-9.711857136665582,-0.4763956031934993,-15.947956972204683,-19.416494214632827
2.528,-1.7336636653114699,-6.338733720110824,1.862234320133143,6.672739385530663,1.0152047507022903,6.483314085240217,-2.2117111107544387,-7.5110940850823305
2.532,2.9635880304619815,-1.4549890213014398,8.50889171224037,11.935074907487614,8.819216547800792,10.587339935575624,7.691954282895143,-0.1709897120774455
2.536,4.265701436871745,0.2717395060305001,11.746519481493591,13.34182904817962,13.115811764361045,11.588596246315685,12.81451353777356,2.416010583298166
2.54,3.053045853137303,-0.41852649602146985,12.03614239774679,12.135755267591016,14.778563342560378,10.488996338814669,14.180677999515016,2.023438520345394
2.544,1.0685927012561223,-2.0614808756788894,10.813032401379834,10.451328730642238,15.284018653708248,8.874732465100974,13.794062472500803,1.0918946660553868
2.548,-0.022429155796016786,-3.2750303425140137,9.59691680523412,10.121083374298122,15.713478581076913,8.04017134771108,13.355673464942077,1.2750401342557374
2.552,0.5477937981765546,-3.3849816401030024,9.213683445545731,11.753880865368536,16.207956954830248,8.372123156309392,13.420899323251568,2.640413839394607
2.556,2.35774505297044,-2.6054646983100698,9.505937580033864,14.546122180082254,16.115539036936422,9.302596452163474,13.38169994289173,3.8984729820369104
2.56,4.170073841306687,-1.7355643077620266,9.639209754742739,16.88244408798292,14.661025628366483,9.811633603607422,12.173965911381313,3.4302487169195013
2.564,4.712024347637325,-1.6044982217382113,8.756222975609809,17.317951069405016,11.64590671416979,9.136851712978071,9.198217056334848,0.4392033741469681
2.568,3.413556956008293,-2.58398020706647,6.572886185404965,15.364633495512093,7.716993247498663,7.2654392706371524,4.874470239854454,-4.465992572485409
2.572,0.7153886878639055,-4.399676327977409,3.5817475670495753,11.671025659365684,4.051653506553287,4.942476040880951,0.5181432471640055,-9.564295835234624
2.576,-2.222877479102878,-6.326449417566097,0.7606870597747404,7.535302149065561,1.6697440536929409,3.215093587113202,-2.3562014948493566,-12.969237523348907
2.58,-4.2007034583105565,-7.6032036997068655,-0.9921534938462679,4.112547467290708,0.8438267489465554,2.8151891344226128,-2.846874808074026,-13.623628345356504
2.584,-4.620944687595669,-7.821356005739226,-1.354966292924248,1.8195679644507552,0.9803714606693581,3.7659322492536242,-1.1185579217316284,-11.765092157992173
2.588,-3.747780562746551,-7.1013186659857706,-0.7367462633642203,0.2628031386301073,1.031248201593138,5.429503300153336,1.7365247987237815,-8.645658891648806
2.592,-2.434107302048771,-5.973255149866813,-0.010888240324146814,-1.3068234839287678,0.1818669702297484,6.942798746846288,4.31303050378746,-5.733095595759918
2.596,-1.533689985103587,-5.077222920125833,-0.016147722451065327,-3.358338269080096,-1.63296928725752,7.743929867205495,5.59754942032521,-3.9152816491701676
2.6,-1.363850536686313,-4.836582070221353,-1.1004479999297443,-5.680578347720671,-3.6905113709959294,7.858231610276058,5.3821823232245825,-3.16776648249489
2.604,-1.547338957766343,-5.270746783368246,-2.960905795410266,-7.475742054089914,-4.929521811032204,7.777178130533144,4.203117491516729,-2.8168424804483108
2.608,-1.3219608304934405,-6.027747478121547,-4.8373657407142865,-7.878009372934008,-4.596523663320341,8.026255242915813,2.91566305244549,-2.165134820122762
2.612,-0.10945422553706363,-6.582166380148386,-5.928140408086811,-6.555980819387939,-2.6897290332653148,8.71225588245576,2.188259075897938,-1.0497649573832704
2.616,2.0193134746470816,-6.500368330366268,-5.805103862427525,-4.019814670879068,0.04076636704511216,9.360962252444063,2.1899937655254487,0.020289997854438413
2.62,4.292150905480627,-5.632898163616804,-4.60389036392416,-1.4229635892210435,2.5322253340101115,9.162832362290157,2.615330025595946,0.20921239980028838
2.624,5.641503412399366,-4.155813966404779,-2.9201037855928176,0.02983350548913366,3.9996140498094337,7.486738404256929,2.958641281969836,-1.0659721239487485
2.628,5.325099576839713,-2.4667153837965916,-1.494819597383291,-0.27908082473868223,4.318742122842325,4.3428445186383176,2.828302180400369,-3.7047678698092024
2.632,3.3960778698402834,-0.98577069876076,-0.8497092140960323,-2.0534572124515993,4.011373652127822,0.5054074864173831,2.128099694059487,-6.901432054289
2.636,0.7332804970719735,0.029053052010954428,-1.0669566153708834,-4.258924302577482,3.8560255737915,-2.802901477022478,1.0363368010317164,-9.541009082167164
2.64,-1.3987242267104452,0.5771451518558512,-1.7990598643972469,-5.682662704617983,4.387177216621236,-4.505256374888089,-0.15497654230173752,-10.774272214523208
2.644,-2.010150741705933,0.8836046939001045,-2.4806393939881213,-5.554273170756947,5.5790128555570915,-4.20891982232009,-1.2124492925509902,-10.435161390727284
2.648,-0.8874214216809602,1.259145346316357,-2.6250924548337555,-3.8944920043089777,6.8781339004378985,-2.3807971391616083,-2.044930055931891,-9.076018337039573
2.652,1.343409852547309,1.9337490356400187,-2.0549883275503342,-1.421065579428694,7.547176242027225,-0.059805944541357015,-2.684263761931934,-7.622981782701875
2.656,3.5977836718294194,2.9311029975017706,-0.9685176213947604,0.8909356918734948,7.0934948459413105,1.7249404045479726,-3.2104607168291217,-6.8581582843836335
2.66,4.929284584408661,4.053933520411632,0.18371799525102306,2.3248176781778103,5.546699700963423,2.4932433015934903,-3.6947603655368555,-7.022977726757183
2.664,4.998575189495863,4.987779582863371,0.9386142189144024,2.725791199782655,3.4480861389673407,2.5079577872435297,-4.185420233236353,-7.734471211310238
2.668,4.166251109838763,5.465956519849026,1.0586721885358115,2.458183106474274,1.584182864796305,2.523208989650109,-4.713836712762266,-8.232255015072797
2.672,3.2019930416930302,5.421013048562426,0.6555937347334364,2.0969117472587273,0.6318111579005192,3.2448455504525873,-5.2941986463928705,-7.803188959385103
2.676,2.811413543694925,5.029361566127548,0.12930209410964233,2.058757465647966,0.8860032842654704,4.831383035934834,-5.901266672871258,-6.1566848549005275
2.68,3.2704898253142862,4.6261731257061545,-0.03523547281980788,2.3984085002230615,2.1891672639404467,6.722395592477675,-6.447833557288812,-3.5801449922518773
2.684,4.338854108009105,4.519532588606378,0.47314166189527174,2.8529202844871877,4.049117895274216,7.8999779328305815,-6.802608512498325,-0.8221470705162581
2.688,5.448005278005477,4.788633798395084,1.5921322746420365,3.0552712374132285,5.846246498255461,7.4385036522969665,-6.864764998728707,1.219319735197864
2.692,6.018503129448607,5.195447835563007,2.8658006743347473,2.7666481760006967,7.034869434791615,5.032111717176547,-6.6551826525528135,1.8548264726535606
2.696,5.707466117488195,5.260007316082095,3.6121886257092384,1.9831842507334727,7.262961981478682,1.2151183003004868,-6.362292686576769,0.8623717345248805
2.7,4.491540251097801,4.496473572057372,3.222306463701601,0.8857265906641447,6.4221418129457915,-2.842834080878423,-6.286150446254712,-1.4415926925370814
2.704,2.6100920388749898,2.7024819797968447,1.4576368430544537,-0.2976447509997957,4.652551683216986,-5.852589463047029,-6.684139906351943,-4.322591977380267
2.708,0.43713525651833907,0.13597351875973107,-1.4011522958006273,-1.4180631603030833,2.313619749853652,-6.96677702383492,-7.593584185768278,-6.885096922656974
2.712,-1.618832014646015,-2.522547831722604,-4.624239935867245,-2.438637811744339,-0.0782253875406842,-6.113368981784033,-8.749575369120707,-8.377998978699345
2.716,-3.1930831460664875,-4.451957132025848,-7.317350510882134,-3.3960081426405777,-1.9742386743708202,-3.968557092785191,-9.676083669812975,-8.445093907057728
2.72,-4.03280733435691,-5.077848010951689,-8.792400609330933,-4.3345099570731405,-2.9544392869093086,-1.6152886169635938,-9.915471495964452,-7.229888272417815
2.724,-4.079470714564868,-4.378369002182467,-8.864549084508994,-5.272001566483224,-2.8827548651880264,-0.07309194298011534,-9.289507732345239,-5.2983192955180565
2.728,-3.528877204274254,-2.9223375148692563,-7.928621663074187,-6.202097818357728,-1.9770915804926301,0.08621640045638146,-8.036321352587152,-3.4007560090427478
2.732,-2.785805650824354,-1.5823295617506998,-6.763371646249835,-7.092029713404067,-0.7285090085340462,-1.1081858739720882,-6.726087241044538,-2.1652395155203132
2.736,-2.2911490786044437,-1.0768037740604002,-6.167914867992937,-7.849219185049421,0.29827073951505145,-3.1165077280601574,-5.983454892494583,-1.8457715093581903
2.74,-2.280458508198219,-1.5720709474497334,-6.590417062831499,-8.262806860746391,0.7049368755140399,-5.139345538162991,-6.156411767360524,-2.237754504542706
2.744,-2.6178249838708254,-2.574767230790827,-7.935198729857284,-7.980296966691699,0.4226378748396318,-6.406814806848716,-7.113114810026643,-2.795072830206877
2.748,-2.854793082382372,-3.20398063516597,-9.647298899954478,-6.5963427112426665,-0.2940451156305226,-6.413928791245294,-8.292851574610221,-2.899827651072272
2.7520000000000002,-2.5087918205896784,-2.6908843509267113,-11.013112470828723,-3.843838917976271,-1.0195896967931688,-5.047505346425998,-8.982737188524329,-2.14906435082208
2.7560000000000002,-1.4321264473377973,-0.8494527965999463,-11.532186783325274,0.1780898758624243,-1.3913496337513536,-2.5985135052022734,-8.68407386508154,-0.5284648408474517
2.7600000000000002,-0.012985693910334106,1.7712770017431465,-11.14998320930343,4.890429603238704,-1.279962060789586,0.33340344446609116,-7.362959786060795,1.604675710153293
2.7640000000000002,0.9608320698332613,4.147159646434228,-10.24648922767822,9.337887527361259,-0.8197278741700247,3.0162930161293087,-5.465300487718965,3.700103471968136
2.7680000000000002,0.7452236329873889,5.319809749130467,-9.398433427051657,12.506523718082162,-0.2960918339894185,4.802290367553212,-3.6942703349588655,5.250258992590669
2.7720000000000002,-0.8450753035253356,4.927764439605028,-9.045872905861247,13.728229626169712,0.04312774134249331,5.330990367519268,-2.6677120837215886,5.971300882006836
2.7760000000000002,-3.2011439740321372,3.3962740230525625,-9.26810912089083,12.953888780053092,0.11736049095899226,4.6505630705012315,-2.637366701738346,5.853881319662616
2.7800000000000002,-5.161393090043514,1.6756964836768518,-9.787988456672355,10.741352267274118,0.02267973834430137,3.1983800525314185,-3.4083732809280223,5.083999687725339
2.7840000000000003,-5.6254439455914795,0.684175507961859,-10.188737658806012,7.964819637729511,-0.06468798178683777,1.6427281643153258,-4.471554871472732,3.9203648942883804
2.7880000000000003,-4.209980769614454,0.7751717083709941,-10.200062659409692,5.390613272741625,-0.026924659370317627,0.6324093132204052,-5.256100175271669,2.598341562214717
2.7920000000000003,-1.5262080434323764,1.570923409285517,-9.857699794610351,3.3587995923503424,0.12522905886918423,0.5635221708038705,-5.357843794374764,1.3042378439287141
2.7960000000000003,1.1159435379543758,2.24929518997281,-9.450079078206453,1.7354067691225494,0.27591484134079636,1.4569620001486205,-4.645104230641095,0.19544623520533744
2.8000000000000003,2.42064777190388,2.1100205241493386,-9.281636146565683,0.13769656789893658,0.30175731482124046,2.981261581274808,-3.234367187875759,-0.5951599309079274
2.8040000000000003,1.8188279650355827,1.055420400130088,-9.420089558185659,-1.732539983049632,0.1690387431775866,4.602498365165851,-1.3930233431972576,-0.9991884859636251
2.8080000000000003,-0.25001285518053784,-0.32696667267391843,-9.59790351893031,-3.8587675489830984,-0.03824107422826639,5.790462807389094,0.5547442289881239,-1.0848936356658179
2.8120000000000003,-2.6580676093401694,-1.134551758634522,-9.338493138839393,-5.916910337942969,-0.16159342836007884,6.195764784836884,2.2903956153497136,-1.0875576206161104
2.816,-4.305805622703431,-0.7589443802845968,-8.248434720427495,-7.499732833811315,-0.05476338785418111,5.742996739418738,3.543624784713834,-1.3325357822753165
2.82,-4.762471282884721,0.6693161865645005,-6.282549636012087,-8.382289105328073,0.3589101751112156,4.625512405252789,4.155126786482445,-2.0623442160823915
2.824,-4.423005655750716,2.298350312659334,-3.8182789488267046,-8.651086857469448,1.0814102250452422,3.2219246431153064,4.151674220435104,-3.256124963121488
2.828,-4.108700449559206,3.0425147875686194,-1.4914352765919703,-8.611809496061797,2.060913302127849,1.9665156881865915,3.793526277927787,-4.565647145334694
2.832,-4.385378126636248,2.2654309706670004,0.12057805252589993,-8.534429899668272,3.215853563542753,1.2113977857471532,3.528214157536554,-5.4402953392144475
2.836,-5.076820888625535,0.22867385220485392,0.7701632782166358,-8.418286814132244,4.425588947267111,1.1196214728451976,3.8185332928146254,-5.401811640787963
2.84,-5.336573193603127,-1.984743417911418,0.6184720684612754,-7.945165407887204,5.510873749983486,1.6168590221277837,4.902806709679642,-4.334885738867844
2.844,-4.233382559145529,-3.040553464202071,0.09495427382444008,-6.6566612693234255,6.256660892555928,2.4317176875786153,6.621978927972065,-2.608091280258339
2.848,-1.474350287606189,-2.0986629832619776,-0.3596257039989068,-4.253557421011395,6.50668057075516,3.217640385844923,8.441956694601265,-0.926950508850374
2.852,2.234308580262149,0.7121611117187949,-0.49047702080610006,-0.8312951778005551,6.301581412094816,3.703922731115135,9.701979424489078,0.020141565660759753
2.856,5.464828800931305,4.361119131559311,-0.26986031429697044,3.0841142889724855,5.9555213247339305,3.80953588030827,9.981200329701753,-0.06163920842076864
2.86,6.844128825967529,7.478137853868157,0.21383320646366144,6.722821279767892,5.982636255520242,3.653329738586408,9.368687810723298,-0.8979997042714025
2.864,5.858870269490843,9.07099950305987,0.9011683594316624,9.370036045383227,6.850305754820328,3.451557044717487,8.456960672688792,-1.7880999064468064
2.868,3.168692231716146,8.965348739627537,1.8040971209740442,10.606768502418536,8.655259282221671,3.35118185059498,8.024644960375133,-2.0062228758339176
2.872,0.2205472766272618,7.753830246912446,2.919007031193552,10.387478902102036,10.924642375975221,3.3038561766747323,8.568123264220173,-1.2326448000268426
2.876,-1.6153561737357227,6.313688383253463,4.077495953916108,8.953868374748247,12.692201656480453,3.0767085616242977,9.954684411864886,0.24790078345824895
2.88,-1.842389830237639,5.245871801868519,4.89325715857008,6.69214094742501,12.89096052600048,2.4158631740821233,11.438620651286339,1.7147960147885115
2.884,-1.0600778678315055,4.597959670842903,4.888455158828134,4.042971324697579,10.895881985673455,1.2685086386910962,12.073406268281678,2.4671901581692035
2.888,-0.49636454482161374,3.999131128770575,3.751193550570748,1.4839362781472925,6.921524470049749,-0.08112494008882853,11.292714097657171,2.296038153485478
2.892,-1.1561686448363833,3.0749830122333286,1.5761751155425285,-0.4746229460208051,2.0413231475736326,-1.076255375893751,9.319470900602244,1.6831454282590226
2.896,-3.1333602180163407,1.8089406820690717,-1.1050356406172905,-1.3702907540443623,-2.2438340028098187,-1.1620410313563414,7.119980018821892,1.5769331678847252
2.9,-5.524825641146322,0.5982079823579096,-3.5440719151970628,-0.9510843828213575,-4.672011859031123,-0.12483186037789795,5.905528418643744,2.855634086055902
2.904,-6.989578759991778,-0.027871404215726425,-5.128999612922985,0.6570748844599388,-4.774572494282271,1.71148537891461,6.450320579098937,5.786759714325302
2.908,-6.569960388008364,0.18999817001552444,-5.6632536989471305,2.915301372785229,-3.019317244286178,3.573066297307914,8.615270272285953,9.794425779467186
2.912,-4.253393983113588,1.0328238161360677,-5.386047329916526,5.051902823137783,-0.45631225582045243,4.5998199343646,11.382575270291948,13.688890797323978
2.916,-0.9437957763546886,1.938667902154906,-4.730433652379309,6.398243353753093,1.910245792766513,4.301047820466636,13.405736681525719,16.245682754841233
2.92,2.121406368275477,2.410206485713072,-3.9735805172531804,6.718135482635239,3.66648790637989,2.8409559862707017,13.75912553890986,16.80845562183224
2.924,4.098235866818952,2.394699035571767,-3.0348315651734987,6.312138018437553,5.124369180269344,0.9711458096262575,12.439166685497401,15.573319287656966
2.928,4.914992946970691,2.3310075615817825,-1.5819842854950217,5.793376553778173,6.966580182455475,-0.3794629156481495,10.31263701121527,13.392515750850215
2.932,5.109274355347607,2.823348889534122,0.623937512080174,5.667535115733873,9.656131507285517,-0.6227318278617302,8.554923458431528,11.241763202606457
2.936,5.276102587042664,4.13871144271491,3.3725641742618624,5.965928610820133,12.981044128713172,0.1576530334334354,7.92019947488822,9.676035220690773
2.94,5.556115182713785,5.901684138744141,5.923988731844384,6.195000507163197,16.04863518535704,1.2618315411572416,8.305214884138438,8.596979538936917
2.944,5.547734521977404,7.2418151381038,7.305770399502385,5.671597272719007,17.748220186812524,1.799545789482245,8.871627876217664,7.463238996963899
2.948,4.705749083708604,7.34090749818644,6.844653038402974,4.062314659335599,17.410793276288288,1.2394411720722065,8.643089283466676,5.787673373340404
2.952,2.928059961597094,6.053587066841783,4.619551646663777,1.7799895104522103,15.26800887393129,-0.25308142024309,7.183885981560563,3.5762589170392847
2.956,0.8766998493552038,4.157425013370805,1.5191022740975146,-0.06568676335841195,12.400339090339763,-1.894190117709977,4.9091144063646075,1.415811060809924
2.96,-0.2521097625711475,3.0157567723455374,-1.1610810461536616,-0.1996821785220373,10.191351140171738,-2.7372944012641423,2.827421024979354,0.15120894638531723
2.964,0.5852972547685589,3.801739925033654,-2.3736839482752576,2.069506970307464,9.593260325367677,-2.2359618070971425,1.8906932780225358,0.35970116510831573
2.968,3.5524627540428035,6.726590604346223,-1.854436536240612,6.316267814549626,10.621828818157603,-0.5841556619962835,2.365603423903301,1.9629883502229024
2.972,7.659520509372901,10.773292420947742,-0.21043771663708188,11.04083653441386,12.38094518103496,1.3765660742713974,3.647544037175852,4.2289525349252095
2.976,11.178790461970522,14.137145460718617,1.4804373178900931,14.323175633965299,13.582936980560916,2.6317186038554228,4.649047189760106,6.172200253213383
2.98,12.536585157815106,15.165957824328606,2.3178292017225384,14.76690192933179,13.266751482894918,2.566182553569128,4.517377562207748,7.10088975839947
2.984,11.166626814682683,13.270792770093161,2.0810468348423963,12.226981883244672,11.304692683769478,1.3045074284531477,3.2220905302938494,6.97515539448028
2.988,7.8255106323465,9.276833491092539,1.283216167077721,7.911966448698594,8.424767549841546,-0.3745697146813165,1.6257773580332522,6.357363794578899
2.992,4.1820826515335945,5.014911943439002,0.7765486458007537,3.792910745875353,5.778235864513709,-1.491412573734273,0.9832774188410927,6.001149457803198
2.996,1.924152635660519,2.36968906608309,1.1634233136268888,1.631072216942678,4.316313724356745,-1.4093699243629618,2.177452195874532,6.352647159918694
3.0,1.8981413085706365,2.3240119190149664,2.3943374140553315,2.141436391000134,4.341412800339894,-0.16178092200650152,5.16268080893279,7.274683386157646
