Timestamp,O1,Oz,O2,PO3,PO4,TP7,TP8,Fz
0.0,1.9326762412674725e-12,-9.663381206337363e-13,1.4779288903810084e-12,3.126388037344441e-12,-1.3073986337985843e-12,-6.821210263296962e-13,3.410605131648481e-13,-1.1368683772161603e-13
0.004,12.713013992575895,22.24677833123951,10.5546927514132,7.909441733700135,17.672387664259247,14.555528039269802,5.581010968367536,11.205126929513199
0.008,22.74178352435763,39.203061006400276,19.413418257318142,14.470971104405294,31.75811296909518,25.908300782197784,10.164788496811866,19.776051488782173
0.012,28.36557074390521,47.74957624637841,25.40083921266779,18.67461223112474,40.05945605108644,32.01156336163308,13.016075953921245,23.964594652747564
0.016,29.36742887715394,48.06531007588438,28.20995013647115,20.100955601442365,42.527818842188935,32.62937662354284,13.875010538914239,23.45515177302775
0.02,26.90051388090535,43.183825063422205,28.45430835483836,18.996864600701542,41.05574077279857,29.21285754046471,13.06109902989192,19.361752816569037
0.024,22.843138828659505,37.32082799127056,27.424713857309143,16.18226082674056,38.46766725970792,24.122264386177335,11.405579868095344,13.712551175285284
0.028,18.991197868058123,33.8814747220419,26.636759602722066,12.814975690109975,37.22817918420702,19.60929590622277,9.997151104327827,8.659404573853976
0.032,16.448748187189608,34.14586286201245,27.308832772310836,10.051211113523891,38.470151327616065,17.030156512001895,9.77569409147452,5.7296984845760335
0.036000000000000004,15.44388801218804,37.17470111220746,29.920381211451115,8.686088669844764,41.72927178276143,16.575197568332896,11.096428235399173,5.374702839954125
0.04,15.502473804361955,40.723197300134814,33.95851350567574,8.857080646392092,45.35146233347504,17.49052883349418,13.422876097384119,6.909111631958467
0.044,15.775337966944846,42.49967643725029,37.94763489410201,9.921811149882956,47.26651218286932,18.559359173013604,15.318170967278832,8.798086603795696
0.048,15.333946227650586,41.080342592295324,39.82252500900438,10.605493064574773,45.755209304032064,18.583181465218217,14.824620777323162,9.170848398221096
0.052000000000000005,13.41355222866946,36.20905891558189,37.65138684529677,9.465316282144215,40.00479597519933,16.727684242404052,10.20020298319207,6.4651276047288775
0.056,9.648422612609238,28.62291007681489,30.536883697984706,5.565679438660709,30.400264678599427,12.743217972546404,0.7952684349725132,0.06732467440576784
0.06,4.292367825476219,19.699372373243676,19.316142842259836,-0.9193661479388879,18.520411702815352,7.081389281685574,-12.339470458081678,-9.273653482482587
0.064,-1.6828258894594228,11.153660096157012,6.657152249445829,-8.503005427074072,6.825530657927402,0.8911389450104252,-26.453350143752914,-19.460854382508046
0.068,-6.756919119639633,4.785013113185187,-3.673470367506951,-14.780862668189513,-1.9702964633648037,-4.181417146090212,-37.82842191422253,-27.596035076122746
0.07200000000000001,-9.336026376573898,2.157726792459016,-8.200714122129114,-17.33417939743623,-5.727904091989188,-6.433478539578232,-43.044479514178875,-30.92810805865753
0.076,-8.387754732560154,4.157428271284147,-5.22916644107238,-14.764041729453595,-3.6574648830737146,-4.701183388519382,-40.28174221265846,-27.870204457948034
0.08,-3.9683553553260253,10.536984660710715,4.280385703114035,-7.370233005013461,3.2826990269853127,1.0895482423928797,-30.095264667382423,-18.66889224895891
0.084,2.674193563349718,19.743951839585122,16.94025941394918,2.8954753645897995,12.628517706449344,9.70816971984874,-15.286348018332603,-5.400092585222751
0.088,9.538516398107191,29.276731400560323,28.292855910165002,13.220136605404093,21.316547766954756,18.944828627864865,0.11772697092584394,8.76561584559596
0.092,14.656477147248324,36.562043430121236,34.7215960736971,21.08766884837513,26.93067009395793,26.411717485847362,12.367385717956154,20.739179448203856
0.096,16.865890567888414,40.009035017294934,35.00162749290763,25.24495913846812,28.71999446990202,30.488890189209826,19.32558408518645,28.612191133612384
0.1,16.149942177327205,39.64824608413667,30.694331615504467,25.989672110200104,27.832349338329692,30.939472060235175,21.02203709848135,32.15605115510061
0.10400000000000001,13.393120853690021,36.97996276243043,25.185691580523553,24.681323224716834,26.60457337482731,28.866253062545354,19.240724784506483,32.52062694079649
0.108,9.760897968602961,34.0871653563066,21.87194531618988,22.811521170969513,27.252355070398153,26.028586497415915,16.41068983969444,31.348718345136433
0.112,6.114570393696511,32.53261455085854,22.467154083343758,21.19770414964495,30.67881587077696,23.89652737275071,14.391603845772636,29.84033001758877
0.116,2.8134319325874912,32.690585084552055,26.336627788259477,19.758034201441774,36.077426893559505,22.97053824155529,13.774889509296713,28.29258358364723
0.12,-0.042530584415459316,33.84369081180327,31.135198500278193,17.929509275988636,41.505839332446925,22.708653055233754,13.970148492951978,26.28746025908447
0.124,-2.2004018608875526,34.90031748332771,34.30167084495764,15.3860160470241,45.05666196167246,22.050962757593823,13.90922726462378,23.31755431193244
0.128,-3.079496012355719,35.203221423342626,34.50793676569651,12.522662430355865,45.90604180701774,20.185098316457072,12.87959062705039,19.389319487375133
0.132,-2.030271374160293,34.9066090047817,32.242282569366864,10.363768856144247,44.640165828862536,17.09022546124578,10.974247189298524,15.198312632859654
0.136,1.1243222567888154,34.71946287640736,29.258665851684782,9.945058911702631,42.71706734315876,13.56339630484581,8.949258468646633,11.784650117059243
0.14,5.646012944422921,35.22334744131945,27.312711586913935,11.580592482416876,41.42768312117681,10.73972092935503,7.640738706267371,9.90294663688087
0.14400000000000002,9.931382630063808,36.278311712786746,27.010664241450115,14.517217046653968,41.03154590023763,9.421814765470344,7.349302488914816,9.52945701103755
0.148,12.141639020458513,36.95830355198888,27.47458846756166,17.2375627483803,40.60674520959418,9.628155734712095,7.598916522491663,9.84065774501903
0.152,11.128880095834973,36.11588097005091,27.017124598163917,18.27308468246588,38.719421299346095,10.635654975490468,7.438108240496149,9.711296490419159
0.156,7.161587950990167,33.24550671447588,24.373590818656254,17.057892774117533,34.49007962590338,11.476760198265765,6.089340616383879,8.433297958494336
0.16,1.9479277675301887,29.023219032928296,19.661984893115687,14.280542489262075,28.338422628611568,11.545539494634,3.5163675794802884,6.197617311884528
0.164,-2.135177732938189,25.1042923599112,14.433026483024832,11.493716505708619,21.897277717674,10.929828048332297,0.5363823108257293,4.013397538448203
0.168,-3.2331671350232796,23.23364803754953,10.75706939551685,10.195516582702794,17.119555518675753,10.29027549680643,-1.621679529151038,3.109261272161575
0.17200000000000001,-0.9602824574103579,24.21418250004018,9.923581544139381,10.947314164160616,15.147186570043914,10.39612243172894,-2.0460229105281087,4.194857932547052
0.176,3.438329699004896,27.394261818751204,11.581142175361776,13.069181301686797,15.661459536635789,11.635984565949911,-0.7030139857506583,7.039688894075425
0.18,7.780025741899522,30.984918156405627,13.86745601540747,15.083224840143714,17.108180918597668,13.793778527169707,1.5182732967508628,10.603744596313504
0.184,10.096394542857013,33.03109607075038,14.466002764209918,15.629496152891534,17.668834405781013,16.191198268043877,3.298842977272102,13.617245768090129
0.188,9.608574679942137,32.47184776385262,11.967881583080441,14.2927294073869,16.391707666089133,18.070857880808717,3.636483272866485,15.233764360793202
0.192,7.037755193682926,29.70110055045683,6.747810339044122,11.855224984529627,13.8222960819528,18.982459327438164,2.4142477372679423,15.390674997370638
0.196,4.124166556110936,26.326121160686057,0.842123873632886,9.833319563266059,11.756303745927482,18.953275269558503,0.46061124771858886,14.701491342365443
0.2,2.6454633255686986,24.248384111089536,-3.1198012384168123,9.560068311556847,12.220687305952083,18.35166223185047,-0.9461503438453747,13.955198613269772
0.20400000000000001,3.4988529290625365,24.602826038789942,-3.310016582180026,11.36925372529572,16.273904461941413,17.57371036984705,-0.8287889979724241,13.572567517916013
0.20800000000000002,6.3055041001887275,27.13920824247066,0.3487208581972254,14.345136972102523,23.302704740668673,16.769531165921876,0.9115189556781615,13.358353315980139
0.212,9.709477828584113,30.400550824839684,6.213521980020005,16.784297530183153,31.231627756592104,15.783881381591414,3.432918940005493,12.6996705193867
0.216,12.168500310763648,32.57516503223036,11.873923529596823,17.113116306997995,37.5330047503528,14.341529596907662,5.443157610767116,11.077900114507656
0.22,12.754775509634612,32.47873057780657,15.425201419359269,14.730504336696299,40.43935124089853,12.332354234328932,5.941407899708793,8.51959729953387
0.224,11.545557226492406,30.11523697715944,16.33513308488392,10.318634766321907,39.687779131408945,9.981823580414357,4.764358447283826,5.670476777107297
0.228,9.467361601398238,26.550869184939984,15.458892453661917,5.4910999604582,36.43589838055084,7.799016348977943,2.635144643760782,3.4461302886832073
0.232,7.749775272002353,23.244485726911194,14.285231008082519,2.000989715408082,32.4722280811975,6.345846570112826,0.7078729583506629,2.483620470577989
0.23600000000000002,7.282778215827648,21.234221973283468,13.917494346794342,0.9183288304404869,29.197519116321587,5.944433259910511,-0.13223289492168533,2.717913603623174
0.24,8.211868303061578,20.64332896331365,14.41324360518206,2.187707410343478,26.962190781578386,6.500924576487932,0.20775650484040398,3.370606813670065
0.244,9.95134069983601,20.764163630320468,14.859680477812617,4.748916350559853,25.111778260996743,7.56143523286255,1.0000139954373708,3.398116249268469
0.248,11.534555015070737,20.579591630656864,14.055456988863966,7.091894517319474,22.60923787817984,8.541194623574938,1.1538357046747478,2.127592202871938
0.252,12.083704247130527,19.36945522149699,11.337841812195848,7.93605390456753,18.80032939644218,8.99645346909415,-0.11635235012636258,-0.2967748919745645
0.256,11.180190125686181,17.068540787045663,7.044768469313567,6.726280646372402,13.860571444912921,8.810271143945556,-2.7975385272538915,-2.9191350664507354
0.26,9.009088063512877,14.235958942834714,2.368694352982402,3.7762488337226614,8.704007469253838,8.216818684633154,-6.04297439941115,-4.427873048686479
0.264,6.256825514493926,11.724744601627549,-1.272035423823013,0.061881745847358616,4.4709128076741536,7.6730860286845655,-8.6071357995487,-3.8153472610053996
0.268,3.823441659636842,10.244347752427416,-2.9653548661548257,-3.208227432469698,1.923183082625883,7.643484808852918,-9.50614752056731,-0.8950620824309681
0.272,2.4603744567774584,10.030644264598209,-2.726369504189506,-5.070300576465456,1.095047880781408,8.378485216372837,-8.543473339704633,3.568804430308319
0.276,2.4780461269825764,10.7722896146106,-1.3952629499202658,-5.152040274425417,1.3785279769454064,9.780956948790845,-6.412420211843028,8.165589192540892
0.28,3.6361853341445567,11.804948062769654,-0.1014342673347528,-3.767801601573183,1.9736543869460093,11.426841435650203,-4.316732783828684,11.432275529504523
0.28400000000000003,5.271635290853965,12.452222850356748,0.3679167002059103,-1.742461459724609,2.4062553858777846,12.730765642667393,-3.3317517701952966,12.432534606744184
0.28800000000000003,6.588209277749456,12.307283354186438,-0.08287583811011245,-0.054352995487306544,2.7726992328778124,13.180610353246266,-3.8776098780872417,11.035338146219374
0.292,6.978031565636684,11.336928505435708,-0.9394530865564548,0.5624709279486524,3.584863279204228,12.530955282332343,-5.584533151501773,7.805036681793581
0.296,6.267158875042924,9.823165924990008,-1.4775274851817812,-0.08810668820365208,5.350341897036969,10.890652910361041,-7.588913615469437,3.6336685543337808
0.3,4.773550725977316,8.219175993232398,-1.2027596819325481,-1.6035668283857376,8.17753315460834,8.685303600554107,-9.059471078746128,-0.649470065829064
0.304,3.1454261944344353,7.001046371961479,-0.0625116637127121,-3.194908807133743,11.65247170557791,6.504203453206173,-9.637017047889458,-4.501230331408124
0.308,2.0546445801460322,6.533230096206012,1.6333098975597977,-4.08353671529926,15.017454154670304,4.885443683864423,-9.556146770834857,-7.671389561400929
0.312,1.8714014957562313,6.935298487307705,3.446801044785616,-3.9044660049560207,17.492758706107793,4.110023611229053,-9.432621693428928,-10.087991130265664
0.316,2.5103428622107913,8.01726379009267,5.037172366608047,-2.890813815899037,18.560970003799184,4.114138956863826,-9.865619374954349,-11.729585495525498
0.32,3.5480184634079706,9.34217903248134,6.250038864221779,-1.7249302754892142,18.08572577098255,4.5731047511260385,-11.079963408127014,-12.561872050468082
0.324,4.528689886065081,10.41160483035003,7.062237269172215,-1.1401268143324614,16.261301578433404,5.106498240529618,-12.809227053677887,-12.541615079076792
0.328,5.263348307728052,10.881502496715143,7.45403731187082,-1.5051098410469876,13.455948131808668,5.48305766005501,-14.47443838105346,-11.673718175195518
0.332,5.9261754949299075,10.698303002241573,7.337317906450039,-2.6374973081969983,10.062159349221702,5.7100305594156,-15.519586850104815,-10.074663635861953
0.336,6.883543661259523,10.087333906746835,6.609957330876114,-3.9616288402162354,6.439401398759173,5.96817562759793,-15.677097747264497,-7.979539905956926
0.34,8.358165824524121,9.401246605247934,5.288962396395959,-4.911282913516288,2.9335700518652175,6.449643827310183,-15.025521740112708,-5.689280576937563
0.34400000000000003,10.157375441454178,8.922752669172723,3.6174602087208996,-5.312310472862009,-0.09641865350158696,7.2231686615916715,-13.83739677887138,-3.4784018128966636
0.34800000000000003,11.661380091723231,8.716492144412655,2.037025490533324,-5.494390244511919,-2.3303294958866445,8.19302227400999,-12.349975453429238,-1.5173141321181447
0.352,12.121707678475218,8.605101930353271,1.001867773296226,-6.044648641865479,-3.621555305427478,9.166172274418386,-10.631461258133186,0.1462373969584405
0.356,11.117709354762269,8.292521279790776,0.7323994497513695,-7.354040316343571,-4.109962591219983,9.97580974512016,-8.625530173854713,1.557599162226552
0.36,8.899419566203733,7.579095055872244,1.0697607170311585,-9.244050995248926,-4.181237145982095,10.57495132066515,-6.317483198943592,2.8197238867135184
0.364,6.401576168415545,6.554841564374328,1.5505121626828213,-10.923936314944967,-4.238728807164648,11.035120679422107,-3.8762664878850046,4.069468858328719
0.368,4.824491282813938,5.61008961903417,1.656434256940429,-11.370139379426519,-4.418645741514638,11.44499698367008,-1.6589680559907265,5.441258510448506
0.372,4.965106180896555,5.231277420730407,1.1067439661484286,-9.936203672539705,-4.435470364653952,11.778613278516332,-0.06548813080689797,7.010412425890536
0.376,6.693721187932965,5.708835659973261,0.04085447503211981,-6.816807189147539,-3.6718549585973506,11.844153564217322,0.6692411951705708,8.732525580704305
0.38,8.913322640785623,6.946566112290498,-1.0142340949098525,-3.0592159632647054,-1.4916680746857764,11.36895345485209,0.6199959107984796,10.416934261969118
0.384,10.089666156864041,8.510044417136783,-1.3609274889531662,-0.07001041099238137,2.393150658475406,10.188677562854991,0.14879814143978365,11.782089600116706
0.388,9.095878399367848,9.870606142041197,-0.4435764168827063,1.116387527385541,7.680337434548846,8.415137157466688,-0.2864230460863837,12.560609988056967
0.392,5.914223370267337,10.699170282718683,1.8886490309889723,0.39582243599261346,13.504801220718377,6.448715541257343,-0.38237007198108586,12.600729933400544
0.396,1.7989541580825517,11.052190649758245,5.307277214613578,-1.33803682558937,18.75645529285657,4.815168763464499,-0.13775110457436313,11.932788302940253
0.4,-1.2358779061371479,11.339158246826514,9.136443922184071,-2.66299686107709,22.53446714951008,3.9167805949741705,0.1957333235718579,10.779272779488565
0.404,-1.3663285644943244,12.101421784414242,12.625673335788406,-2.3693508727817516,24.519047019697382,3.8517405944817256,0.32918990876623866,9.510405170132799
0.40800000000000003,2.1201732477734367,13.696920787119097,15.210808638960998,-0.07610991790420485,25.04242813166138,4.397728974086931,0.16075007461176938,8.54150594292696
0.41200000000000003,8.399481618621166,16.045080223227842,16.63345908418728,3.596498062014007,24.817771469398053,5.164511616807431,-0.15697835584842323,8.199153742623366
0.41600000000000004,15.399189993134769,18.570224430087023,16.895413229828705,7.359208710385701,24.489051067361856,5.816720909812375,-0.3449866497221592,8.605664338525457
0.42,20.691782462105948,20.401292198624446,16.12251351406485,9.885985907024633,24.270091562158882,6.231497419536936,-0.23885021838714238,9.62070127588322
0.424,22.556970628115323,20.757122049811187,14.451222578708212,10.399748462280286,23.88955926249764,6.501654276886256,0.040866810348006766,10.871649187771709
0.428,20.676689922846208,19.313474661716327,11.996262944143837,8.913044640237786,22.84390268201082,6.7802560222794455,0.11030180007560375,11.858475348920365
0.432,16.16255886394515,16.37434907805732,8.90346759062004,6.067544468171491,20.788975604859843,7.07902660327818,-0.4550228587379479,12.107739141155434
0.436,10.963196417622612,12.781244225562205,5.4399571063804615,2.743005889921733,17.839573652151103,7.189540313222096,-1.812063592259392,11.348684659733863
0.44,6.976993346771906,9.605558379145577,2.0353713047497877,-0.3150222416024917,14.594813115550778,6.796442459714854,-3.6576282000044102,9.655732674673345
0.444,5.294921322239134,7.753857955323156,-0.7883156642983522,-2.6688592009541026,11.86374153373879,5.732503439639913,-5.293618796168857,7.492528512199897
0.448,5.889906034601154,7.625246005537747,-2.594121205074771,-4.143959690866268,10.237347954184202,4.213996027619487,-5.948203893061873,5.604581305862212
0.452,7.829846015797557,8.949453427321487,-3.2315893129309643,-4.696242368687308,9.751497655189269,2.8786439964810597,-5.1890671775424835,4.7601987748771535
0.456,9.832711235624402,10.878496820501141,-2.9472270353951444,-4.335148495007843,9.842555619806603,2.5485345794013483,-3.201689468513905,5.4264221885805455
0.46,10.857420369866077,12.30887893131353,-2.3205048082077155,-3.167863192282539,9.644737911210086,3.820560862955972,-0.7644560233457014,7.529093294756876
0.464,10.48354577991222,12.336013092501616,-2.0137725016868444,-1.4910232153731613,8.495802476254426,6.710723363962188,1.0977575604890717,10.437894732164295
0.468,8.96574536549383,10.638636005748822,-2.456090687911228,0.19618233039795996,6.360839505518356,10.54242152493589,1.6027733572934721,13.198529720511488
0.47200000000000003,6.985824528842613,7.602939578240921,-3.6280946343858886,1.3200871861051837,3.9173113419130914,14.165793971305902,0.5818321755739362,14.912746779385998
0.47600000000000003,5.284585719724419,4.143348755031411,-5.052478775510281,1.4686666880204484,2.2475231083257086,16.430140064348507,-1.448633585071093,15.098757825444409
0.48,4.365795477550364,1.3129101508816348,-6.004040174155307,0.6127371207144279,2.3040010641476556,16.689446493562173,-3.5446620734896896,13.86198312311808
0.484,4.366646709446286,-0.11465885164966494,-5.835036783698797,-0.8374596258202018,4.439978718463067,15.082008181070705,-4.775550937973776,11.796912792424337
0.488,5.1082485600102245,0.09744701008844459,-4.250183044711548,-2.186988421451133,8.246290147592163,12.436181493494587,-4.616673991183006,9.671217286551382
0.492,6.243981203048861,1.6395270316004371,-1.4249308229393591,-2.7598067406959217,12.753385624006228,9.849951576656622,-3.125032564327057,8.037699045856698
0.496,7.41385859476236,3.8845170303877694,2.092423316792747,-2.1932839269536544,16.888699677074328,8.155420219805364,-0.8285944468368598,6.994630757757022
0.5,8.36033956505139,6.232213371246758,5.646522874470747,-0.5585853863112789,19.95231359819377,7.5507059458072945,1.5934869319180507,6.2402773646876994
0.504,8.993197795374272,8.384825402472302,8.758265561739222,1.734971009138917,21.858581238397846,7.588283242054331,3.6395303851825247,5.363531798500389
0.508,9.384156051266018,10.388916394651574,11.254823865361232,4.165499308602193,23.003387524552522,7.498484120196281,5.146072323810586,4.1762539019769065
0.512,9.689604910336357,12.431006354297665,13.1840504045756,6.303702933596242,23.849518940623625,6.659818039937818,6.223353184595908,2.875906478894194
0.516,10.048594459172364,14.53953659364845,14.598930912194874,7.903133555272461,24.500543962202528,4.959556540785343,7.041300438626195,1.938420564442822
0.52,10.517429157709785,16.41290719081644,15.381643701182611,8.876222034069997,24.54234452064793,2.8655729781764876,7.633167076731752,1.807420158720106
0.524,11.06198430447921,17.517624212260785,15.241813975610285,9.219365565354792,23.270452833129184,1.185299402090095,7.865499010902795,2.594122960149434
0.528,11.594256547023633,17.39866711861123,13.900997458588677,8.966580819321962,20.163130676263336,0.6436155952480931,7.567211940274774,3.9786309627941137
0.532,12.049602775220592,16.015088552057932,11.359429953502627,8.216216364802676,15.318031973795314,1.5112153545021556,6.726543930005391,5.3839422856990495
0.536,12.419755768812706,13.864193263415473,8.050494122350983,7.1668361314750655,9.556846453098501,3.4741569641234946,5.612440252096121,6.317173226820614
0.54,12.733479821185256,11.788018836271931,4.728565107528198,6.0997532655519535,4.096744767973632,5.801410397853715,4.705980585855741,6.6642680038441995
0.544,13.000675150866755,10.54884403333699,2.117031837904733,5.282179597744516,-0.036857523839785244,7.7133898135091385,4.441441801007386,6.742908907159062
0.548,13.14549400402393,10.396824729165019,0.5109454679874261,4.833580332617885,-2.5287798127853875,8.748119007820605,4.918785898297301,7.058917076472881
0.552,12.997601139638391,10.895944851215404,-0.422978701659531,4.651706325161513,-3.9091329306011176,8.933939724327729,5.7691030578250775,7.898226665873835
0.556,12.377394269832394,11.148847380630968,-1.4641849671884302,4.481003073111424,-5.178996306748786,8.697013171411072,6.2955850521952925,9.030150350423355
0.56,11.229103589715919,10.32825379538076,-3.323803020923151,4.097798504446246,-7.109944688424434,8.577203119919886,5.858870895951441,9.737888268298548
0.5640000000000001,9.737275399777218,8.239032029866848,-6.068362855788337,3.505382488017176,-9.609609669447991,8.92061014785736,4.308711260872769,9.208041252979001
0.5680000000000001,8.323574653132368,5.551601798168008,-8.859208924125141,2.9798695213385145,-11.582454833614747,9.700577419009733,2.1918597785693237,7.053180433353873
0.5720000000000001,7.4902691271742015,3.5276262792664284,-10.231160825460393,2.9129801951587524,-11.42628533428649,10.54098800094198,0.5646032799979821,3.645720776141843
0.5760000000000001,7.554741414954151,3.33961771086922,-8.842442126716378,3.509984757635948,-7.951001141572306,10.910257679741335,0.44474977097320334,0.018980057841872622
0.58,8.42439030808714,5.358818684031803,-4.31324747075746,4.532680313616993,-1.2065638503479477,10.3904676989373,2.1874223728386823,-2.6252182095831813
0.584,9.59822300998701,8.86519005551429,2.367818282440794,5.314505487074712,7.305744709068904,8.90506694150963,5.174037217199611,-3.512450125286705
0.588,10.419284571072126,12.36348901509632,9.15595747945531,5.083686579873529,15.207746288116255,6.79161312281758,8.03630221677804,-2.6569380786540933
0.592,10.448938086137332,14.346024271028,13.86807152304982,3.4287720430027093,20.32797596708849,4.688342682366283,9.336288052147438,-0.7838857367787568
0.596,9.753518033689033,14.087770722788832,15.24263343423695,0.6345193160980216,21.725102554294608,3.2923410802534363,8.358682663042828,1.1350174998563034
0.6,8.909333552241833,12.015175186172883,13.550025349460384,-2.3536524109488255,20.08703977549203,3.089581439481208,5.555780765218515,2.44831039468545
0.604,8.695418768686864,9.43872679259789,10.399538105965576,-4.361156044966947,17.28775147846443,4.1724616645281,2.3646430055196106,3.1486672100616033
0.608,9.60595756183318,7.774196495023602,7.821677265725953,-4.610394652223363,15.32574440571807,6.202828901013845,0.45796875394535164,3.7430609340649426
0.612,11.450908309454462,7.678925198137904,7.11754188269947,-3.201620218705898,15.22498823401429,8.530856113127129,0.8107147875628016,4.761729637607232
0.616,13.317881987539636,8.624340703414191,8.13888006802631,-1.1357005339523312,16.519010273756635,10.428286486783009,3.1146665634250894,6.247004460248718
0.62,13.993425328368176,9.195680543329331,9.433388028985291,0.1910505769340034,17.607011319600474,11.354763527325304,5.905832962660725,7.590870612293429
0.624,12.637627197631218,7.968111008986739,9.181817701556724,-0.24774589368360012,16.761304647753263,11.161718708010312,7.370909868305034,7.866119630367621
0.628,9.35104337729149,4.443976105347929,6.367374629318306,-2.501494175891935,13.183270649747556,10.144578849912705,6.387480850361499,6.466222280973852
0.632,5.305218228750732,-0.5069674992214459,1.480229855801099,-5.535706788908101,7.498366544795431,8.915190350289777,3.195803764268476,3.638072822452841
0.636,2.295116041473875,-5.004707634923875,-3.6751204813322147,-7.719870423134239,1.4124278061975701,8.130532005780196,-0.7009000861219192,0.5204528620156452
0.64,1.899807376679064,-7.147541176198615,-6.975490056749322,-7.666240633994448,-3.242120948194156,8.2006712310299,-3.3769932021134537,-1.3885509508845644
0.644,4.679623560519303,-6.063105578633667,-7.186185592291508,-4.9626576228829435,-5.4716137157587355,9.109342771025013,-3.5866057141324745,-1.0555681277639906
0.648,9.837962498014463,-2.435122502521949,-4.672902147474588,-0.40599773729729804,-5.545845297748883,10.422004255932052,-1.4842436404148884,1.453844793890994
0.652,15.510557114758399,1.7907367140290944,-1.2028384530092353,4.364411478651505,-4.6716525981730115,11.481374197807781,1.4549945761461913,4.921436680427178
0.656,19.55630360320822,4.391470369042281,1.0654949245216585,7.625924101148598,-4.14468201136259,11.69082163492385,3.281520444703233,7.573345860903373
0.66,20.492900970819278,4.018679799695974,0.8203714405750588,8.339373491759602,-4.5153186825831995,10.759971205905458,2.701497330087136,8.021392683384192
0.664,18.12581136061567,0.8997726115948126,-1.6510219284947425,6.5428429125915955,-5.266993982165616,8.814998229877801,-0.16548443980059346,6.005039085356884
0.668,13.561449474139522,-3.296819758538504,-4.623091964371724,3.2071377578494094,-5.184108579492374,6.317621561466922,-3.83715153810806,2.5051792313943224
0.672,8.658133564386617,-6.325738406309711,-5.894531769255877,-0.2947999219478561,-3.1445253356347393,3.851436004703146,-6.281638030390468,-0.8254669918310356
0.676,5.191734721670855,-6.4875567767035704,-3.9918581884755326,-2.7954967680836944,1.172536753036752,1.8932958650143519,-6.009029619257717,-2.5702376787266985
0.68,4.1393243054562845,-3.411541265719336,1.0665736374251082,-3.7177391360228285,7.092861168174807,0.670547758307066,-2.817266874311258,-2.2622372363111936
0.684,5.396683283758875,1.9010030266065883,7.853073603913117,-3.1046046123697124,13.37249834505809,0.16317713929288402,2.213488599409743,-0.49250620048405835
0.6880000000000001,7.996975415214706,7.716246009374913,14.35016937516832,-1.3777540316123122,18.924160582262857,0.20657297457410095,7.4204699675835855,1.6074317217908174
0.6920000000000001,10.65034734682115,12.46654859036829,18.974229846614264,0.9634108638681482,23.34729737151622,0.612294563114574,11.48204199177269,3.142800807431513
0.6960000000000001,12.308799932766988,15.39696516951227,21.2062345892042,3.5083766684617785,26.92365578642648,1.2259727417418844,13.990907150156545,3.984987589813727
0.7000000000000001,12.507199437258123,16.650668302771578,21.524600926076005,5.937800965848851,30.10930871544491,1.9190864119336766,15.37664909182945,4.738946500573093
0.704,11.399563113881186,16.860240184684244,20.789205480314536,7.966602178194307,32.910115681446825,2.561142385916696,16.31523471911123,6.206658722507655
0.708,9.53924458578308,16.569115307007223,19.546220489480106,9.341627732011034,34.609893870332996,3.0213454031189713,17.081260397958317,8.724800846996118
0.712,7.576597291437167,15.872588878118734,17.72105887846692,9.944652521633998,34.0863816704624,3.219521000995087,17.311612378381483,11.827914743068845
0.716,6.017879777467215,14.481568320686108,14.870408899012887,9.926773431319702,30.55656572716117,3.183570915482278,16.334924014374337,14.46768654668324
0.72,5.117907737812288,12.122129960611346,10.773768093017452,9.740098557587999,24.274343866977404,3.064275366880338,13.821155229687065,15.642022939374783
0.724,4.878414451716139,8.945801616725703,5.903425497391993,9.957347505955681,16.684984086741167,3.0456123225620786,10.256276018008407,15.005732106955406
0.728,5.0770319135725686,5.6091670609467315,1.3694506470589545,10.921707952414181,9.83016377767791,3.182718670985082,6.827581144816122,13.041091066756053
0.732,5.280363847890385,2.911065894613216,-1.7028764042066769,12.40900817612578,5.269844227879503,3.2513649780871674,4.70544341224047,10.656878731737834
0.736,4.890091911299464,1.2152946598275776,-2.974513437243502,13.550468809453264,3.154829439237915,2.7258283306517797,4.1511724432449455,8.481766785198943
0.74,3.277927727777069,0.06201221645392252,-3.3211689198080876,13.148036432907247,2.0508337914719164,0.9532017173171425,4.058534113894439,6.346329922202244
0.744,0.030677940345924526,-1.6985196876266855,-4.511355190318227,10.286795718492726,-0.2773277045360487,-2.5075316812586834,2.3379799817206504,3.3460915686561066
0.748,-4.775120313114314,-5.248238500005186,-8.21210547182767,4.940595950628108,-5.497195053173755,-7.54835007839722,-2.947637531247665,-1.5095643876553595
0.752,-10.397401426645501,-10.953044030695423,-14.844767915251964,-1.774358678381418,-13.502427997081838,-13.367330902458434,-12.276626432452872,-8.435367789085262
0.756,-15.502639638974813,-17.827289835801764,-22.976372049068686,-7.887947737657441,-22.089548025158194,-18.627593568483462,-23.94240516631544,-16.341914233315947
0.76,-18.54691869631472,-23.698959040809314,-29.67882431943184,-11.33190661179708,-27.787701940769523,-21.90034955435476,-34.4179783548592,-23.032988370307976
0.764,-18.340821970883667,-26.066810223852826,-31.763720449506195,-10.814977694104982,-27.46528083056296,-22.192910349236058,-39.7345792183836,-26.087945315114666
0.768,-14.588018987940359,-23.2812698821906,-27.31068824212838,-6.400889119381645,-19.912945222921508,-19.333587883804285,-37.236283411911245,-23.993131143220694
0.772,-8.13797953666085,-15.452252913169787,-16.69743390389641,0.4992607928527377,-6.576649581724382,-14.040579925692668,-26.850286959890013,-16.91471143182855
0.776,-0.7684140379973314,-4.57053505535265,-2.5764388256889674,7.723434194535628,8.957009928876062,-7.638937748949047,-11.221220520439147,-6.693174837445099
0.78,5.455013345561838,6.26352829635573,11.219600118358755,13.249136294581547,22.472483167562928,-1.5627790308143403,5.3630065632866035,3.940661281744042
0.784,8.987327154903085,14.150805984605256,21.292404859722296,15.947611779576846,30.870937215854212,3.127212584922063,18.72277018339787,12.512237520440294
0.788,9.422545880625307,17.595030363185685,26.0012990327657,15.867778337169682,33.284256569104855,6.011511695668787,26.365340057815615,17.72653891661264
0.792,7.627033497381717,17.00750599418251,25.873436121058262,13.976235312477456,31.06904751436764,7.281486581316244,28.184756567753197,19.74564889795397
0.796,5.282873324175455,14.28367952305689,22.980696009583994,11.53557311566891,26.788988013264657,7.474506615404721,26.04864648399098,19.766334577022235
0.8,4.066038921012137,11.715057034303186,19.687979193226965,9.479440567901918,22.797031490111692,7.1406616743342965,22.589354970921704,19.211502676882333
0.804,4.849316577427317,10.83795550428971,17.477907654690114,8.097511547775468,20.191190209056913,6.616003542312683,19.88210308855207,19.0093023665454
0.808,7.324200370375706,11.800186192924798,16.44848663150492,7.132954529434528,18.613121344651006,5.983310592353973,18.65063673425061,19.298401406023117
0.812,10.208848334652316,13.505621654369463,15.63817215962439,6.148816080111203,16.84348664567051,5.174340166528509,18.28977109219909,19.599940561319954
0.8160000000000001,11.923694082121472,14.382048918328849,13.870426127496444,4.892276016909989,13.737592304095813,4.116214163628229,17.545125955491926,19.267499370389032
0.8200000000000001,11.393800149593687,13.29857276775698,10.563414289082004,3.4381044397838423,8.919400961517226,2.831572104681527,15.388488187323844,17.90768027278716
0.8240000000000001,8.55269279903547,10.130956530352535,6.047992530690976,2.0529830935400355,2.8919441736998692,1.4393276952596352,11.606872245554086,15.560719175984673
0.8280000000000001,4.2989700959573725,5.710428807924018,1.2745003263290187,0.9181330950907522,-3.3942314923097,0.08435912463710338,6.841574640409817,12.617473673271888
0.8320000000000001,-0.03931198631846655,1.257671395526586,-2.8334301548123904,-0.08188472327407226,-9.1620501555401,-1.142274678344279,2.1488095593484786,9.584726861665104
0.836,-3.415157321867639,-2.3122378609566567,-5.930147607475703,-1.3455984680880988,-14.189974765466758,-2.2301311940826736,-1.5967989249518837,6.867408407106041
0.84,-5.544796166517983,-4.79530881884358,-8.355516511979317,-3.305007438901839,-18.73814128249984,-3.214806361775004,-4.110504572453351,4.669960367084855
0.844,-6.883901973386401,-6.600629040116189,-10.74843832784751,-6.082802723043471,-23.104792456931193,-4.102036678037507,-5.707438428894477,3.0137763531488417
0.848,-8.164884302965675,-8.278745528725324,-13.444291190912054,-9.286953880365331,-27.154083532506235,-4.8152652489926595,-6.963472999285216,1.8123830014307032
0.852,-9.779882651487583,-10.004365113472318,-16.054239948977397,-12.076562026223257,-30.143051699281102,-5.2005616606784315,-8.260204026539157,0.9483932708128577
0.856,-11.414507283646685,-11.360786578948563,-17.52050575898369,-13.498296350345584,-30.98263822569416,-5.093743792626356,-9.496264831002065,0.3235404063570968
0.86,-12.20067432967653,-11.576391759694502,-16.64615186809874,-12.943337149562808,-28.792902783104182,-4.423069377356001,-10.120943103138814,-0.10647929755509722
0.864,-11.296095640286467,-10.046753009441545,-12.78023666049964,-10.481946355193429,-23.416198027894524,-3.2941542829053105,-9.465429657262689,-0.31580245662030393
0.868,-8.524677511010282,-6.8190690808788474,-6.292825588097543,-6.900511464395436,-15.60840761649348,-2.008647901480799,-7.194260670167807,-0.23818972022371554
0.872,-4.688731503081613,-2.7518540870173354,1.4206608303379085,-3.426786492971985,-6.826556542045211,-1.007146616041723,-3.6243491508080297,0.1306827974185012
0.876,-1.3022985061453767,0.7793526794850436,8.438691902503763,-1.2540136577846965,1.279751012274943,-0.74070964196369,0.2659954953275019,0.6025074125017227
0.88,0.14939320497734343,2.4850083243132985,13.067306477426428,-1.0854789247235317,7.408380133491107,-1.4960073253820951,3.1742379433973724,0.7364273925720113
0.884,-0.9691648626454992,1.7629183927413123,14.481101011609013,-2.8933448869776157,10.940798793734729,-3.2440394745947856,4.007576758220978,-0.053022080692414875
0.888,-4.03513739856578,-1.0225284956373457,12.957229995302129,-5.987866156020118,11.961846833700434,-5.597036129233061,2.3631711861705185,-2.217339651184659
0.892,-7.444206510026618,-4.716333725325029,9.647157768336399,-9.344295968140386,11.033819980330605,-7.909509533214418,-1.2602378820761828,-5.721583530200746
0.896,-9.43315760505459,-7.897563981530851,6.026842449397208,-12.021333849003213,8.884094759226542,-9.501781082348657,-5.624352032270622,-9.82938075307078
0.9,-9.021734360233097,-9.498910104479279,3.291330643766969,-13.501281053551509,6.142720970370476,-9.938283346392495,-9.238482375939498,-13.219763171652403
0.904,-6.548540881697079,-9.217392663301098,1.9633924948798267,-13.819322639334075,3.2169081518181315,-9.226375454339632,-10.96446437416057,-14.464371277065538
0.908,-3.479119927740385,-7.54867901060868,1.8373193233383063,-13.450026239554859,0.28985084469832145,-7.819362229188982,-10.469110734228252,-12.68390245513342
0.912,-1.6250949540557258,-5.502637387627487,2.200394722343674,-13.051691339754825,-2.6319137647681146,-6.412179412319347,-8.330788307091325,-8.060605469039729
0.916,-2.1936937713541624,-4.15551742428346,2.202503553706947,-13.183187593817763,-5.6542893830608705,-5.610356758645139,-5.757771358613809,-1.9004255753486632
0.92,-5.197138622939065,-4.258849841595406,1.1923902946257385,-14.110519905761521,-8.945678133825709,-5.635767647539751,-4.049523483487405,3.8497232593670105
0.924,-9.540542651747273,-6.048262040866462,-1.090353998889782,-15.763144274667638,-12.678035458932982,-6.2323249991848115,-4.042328579428158,7.4400721659784494
0.928,-13.673950220913412,-9.261456603474642,-4.491473403872135,-17.805600864764074,-16.943297677747864,-6.8302382778765605,-5.784827700525739,8.101083435193004
0.932,-16.40520374294499,-13.294567343456265,-8.543589288748478,-19.759390050666525,-21.66495044822102,-6.88548344930814,-8.582664067777614,6.3687181952025185
0.936,-17.412396496971837,-17.399567062046685,-12.630932025481968,-21.127642194278906,-26.54237161382207,-6.212586527020335,-11.377718985198499,3.7621498425080517
0.9400000000000001,-17.196487724153485,-20.848166087246,-16.156185681167813,-21.494856004486905,-31.063370628871382,-5.1155521721492505,-13.25592337723947,1.9773554887199225
0.9440000000000001,-16.552701487024706,-23.03074344441859,-18.6512076570487,-20.593627149303302,-34.57960067323938,-4.231540524872798,-13.83216911968259,2.022449092899933
0.9480000000000001,-15.927145666572187,-23.527726320023362,-19.828034039982413,-18.34821967562516,-36.43525391929239,-4.169287807693536,-13.338485346696416,3.738428835605191
0.9520000000000001,-15.094729749429234,-22.1806552434241,-19.589349508703208,-14.91138121026438,-36.12502532926453,-5.154029015584456,-12.399639408140388,5.943656783446613
0.9560000000000001,-13.376455555916209,-19.16490096876521,-18.02345620245569,-10.691318012187935,-33.44884174279281,-6.881592415836394,-11.640720272106819,7.105973945185724
0.96,-10.226448026493244,-15.014761134728815,-15.391930623361304,-6.322802588173772,-28.620151380406924,-8.676524131581118,-11.350667230146428,6.1709718545466785
0.964,-5.789349465103214,-10.53907440245598,-12.098853105602075,-2.548534550073441,-22.28063474849614,-9.853938244202709,-11.368653294208343,3.1113934744128073
0.968,-1.0538187242643744,-6.622755127806386,-8.645879638560473,-0.036843599046505915,-15.40637834164761,-10.08360167896899,-11.243571178638376,-1.0780607960391535
0.972,2.5219426604285218,-3.9731027433977033,-5.559215791050974,0.8057257653762235,-9.109190994692653,-9.554435847045625,-10.568722787856359,-4.909668838129619
0.976,3.733293692552479,-2.8998760281712066,-3.285554694163693,-0.03005475771192323,-4.368756883785977,-8.847384836663878,-9.289864003922958,-7.147174545400048
0.98,2.284486391423229,-3.2307174548506055,-2.0791160309131556,-2.1360954063679856,-1.7775298882863808,-8.600478327831297,-7.7854874312229185,-7.3639466224835815
0.984,-1.0001654932862039,-4.394018592406383,-1.9153041570230016,-4.800612149507515,-1.383316909179598,-9.163099709525568,-6.681225505773,-6.038397750423883
0.988,-4.541235662465851,-5.645710318881584,-2.4889456802739005,-7.220893715754755,-2.7047426800081666,-10.433514041169019,-6.497854395281138,-4.181823593923355
0.992,-6.774154863947388,-6.353594111826169,-3.308414976770564,-8.750943146898408,-4.92373500699307,-11.962389809567412,-7.3267896716081395,-2.732171720787619
0.996,-6.894463767609295,-6.216226832612392,-3.8702381676279174,-9.103020004371501,-7.187059171143687,-13.232542234839912,-8.734084872563926,-2.0752464206721015
1.0,-5.205051932287688,-5.349381081456613,-3.8617332519917227,-8.442530409697156,-8.908675957077094,-13.947175831463483,-9.958183605140675,-1.9509531672367757
1.004,-2.9208989024452876,-4.214933894217097,-3.304535834314038,-7.3434887584180615,-9.946228222217428,-14.167837092334139,-10.296157608531985,-1.750881176927578
1.008,-1.5329265135885635,-3.4183926032014824,-2.5527808471331355,-6.589924479617366,-10.571921110122958,-14.223126111283591,-9.464099221137985,-0.9838918588279739
1.012,-2.0762038827690503,-3.4658533384333623,-2.1298427476249344,-6.880361005988107,-11.268754479881409,-14.463954000315198,-7.71501467079861,0.3813943906059194
1.016,-4.665430962501887,-4.576445470679346,-2.4870366066800216,-8.532513868213755,-12.465746144635432,-15.028449826040742,-5.65450956539803,1.8952218328554409
1.02,-8.48978275253171,-6.61454701321577,-3.789919635435467,-11.297117136796942,-14.328467521764765,-15.747320563225912,-3.8784121119881547,2.928264570509782
1.024,-12.227656178562938,-9.143759269538464,-5.827957601931985,-14.383846819462178,-16.682575206939646,-16.229175748518628,-2.638671947194325,3.0917800916549822
1.028,-14.62420675395947,-11.567533716028493,-8.09673302044689,-16.710556122078287,-19.078986434688204,-16.058142999464508,-1.746884118159869,2.516715480765015
1.032,-14.978622410379103,-13.317616581129414,-10.016775831430778,-17.31291559173519,-20.95842018423741,-14.98857695939978,-0.7681015474354354,1.8088543927174214
1.036,-13.340016277371205,-14.009724692976533,-11.160048579620252,-15.746802851655957,-21.818293121992042,-13.032529489724766,0.6238450290006767,1.7139818601995103
1.04,-10.350561277380166,-13.526013701093916,-11.37956394218304,-12.284891840331511,-21.33299602627494,-10.419122519882876,2.3475488747026247,2.6854821068227466
1.044,-6.889725937126059,-12.011547870794857,-10.784964970624742,-7.813248694448248,-19.40162348183685,-7.474896486066882,3.8793072438816125,4.617773648788898
1.048,-3.7130259800135264,-9.799462334097598,-9.594008227004451,-3.4574793994574975,-16.142237981147446,-4.513677325034678,4.523541226117686,6.896797856978992
1.052,-1.2178507752714722,-7.286501470000303,-7.958186453838152,-0.09370399511408323,-11.855781721943913,-1.7888915768598963,3.8420097217385774,8.735110130727662
1.056,0.5808330249813025,-4.815199238006244,-5.875323410722103,2.0055269677336582,-6.977059070466339,0.4899935247203757,1.9937582819306954,9.580923224059461
1.06,1.8945868124596927,-2.6160379004102197,-3.2473282013897915,3.2048021904436155,-2.022141480842265,2.1184487784998964,-0.23906944347891113,9.355910062427029
1.064,2.9585486282935562,-0.795887653498994,-0.031016750384878833,4.2237689694111396,2.4930651645354374,2.902050558685005,-1.7709615875719464,8.417420409621627
1.068,3.8791563180272988,0.6280733561720808,3.6198223864128067,5.6855833203417205,6.156124886489579,2.7248109409169956,-1.7171224126836933,7.290915735585713
1.072,4.58717668340546,1.6707308023787846,7.316080240871543,7.7372206504769565,8.744965120835559,1.6369709448431422,0.17443854075008858,6.362005788465012
1.076,4.914256952312371,2.3384916438330947,10.529937998290734,9.959260008879482,10.251338244012686,-0.1015694840884862,3.3925684294417806,5.722126186029527
1.08,4.7386182313869085,2.614967542414888,12.774746369534796,11.608314707362752,10.817080601944781,-2.069965890529147,6.890296476520689,5.2295235884926115
1.084,4.098169505671194,2.469622207516295,13.76991377311424,12.037031821592336,10.61061127150083,-3.8305794734224037,9.536142097476386,4.708853844136229
1.088,3.2077281435101668,1.887428055518285,13.504841011558028,11.054859542301983,9.718711428354936,-5.096772421679816,10.567987976421591,4.139226070823497
1.092,2.3886553740653653,0.9114155984739227,12.1934342677921,9.041306502382213,8.132793486533274,-5.828382679678725,9.852669344934839,3.7025744120328454
1.096,1.9435943654696075,-0.32126701035485894,10.17761140874154,6.7527647511092255,5.84896445270283,-6.201055513397478,7.863725953202447,3.6691487602734014
1.1,2.030218443956528,-1.5738680514361931,7.841140338285413,4.9408273856874985,3.025367961972961,-6.466989983674921,5.436650782180095,4.22221640961925
1.104,2.6134506577113825,-2.532730706521761,5.584224129454924,4.011691743836309,0.09823687423863703,-6.773060710363097,3.458667545968183,5.3750318126731145
1.108,3.516944355038504,-2.8768076573371673,3.811235687027647,3.9035717741444387,-2.27163523678405,-7.049458778589269,2.5986939029867244,7.020809042615383
1.112,4.543076945368284,-2.3868862016774983,2.870739968446287,4.231616942345227,-3.4495765876101814,-7.036220117627636,3.1364721117952286,9.061677098020027
1.116,5.58452619785885,-1.0624629190388077,2.9267628099951253,4.584270483650016,-3.175276428438565,-6.439585619494665,4.90392942364042,11.48618332121896
1.12,6.651107159535059,0.7918695817684238,3.7961060111165352,4.781287913443521,-1.8264134734347408,-5.135342331427182,7.3157825067110025,14.299284165364952
1.124,7.801310090369952,2.5837709332254235,4.881018961691325,4.948826075228226,-0.3923252953559313,-3.2970262985190857,9.49428283688394,17.33835387927411
1.1280000000000001,9.039757664844728,3.604599754100718,5.316549512789152,5.394842364893975,-0.08645356853503472,-1.3676117918539603,10.51065299107313,20.11746657299591
1.1320000000000001,10.240213238944762,3.3172353864431443,4.351120099903255,6.388105897180594,-1.723927538731914,0.12337671373916237,9.71811349111158,21.8716620212208
1.1360000000000001,11.146736861970567,1.6325456265510638,1.7851937830209863,7.976489572008177,-5.179895763540799,0.804507386914338,7.070012437707646,21.84627954545431
1.1400000000000001,11.483850355226423,-0.965096087612892,-1.7716222450626447,9.955775609430475,-9.242003965386402,0.6318436977207966,3.2670173754090683,19.704967626433245
1.1440000000000001,11.098169939830768,-3.5459679157165738,-5.022327769754156,11.975159661405996,-12.014838722345758,-0.1159987882256246,-0.40643043261707135,15.814663073718293
1.1480000000000001,10.055990491988268,-5.094226729288039,-6.495642175133071,13.700037903684915,-11.743597389383467,-0.9954829965990939,-2.543834613324634,11.21447558460386
1.1520000000000001,8.65469229700193,-4.944504760906511,-5.227289517684767,14.932395871726385,-7.670350780677609,-1.6268541677354733,-2.2108906892976847,7.2310253175874095
1.156,7.3182669537454785,-3.0960551586035763,-1.2556096820935636,15.61668709745436,-0.4879302627045945,-1.8777225853518758,0.6001773074326593,4.898348995390734
1.16,6.429256319894648,-0.2439409703824822,4.341618738965735,15.7548329219062,7.868775183989328,-1.8946387834148481,4.903562250184223,4.489883068931704
1.164,6.178807133383998,2.522773372910251,9.925375435149363,15.319717711467092,15.038646156286632,-1.9806937048151667,9.126200076561872,5.424867812765115
1.168,6.495695426579914,4.216032235671264,14.052871006838359,14.231414694457271,19.260971399549362,-2.409623104849743,11.811153916321018,6.595086049664133
1.172,7.077817436996611,4.379225846116242,16.093433113598167,12.413388852527987,20.080669879983816,-3.286527738297991,12.265427006603204,6.918894345162698
1.176,7.495298283769898,3.2371126353054933,16.372916345971134,9.88808096936691,18.38295098380695,-4.520579420087415,10.827202381209645,5.838725187747514
1.18,7.322147528548612,1.4895516158762803,15.786399975097538,6.845047300458191,15.764647981044163,-5.917720735883449,8.62218693358227,3.5179554919213842
1.184,6.284559073438686,-0.09871375542661553,15.148097975522887,3.6459773477267845,13.622023163047743,-7.296049684759964,6.9505821395759995,0.6788570800999878
1.188,4.3782915984752435,-1.0781028427068122,14.686440678638064,0.7483049766397016,12.468036172194388,-8.541336046343531,6.6254530509149845,-1.7880171758579309
1.192,1.916403324532439,-1.4544254271081627,14.004625113885595,-1.4156872662088062,11.847177109694712,-9.573080722039776,7.607339787196906,-3.2145386134543514
1.196,-0.5145074861020476,-1.536103751634073,12.51932838654966,-2.555854941429061,10.84961668390497,-10.267454224465837,9.118595856699358,-3.355501800874663
1.2,-2.202655771577156,-1.6250186924321497,10.058457231225475,-2.5946413724323065,8.86138144103279,-10.41493725343662,10.136200293281036,-2.3623812543037275
1.204,-2.542498581280597,-1.7666601535111113,7.203179108561017,-1.6719412889297018,6.068203867531793,-9.778122963125497,9.966908480378152,-0.6112559427392625
1.208,-1.285983632737043,-1.7422914943131218,5.074461350056026,-0.10760493345605937,3.369047083800524,-8.242440256494774,8.580721210749289,1.4648418775668688
1.212,1.2886682486205245,-1.3086672424392418,4.643197031651198,1.664617873865609,1.7474067975153957,-5.958544974223514,6.543090316523376,3.4502293548248417
1.216,4.405153906963733,-0.5104835494412328,5.986095915430269,3.1960114282865106,1.51526125277951,-3.3721539252610455,4.622941466879638,4.944924892551171
1.22,7.034281824529444,0.1758544037802494,7.994111990874899,4.137774172037098,1.9444127198307797,-1.0849458929751563,3.3351781822429984,5.571192864222212
1.224,8.288823674291962,0.01904204334869064,8.811934542671679,4.349286141190532,1.585813098878134,0.40683319102754467,2.6899919863353716,5.053035227737382
1.228,7.80361542627179,-1.5361486872193382,6.848704871830705,3.964793206741888,-0.8457235193909582,0.9613176650482274,2.285649486728289,3.3488884958833296
1.232,5.910038404420902,-4.427411839628803,1.818750103516777,3.376658031630541,-5.520932793497195,0.8728031166374421,1.6634840221258855,0.7541443484542469
1.236,3.495232598203529,-7.8190869929158,-4.8184001097897635,3.1136655923273793,-11.077378570062137,0.7209519088164598,0.6858153441307877,-2.122470715980853
1.24,1.5887987646574402,-10.388300894544045,-10.35491661830838,3.638472081582222,-15.066375327533024,1.0590183622371114,-0.2996951448976688,-4.548811941701388
1.244,0.8966831470129364,-10.918892760300878,-12.068727554987163,5.16065186540618,-15.093082963122924,2.1082422982508433,-0.6113905913771305,-5.943429169745286
1.248,1.512625324840883,-8.903687581207123,-8.586765003602522,7.54322783158932,-10.079037701891139,3.624064543912027,0.37885911822650087,-6.0998449980133955
1.252,2.9272197358704943,-4.833642536708339,-0.6559888397773648,10.333703774336755,-0.971584853744389,5.011795845392044,2.839810047094943,-5.249205519822681
1.256,4.333178037051766,0.009252047332665825,9.135834722394975,12.923603139796796,9.528430734667381,5.6246484751036405,6.296600488352851,-3.92621457536643
1.26,5.052032827200492,4.151392284461963,17.558414679435828,14.76164329139101,18.11774643222452,5.086509769224904,9.796441324439911,-2.7078355480525715
1.264,4.821999654653155,6.578288174062891,22.212786775003224,15.496710765864009,22.32312829644934,3.4681938419616927,12.319313463262915,-1.9758051185199292
1.268,3.804532195538741,7.091457558818092,22.515690863428972,15.00182060019506,21.494396943102856,1.232507934169007,13.228154958548657,-1.8145555452811095
1.272,2.342974275176857,6.217284239960009,19.715259223906287,13.307752148480176,16.897127483490294,-1.0027361111451683,12.542622121410204,-2.0527578756991716
1.276,0.6696987990017078,4.767400514309884,15.989689012826148,10.519638419771582,10.914267945272968,-2.74063863273841,10.909216328804177,-2.3942295911219844
1.28,-1.22291276354008,3.3415405412183645,13.187260099433388,6.798079244322253,5.830977018807971,-3.779105244682796,9.292468786794416,-2.5426792820253468
1.284,-3.4638245993428427,2.0834463244041217,11.930039729880718,2.4260372692697274,2.8630423217036878,-4.212049564734116,8.548130182696696,-2.262139293967266
1.288,-6.042158330838902,0.7970662290313157,11.53214302926881,-2.106891987774361,1.8859810667286183,-4.28675463048603,9.078424020969578,-1.3824804631149163
1.292,-8.603994144281387,-0.7030333685715959,10.686883931923148,-6.096549694963869,1.8925449268513148,-4.217480759249156,10.696711360668814,0.1998507921143755
1.296,-10.491170094718655,-2.2810074211170104,8.440407044845415,-8.761410943590818,1.8028256933444027,-4.067909276844148,12.739171822142453,2.4758984985437564
1.3,-11.058411837205313,-3.44786933008254,4.829844398136629,-9.51025424906129,1.0970636980628115,-3.7512720055947284,14.348846281260194,5.237713426198752
1.304,-10.105776940774376,-3.6503610661266066,0.8140238422720358,-8.224531363124697,-0.07505502595722646,-3.124538214160566,14.800860295273196,8.021711888199206
1.308,-8.131951960680453,-2.6854788917862606,-2.40542329679829,-5.381869108439787,-1.283300424740446,-2.1029064219437714,13.74254411763377,10.157805878065119
1.312,-6.178815046291675,-0.9359070363461797,-4.194126599484662,-1.8990170427641715,-2.347528614764542,-0.7251901891286252,11.292415502670337,10.968959616720895
1.316,-5.318989033050457,0.747512982956323,-4.899479148431965,1.250864259041009,-3.6003010045692463,0.8414718889307551,7.986672012989402,10.051233213225714
1.32,-6.0599279812768145,1.4769865570706315,-5.5946284452184045,3.4654442029377606,-5.679453102439766,2.3432434686201304,4.60841761163465,7.498406957683983
1.324,-8.02359776143021,0.8304055336275269,-7.316971386995647,4.753866768705848,-8.977545811650998,3.510868537958231,1.9587434210798165,3.95281938853077
1.328,-10.101647243790467,-0.8828812150222802,-10.292163967829765,5.651057429397952,-13.137055234728905,4.128750188112463,0.6188890185476339,0.41216245007854013
1.332,-11.032674246884199,-2.7673020318088675,-13.642977342591621,6.839021149255132,-16.96984034657271,4.090903980932126,0.7736941391121945,-2.144691532063007
1.336,-10.108625707298415,-3.8259373528244396,-15.778322917210971,8.672800130244468,-18.92784256489449,3.4407296455738106,2.1544633705634624,-3.1510192653040576
1.34,-7.583508659925428,-3.4982608843138223,-15.24489936757982,10.899412316243797,-17.889541105257194,2.389509880233163,4.136067568826547,-2.672590504771506
1.344,-4.542986587008272,-1.9271460631107402,-11.542919063457703,12.746437133291693,-13.803170174754996,1.2875052167910326,5.9825066868961585,-1.3408025690769136
1.348,-2.3164262769487323,0.1791909985631719,-5.44049494333558,13.333446558412106,-7.802163939968523,0.5245083294103097,7.137362489445877,-0.03888969311083201
1.352,-1.7803513594481046,1.986699390130525,1.3677488573785013,12.163301811864585,-1.7105231219684356,0.3741751728048257,7.435188318859218,0.49923274134562234
1.356,-2.964186557123867,2.9899843541134032,7.035498294279023,9.405251176522142,2.7917719060569652,0.8419893065602082,7.128120416180536,-0.017465129796619294
1.36,-5.149673714397068,3.2124471568004083,10.337316884113534,5.814965138575644,4.891814474028251,1.601534220353642,6.699716515006003,-1.3866264135613164
1.364,-7.352836554604437,3.074608616680962,11.05474342524758,2.357403976027854,4.882711855640991,2.101154694730212,6.576954129721344,-3.0876647104378208
1.368,-8.896712048160225,3.0376505500689746,9.842788719436612,-0.24537471823441592,3.8250077782904555,1.8257933297081763,6.897008936841303,-4.551079936967653
1.372,-9.678298802027712,3.3029747981881883,7.758027242140997,-1.752095882595313,2.8866499443756766,0.6107795356329007,7.472385007635239,-5.365705790361972
1.3760000000000001,-9.983449071139148,3.7678769886060763,5.761783154537625,-2.3053225835865305,2.748998139919422,-1.156412620051924,7.969368772237431,-5.336341913851356
1.3800000000000001,-10.08176563231791,4.202386367533109,4.431063992323288,-2.144902861862647,3.3697747871392494,-2.6111864041085937,8.158582897929591,-4.431355508617344
1.3840000000000001,-9.909078627490999,4.498091721221499,3.9347111792130818,-1.3677261850789364,4.16763410810654,-2.7748120823471254,8.076773950640927,-2.7185454298851255
1.3880000000000001,-9.078425464231259,4.777857046155987,4.148033955179926,0.07171279094472993,4.430417889016098,-1.059703022321628,7.957911878498635,-0.37893792007707816
1.3920000000000001,-7.240550786231324,5.248957702968255,4.737438819042836,2.1106386295687116,3.6569350349582237,2.329096326364379,7.9709634941064,2.195839996837094
1.3960000000000001,-4.532623694040922,5.913785688072494,5.171494828787218,4.297306662774645,1.6574494569485978,6.337182155142727,7.960094426283831,4.348770059959861
1.4000000000000001,-1.7657894276608204,6.375282856607555,4.751660438892031,5.7557770532021095,-1.5559519309226744,9.439292811275664,7.399189917894546,5.266452958601803
1.4040000000000001,-0.12315126021712786,5.955295416729314,2.8116708397274124,5.5520695535124105,-5.885742776096777,10.32971882997299,5.67961438610655,4.303307211070205
1.408,-0.5008442561738775,4.119862528686099,-0.8977836918456887,3.306491589126381,-11.106693921426086,8.597320029306502,2.6082550922292285,1.4062956954694528
1.412,-2.8798695846453484,0.970128932120133,-5.840981104701314,-0.33311319264612393,-16.682849561247167,5.029917769377789,-1.216066267385031,-2.634079641828066
1.416,-6.168545271637413,-2.5574207388499417,-10.64084661061861,-3.755266314252367,-21.635549655897194,1.3286623610893002,-4.46587766018456,-6.350155783260561
1.42,-8.683876280572804,-5.006151631660941,-13.522945850658289,-5.091283661795387,-24.68734657886762,-0.6813195887079928,-5.680844199327112,-8.223474368431198
1.424,-9.06175891447674,-5.146598816589176,-13.172903836682053,-3.2748294264893048,-24.762345526714853,0.008264962591056246,-4.159498197635912,-7.531383257261041
1.428,-7.10283190874452,-2.7740844214276876,-9.590872381067129,1.1195230882458418,-21.644103194579657,2.9732468451475143,-0.6460330576301203,-4.958219236414152
1.432,-4.037196607573605,0.9332290309448581,-4.423770075282846,5.813456566695095,-16.397312845058877,6.420364775331109,2.677566256494174,-2.553960926397849
1.436,-2.002447390686939,3.7860730472430077,-0.454697144243255,7.71359162540648,-11.200481878362552,7.956236065578196,3.039720544074953,-2.925441837305698
1.44,-2.9912987055176927,3.5675936528386956,-0.3789702104886601,4.373033571391716,-8.533185062055963,5.72546717809746,-1.5574686186046165,-7.977852572785196
1.444,-7.779853450976589,-0.81356105854411,-5.417628837255506,-4.6779661400396435,-10.019533519071956,-0.6128475598579826,-11.130459131789394,-17.80426807959884
1.448,-15.40859142948375,-8.605053599754683,-14.493355105651062,-17.43976112517339,-15.49629847572487,-9.560569573055545,-23.32312594848372,-30.311588501239385
1.452,-23.49486499429804,-17.335634952967666,-24.45918597619766,-30.100186235882575,-22.826371132964596,-18.294632359642492,-34.137040961355524,-41.850427240638965
1.456,-29.184277693112563,-23.756197819131557,-31.34090678269149,-38.53663608935676,-28.633027091851545,-23.793905221167734,-39.51364569866564,-48.610988759664906
1.46,-30.305848096482805,-25.199202789754963,-32.05312799562853,-39.97250678270939,-29.698670188763572,-24.06475440342365,-37.04366338692489,-48.15969461896384
1.464,-26.183333887403023,-20.69830799394549,-25.749020895183094,-34.00649664393495,-24.371877618141298,-18.9029296296776,-26.989129401865284,-40.389508852442304
1.468,-17.789434509561943,-11.35611222611351,-14.150095962507294,-22.58575892547742,-13.315213145435337,-9.871509246209826,-12.131057545415388,-27.467068877373094
1.472,-7.25370492806087,0.1708650311220481,-0.7493138722657022,-9.035589815244748,0.7376227755166838,0.4414310391402978,3.436405007396388,-12.862695296826132
1.476,2.9473970233730142,10.760350407641454,10.667690221539488,3.2986059837730863,14.07136890844049,9.49109402832255,15.953843278906788,0.017218396405951353
1.48,10.730685536465899,17.960563194234965,17.46777360510714,12.14225611283473,23.403781826932573,15.65450608122228,23.308865198236163,8.942854826254916
1.484,14.865053679353878,20.70808216347814,18.930348421701638,16.715106808625933,26.990107889751926,18.564871239694185,25.462439027955043,13.283880413997394
1.488,15.07717018475887,19.38631481102948,16.072130559603465,17.467956787388175,24.969731892892923,18.852585172324325,23.92460550708165,13.696322948224406
1.492,11.90881534669461,15.346159510210782,10.808671503745245,15.462786033704106,18.932242423438765,17.5524101213814,20.695931029042185,11.431396250209218
1.496,6.474831724677642,10.210204028553562,4.971411605743015,11.805709735197524,11.021834892189872,15.550075592691428,17.277078167549917,7.711569800238067
1.5,0.19523743128775095,5.292460973252673,-0.3339020200610321,7.37449692350674,3.054895205968023,13.33360446338338,14.20808940504503,3.455437277305464
1.504,-5.494868225230675,1.3296972666657894,-4.8126587283522895,2.8343443230296543,-3.9590871216905725,11.090864375315505,11.240506426584034,-0.6446844736128696
1.508,-9.445970376611513,-1.469831778777916,-8.631580108713933,-1.2416794379350904,-9.772559685603483,8.980019648128291,7.895865634753136,-3.9250035114710045
1.512,-11.061809823258955,-3.2090835980852717,-11.96443491158334,-4.3430620442013605,-14.495495981573185,7.312822729101754,4.009010520650918,-5.709634733659186
1.516,-10.445049012136224,-4.093543655742906,-14.73432327847786,-6.142821056084358,-18.153277291436098,6.499363330993219,-0.05978875341679668,-5.526303750011721
1.52,-8.336374615984823,-4.33646155356837,-16.664734335861795,-6.674137761994643,-20.483368900863752,6.78634311064161,-3.6086964826045005,-3.44056158503372
1.524,-5.7887440839804185,-4.141489591364007,-17.51117744439034,-6.370781168861868,-21.03903150291717,8.004928701571771,-5.976588884415833,-0.22403442537324736
1.528,-3.7146340792060073,-3.7050651484769332,-17.25809176138864,-5.890145720433793,-19.48419831864703,9.541123481852992,-6.854794612221667,2.850212482699135
1.532,-2.5321822297646577,-3.192944502409773,-16.14047207755175,-5.7964763616855635,-15.872557552826947,10.59196819819772,-6.361434735614239,4.542416750089615
1.536,-2.076545568403162,-2.685663251164442,-14.483894131152738,-6.270706495412014,-10.726318516743959,10.587178334277269,-4.876096159841836,4.257577488591778
1.54,-1.7986078498688585,-2.1360507451527155,-12.498070575767997,-7.010295561882231,-4.874959998503982,9.522985950625298,-2.7937143557719537,2.369240561587503
1.544,-1.1436784125016857,-1.385126950652193,-10.180702207459035,-7.388843755619746,0.8466297388895327,7.993241447260516,-0.37188869792953483,0.04377500370537746
1.548,0.09605559774536232,-0.2510044939790532,-7.402738729495468,-6.793991875010761,5.859938862333365,6.877813617709762,2.250974401500571,-1.3616674179938855
1.552,1.6894724286194105,1.3665379268568358,-4.113399934994959,-4.938494660655124,9.93626275531824,6.864332513243426,4.916244849388022,-1.0206711182363506
1.556,3.1527714102612663,3.4051264060271933,-0.5329870071818732,-2.004805411281268,13.089003538212637,8.06978904458083,7.316832617019827,0.9082804656136432
1.56,4.065893704193513,5.610926644483698,2.805847890456789,1.4256050164804037,15.35329238535087,9.978091210447019,8.998458723162912,3.3536290532902058
1.564,4.320645324269208,7.590212666908883,5.21510901158581,4.603459024849144,16.62402319971079,11.733848477124411,9.516984273523121,4.891575786536123
1.568,4.149141578061972,8.91326064401801,6.119226696013357,6.876120260254538,16.660717794078664,12.614906370581593,8.66732871419481,4.497067567459453
1.572,3.9185167422692757,9.240461748743655,5.3170443426133716,7.877173411521653,15.266718745873732,12.410007070651773,6.64199953914067,2.0861567712599935
1.576,3.8516566369489738,8.43979299266175,3.1095368596743356,7.597655375520844,12.523644834789593,11.490972740008147,4.017502908645838,-1.4359288440246019
1.58,3.8475860576982086,6.634715845011669,0.2030349090746313,6.334081202969173,8.892357912816806,10.542662262414524,1.537778604135383,-4.650168704374664
1.584,3.5370308357050817,4.172309349583884,-2.5749852020690014,4.560673816828057,5.081018113887694,10.116703753701586,-0.2001304217192228,-6.374748481015558
1.588,2.543862950260518,1.5186657400026888,-4.62000344401531,2.7676690105690795,1.7195198926965531,10.279685073724977,-1.002436930732074,-6.29384450193902
1.592,0.7466439573690877,-0.9132194382191301,-5.816332844182398,1.2837429514729592,-0.9921993943680718,10.550433846288797,-1.1595118168152112,-5.1446675237330055
1.596,-1.6166476005678305,-2.9253182727406966,-6.591998424078156,0.15445825837832672,-3.427023974369149,10.163121945054627,-1.2985490181708883,-4.348217464735171
1.6,-4.069409645666838,-4.607042453615122,-7.710042389748196,-0.862448608959312,-6.328381135835571,8.497426596978585,-2.076919183064092,-5.267733750195475
1.604,-6.1633442443844615,-6.25715865255188,-9.866631952108037,-2.160984804691907,-10.313973718817579,5.45548978242914,-3.8611515179509297,-8.463460482040318
1.608,-7.706201572718783,-8.168857355703949,-13.267547670820932,-4.041197195618224,-15.337538004110684,1.575466298043466,-6.532563546406891,-13.310327340066578
1.612,-8.78785701261404,-10.373112756607952,-17.39091137428659,-6.459393491444644,-20.430232079901543,-2.1768008730650763,-9.514783226921281,-18.19064102909033
1.616,-9.600638601754326,-12.500215710822886,-21.09718133149363,-8.93139998029983,-23.941805995340474,-4.8173990624491125,-12.020125843853748,-21.20667205245263
1.62,-10.195937347667495,-13.880615066866085,-23.088082818901967,-10.689213614577966,-24.242797887187407,-5.761366051978257,-13.400478522245976,-21.08704934630441
1.624,-10.359277038818618,-13.859513277183396,-22.509988313448048,-11.035268449591968,-20.54842105541138,-5.051417814618617,-13.429155444293428,-17.82701587943302
1.6280000000000001,-9.727375740192656,-12.184126766633199,-19.40904741131999,-9.731370128032722,-13.442697079639402,-3.311094235352357,-12.379116171372516,-12.758027723197301
1.6320000000000001,-8.069702638438685,-9.232989840139453,-14.773975255327969,-7.191048525901351,-4.781037706673487,-1.4533936850093596,-10.864452771329525,-7.9920060471849865
1.6360000000000001,-5.565163140574441,-5.932997658004751,-10.105764405938316,-4.3382270981182955,3.0319152515367023,-0.2933098398571019,-9.532723145483033,-5.480910849801148
1.6400000000000001,-2.856701866732692,-3.3683323232507973,-6.719922010739538,-2.1752683038102987,8.043471531425894,-0.2431084681811626,-8.765819325544726,-6.154785031278152
1.6440000000000001,-0.7869128293641552,-2.258123003399305,-5.146113709655765,-1.2753802133338468,9.537385188656117,-1.198420348802756,-8.547507779359876,-9.553781798822456
1.6480000000000001,0.03221743818539835,-2.595361686544493,-4.953523885102186,-1.4927681590543216,8.210457199937082,-2.6405955737391196,-8.565558312700887,-14.120182402359205
1.6520000000000001,-0.4309782282834931,-3.6587887864188815,-5.112188847744619,-2.0704651502655906,5.657632644613841,-3.89288777082038,-8.47673506564388,-17.994564861484832
1.6560000000000001,-1.603820845586597,-4.433866785278951,-4.7056007653263805,-2.111492209862263,3.4429849345333423,-4.4260653773999366,-8.193336664386152,-19.91822576717459
1.6600000000000001,-2.640886129011051,-4.2140071896974405,-3.5641234072118095,-1.1370507201245346,2.283221948533537,-4.075017913190095,-8.012298886493227,-19.76565957296407
1.6640000000000001,-2.9353993872664432,-3.0337669866312353,-2.4348984573771304,0.5913541459067346,1.7767336385277304,-3.082600254263525,-8.496206209756565,-18.455515039786405
1.668,-2.515946552366586,-1.6854716577236104,-2.578114875346728,2.172218495281413,0.7820899483103858,-1.9734189415030414,-10.170309184248254,-17.338259029271285
1.672,-2.068508781498167,-1.2867297433949716,-5.0081696029028535,2.544039347987564,-1.796586455789111,-1.3177771253504034,-13.191237670558621,-17.42045095180947
1.676,-2.549185732308615,-2.6281180160021904,-9.83155474834166,1.0724487545976444,-6.286390058609868,-1.4985667660657782,-17.172703858121167,-18.856920864825952
1.68,-4.603987010526907,-5.676245661701614,-16.088241936162376,-2.091023771197797,-12.004180171413282,-2.579081640295044,-21.278674174545813,-20.9714896582409
1.684,-8.134150305604635,-9.527043906246945,-22.20374408054613,-6.072687231033342,-17.612270649268794,-4.319763296643941,-24.538066300106948,-22.752510457616154
1.688,-12.260760685536297,-12.825607063018651,-26.765997352996237,-9.709562059411837,-21.819469650477004,-6.3134709211390145,-26.222405529595562,-23.48770535969379
1.692,-15.699104976380113,-14.412398266743367,-29.16328373689157,-12.087265560443484,-23.99028380825166,-8.153557079132952,-26.10184662575557,-23.140715677833214
1.696,-17.360622322750714,-13.858450027499202,-29.736212343465013,-12.903939352281668,-24.332472988129666,-9.55985674863041,-24.480610657010402,-22.27084345669573
1.7,-16.841401388979648,-11.597819231638823,-29.36499402606205,-12.47504157482399,-23.578361391379076,-10.410180895109079,-22.01273403664709,-21.57873648835084
1.704,-14.526706913735325,-8.607046462246217,-28.77906266736136,-11.417360145009297,-22.393708166056058,-10.693608682009653,-19.398709311146376,-21.400739900022018
1.708,-11.313021954869328,-5.864193734010769,-28.059712977525123,-10.253221677772672,-20.92187491509958,-10.451931197605518,-17.134272519459046,-21.501062233786797
1.712,-8.123572242397131,-3.894951191268774,-26.644675076045132,-9.167189903946564,-18.737603089731238,-9.758449186876533,-15.416012434698132,-21.28797344718987
1.716,-5.50667346645605,-2.634686479703305,-23.803842872301175,-8.02540762647186,-15.209269125221908,-8.73761527302122,-14.18292336325976,-20.2880347251903
1.72,-3.536617581063183,-1.644531594597538,-19.25747017613503,-6.60339936145283,-10.02228750042741,-7.590392840942513,-13.238910614636552,-18.55088149983203
1.724,-2.011607338234171,-0.4969629672632436,-13.505606402249214,-4.832860552720376,-3.518820282836714,-6.582268539870711,-12.372710552823264,-16.69236200648993
1.728,-0.774459838344228,0.9269928856747356,-7.646907619382546,-2.90199869135904,3.3527451663994725,-5.964700237427678,-11.411716251432154,-15.525203069590134
1.732,0.08487586438241124,2.3997157896683348,-2.805129709515313,-1.1561205184025312,9.442808645710102,-5.860340225533946,-10.224815463097912,-15.49783718010076
1.736,0.2893887458367317,3.560839898852464,0.4554945061581748,0.11846313645946793,13.897974299927228,-6.182945558646679,-8.730414850600937,-16.315090257372503
1.74,-0.36503550378893124,4.191502959884929,2.3356092448957497,0.8611303296311235,16.439819631419596,-6.670353247982348,-6.939576947805108,-17.020047213585713
1.744,-1.7412097313099366,4.359727013958036,3.51541221073785,1.2453861777648854,17.3007459119126,-7.033365871619026,-5.007041349068459,-16.508314221164255
1.748,-3.308567582958858,4.336409172910862,4.571288967732471,1.5257303696143936,16.89848504539259,-7.143840827149688,-3.2469010718923528,-14.195566410304309
1.752,-4.36689780053257,4.358629500724419,5.516572997649746,1.8464239357235783,15.509611215698897,-7.12920667436083,-2.055397498046659,-10.421958697634182
1.756,-4.433682620145191,4.421830861982016,5.796376536100979,2.144963883145465,13.178913079728773,-7.297767693782589,-1.7357437512273464,-6.326866490559041
1.76,-3.556901074889538,4.256900470280925,4.743800433247088,2.2150402848765225,9.905729331621842,-7.921236698846769,-2.3081438549797895,-3.265556104173811
1.764,-2.338518782767096,3.5168676726816557,2.183808149160541,1.8769375674928597,5.938960748251702,-8.99964910610288,-3.4289377666536893,-2.1031076760154974
1.768,-1.6185716465834048,2.061542266705146,-1.2345249975096522,1.140072214322572,1.9350866102668078,-10.161950198431441,-4.4836965693612,-2.777899688211619
1.772,-1.9925855265855716,0.1420681433610298,-4.246456095481335,0.23550276327659958,-1.194066064488652,-10.796836907502438,-4.856337867269758,-4.395078026027477
1.776,-3.4381398972618626,-1.6525208606008164,-5.62740795143236,-0.5059466131442605,-2.69260351239609,-10.373365737392305,-4.249969132377373,-5.779181364381657
1.78,-5.296201814041524,-2.685919195097995,-4.907302091048223,-0.85314055399067,-2.3935875403012687,-8.777559178253796,-2.882986686694494,-6.144627924970337
1.784,-6.6247639627717945,-2.629396014160193,-2.6869597136683296,-0.8106856878148392,-0.8842724849582737,-6.455815150384296,-1.4323834762344632,-5.490227378464624
1.788,-6.723545688467311,-1.664537983217997,-0.33120081558263337,-0.5859132176556159,0.753991216824943,-4.24549866837333,-0.7161215737633029,-4.500690089555064
1.792,-5.514575244033949,-0.3948703710029804,0.7990722350923534,-0.39017200019770826,1.5207315945035589,-2.9579312097848742,-1.2655455997264653,-4.040128172982804
1.796,-3.5427608788195357,0.5044432134081944,0.13497871754316293,-0.19915124274848495,1.0752400625633527,-2.9327850705776655,-3.0027356971677364,-4.5579848325669445
1.8,-1.6210494557399215,0.6861241287879238,-1.7726290245764176,0.3427330017075292,-0.0337040507747588,-3.827840090278187,-5.21377211937579,-5.779669637331608
1.804,-0.33479022032497596,0.3427836407454379,-3.573507046294253,1.7808451541022805,-0.6334622286740341,-4.782968226116282,-6.86109049125298,-6.863993591407052
1.808,0.28844928295802674,0.10470375353725103,-3.8852331029274865,4.515719696057204,0.4439093337787199,-4.889326364507724,-7.078423533179375,-6.916695746205733
1.812,0.7178168616173934,0.6618504175639828,-2.05579112558371,8.444789504586879,3.7089429260140605,-3.7157559383140324,-5.598949897203056,-5.543869921399164
1.816,1.518411552931866,2.327333298596386,1.5092891160138606,12.801050347889031,8.697841146155042,-1.5839947302538349,-2.8883841588576615,-3.1145695780578535
1.82,2.8805564255744684,4.802593462725781,5.604109599216827,16.336664558550183,14.157841134352566,0.5741039189833828,0.09886895361159986,-0.5790398998633464
1.824,4.376678877419181,7.277374468130802,8.88137305658438,17.80224208779873,18.620667893886093,1.7022521376693476,2.391766813732829,1.0388317426295544
1.828,5.123417092327145,8.816033213042829,10.507457200803401,16.50634272336174,21.043859581634933,1.188148209863357,3.4550583444688527,1.1734715836537362
1.832,4.292331161391303,8.831710698748793,10.456462539947097,12.682685856365424,21.18922543580993,-0.7932682423961523,3.3775826505698205,-0.01723944085460971
1.836,1.6691559306609633,7.380987270031255,9.334022649368308,7.4581019741335695,19.568801827324023,-3.3563456982119533,2.701159110883964,-1.7967515367272426
1.84,-2.104277843684031,5.102990067380233,7.8936825463706555,2.3968592439277927,17.025698877402647,-5.360605986474184,2.01365875092597,-3.302454953194683
1.844,-5.7451904810832275,2.8662083690633153,6.588971563656742,-1.1487589150565327,14.237388772687154,-5.98468149432847,1.563373337558005,-4.0172470476645685
1.848,-7.9116644257655935,1.32861500841409,5.423265277020619,-2.5735830889534554,11.430853986462353,-5.106159617156663,1.136110398780147,-3.9997954588579887
1.852,-7.822672616071941,0.6684384507925643,4.137841607004702,-2.174215077872759,8.446573118226297,-3.2858524298899283,0.26907885426771827,-3.7529419058009807
1.856,-5.5842452710321595,0.6241592426895295,2.5556866742117563,-0.8601055633107535,5.067153683527067,-1.3889591648712667,-1.3351052416473976,-3.8282889664933464
1.86,-2.0781457989687624,0.7766176023205844,0.805610504345168,0.39054077511900687,1.3539752156930263,-0.0949812883973209,-3.464908444126195,-4.432386441158087
1.864,1.5012498912383307,0.8702665482314842,-0.726072661706894,1.0335471892194619,-2.2346356032976473,0.43038643036015856,-5.372746619892496,-5.269913345349778
1.868,4.186443911587048,0.9576278005042695,-1.6804212969800574,1.146590657204797,-5.032271122411657,0.5218852035504824,-6.125410192462368,-5.7263360610595555
1.872,5.598683606789564,1.2951297785502902,-2.023083534460966,1.240798002212614,-6.52542105266275,0.7088510065532319,-5.136379810350263,-5.26399527545982
1.8760000000000001,5.989092988800621,2.085614766332583,-2.126118826075981,1.8544774821057217,-6.638996867081005,1.3367494608392008,-2.556392483871605,-3.7722376938199886
1.8800000000000001,6.001673517389463,3.2597954923840007,-2.5607694276395705,3.1890109751939235,-5.760084284988352,2.363807435538547,0.7252944728070361,-1.6529034021459665
1.8840000000000001,6.332611816136705,4.466896497596281,-3.713173610443846,5.002986033197885,-4.476235492373235,3.4351437307577726,3.505420448829682,0.4168745946535637
1.8880000000000001,7.476279109206189,5.302272016981988,-5.462832382587294,6.811742718259666,-3.184358786314533,4.155631171572168,4.886064386121689,1.8950878757696046
1.8920000000000001,9.605344933296692,5.606158196239448,-7.145375841286295,8.22017625990884,-1.8222479168248356,4.3699401063568075,4.747901149644349,2.7088767563309375
1.8960000000000001,12.537390321162093,5.610004607890005,-7.850249429834548,9.13492397122809,0.08567821464794179,4.246626519176061,3.790452934771565,3.2811922455439344
1.9000000000000001,15.770016131576995,5.812620894172596,-6.901086417795341,9.725139846806997,3.0787604356273732,4.103406276124588,3.0995364268173944,4.217570550528762
1.9040000000000001,18.544989590145633,6.622024293136747,-4.250754310224693,10.15831564124619,7.307857015163336,4.100217790775787,3.4906186911575787,5.828617720684633
1.9080000000000001,19.986415637804384,7.995309441060272,-0.5650998810333476,10.32291158816497,12.262904791332403,4.037527842807322,5.022112178547104,7.798910931829596
1.9120000000000001,19.349267559490727,9.334597608599779,3.052103399400494,9.763234101501439,16.86869515193166,3.4204721474779944,6.963412444646565,9.234326493653498
1.9160000000000001,16.343784643793697,9.754572397757784,5.555457354390455,7.921375407899177,19.93418313652137,1.7801264909739984,8.231634881229184,9.110657954965063
1.92,11.383965020297182,8.585400080645286,6.400032995626134,4.552777317201617,20.710181956494125,-0.9340145312871755,8.049926678096199,6.892333934478302
1.924,5.576842182081236,5.813107195191151,5.701950623381435,0.032923515635047806,19.238890860208357,-4.158699872678881,6.425090096919121,2.9511253724631388
1.928,0.3781460139180126,2.177128119451936,4.06591786196168,-4.671200931161366,16.304480320784933,-6.889627604917223,4.148364730960566,-1.4854091383094783
1.932,-2.9530785635497523,-1.1561109284507438,2.203607249392917,-8.386066599156038,13.015470656656817,-8.156301004929446,2.3276128340003197,-4.8675100434984415
1.936,-3.857849359464126,-3.1735729182360046,0.5741314599040379,-10.281552299993564,10.255393713618105,-7.550205126191031,1.7258007443806491,-6.083293480217435
1.94,-2.6821939226410905,-3.5284441289468305,-0.7635210649627879,-10.269984773953183,8.304799563897177,-5.495299365378742,2.2966347878291344,-5.034824654871045
1.944,-0.43825587450510284,-2.681558018461601,-2.048723947412327,-9.006172597568366,6.822111696474622,-3.0744469532310177,3.1964683866744963,-2.7016067201057012
1.948,1.713016566072838,-1.6149096571475638,-3.573351543440822,-7.510160993495447,5.157977225441755,-1.4959033744853514,3.273591179820869,-0.6427622665041781
1.952,2.991440181215694,-1.2739910746217902,-5.441440462838727,-6.622260963006738,2.8103184557485292,-1.469490554020922,1.7579751160610613,-0.18315878238172445
1.956,3.2690389191529903,-2.059286349278864,-7.475190327797463,-6.606967235842603,-0.25225257140391477,-2.8428264313643012,-1.2524262107226605,-1.7245843923556095
1.96,2.9658177567880557,-3.6589555848890996,-9.313447315506892,-7.127631725034917,-3.582350683051118,-4.704405164351556,-4.803617232935721,-4.562862117946679
1.964,2.6674952941748415,-5.292766663832936,-10.606262127964328,-7.573431700682704,-6.5242459714600045,-5.9050424400347765,-7.587215102909795,-7.302860398245684
1.968,2.7376878341947304,-6.185846172374113,-11.175991040307053,-7.499374784334577,-8.573516153630408,-5.70792702977451,-8.632059627925628,-8.63335625372747
1.972,3.175092461359327,-5.962587524484661,-11.047209857832513,-6.883130423462717,-9.584483009283304,-4.197009201980109,-7.795892209936028,-8.012966253295417
1.976,3.7327835083160608,-4.755584750692378,-10.352848181295485,-6.069443316935576,-9.720287118056149,-2.231174229791577,-5.794455295168518,-5.895531679908345
1.98,4.1732255636397895,-3.004245000114679,-9.203554049109698,-5.46411883464225,-9.21588183065478,-0.9794708756953696,-3.7667216460185955,-3.3960012580610055
1.984,4.453300127782313,-1.1144159129080435,-7.61594769501562,-5.2017884020287966,-8.131877916425765,-1.294733933106727,-2.6438037540374353,-1.6064038479262308
1.988,4.703398631276286,0.7724934766974911,-5.551046076947841,-5.0228139900773385,-6.287316502009162,-3.268119270503121,-2.6811501437796323,-0.9736092049752187
1.992,5.039920444875406,2.763269792743813,-3.0174294766634375,-4.43444096307303,-3.4179533918754714,-6.194253756701073,-3.3891109848282213,-1.08346433877432
1.996,5.389582614208848,4.996620218316366,-0.1499252416501804,-3.0392398640842657,0.5521919134134805,-8.941178489735648,-3.8703940459508885,-0.9595633248727609
2.0,5.47485517133282,7.3855776548016365,2.787703072550812,-0.8172413831844096,5.306323132234411,-10.509120460103986,-3.342717356678804,0.30744156003947865
2.004,4.988635671011707,9.51873476883111,5.487632805292833,1.821417821556679,10.143666853332888,-10.482245496872565,-1.557596225996349,2.9813534752802298
2.008,3.8391483813693412,10.806880962270043,7.711185484341968,4.2311851416379795,14.210791284525385,-9.144149011477566,1.0921496261580614,6.4806265027109475
2.012,2.265725329388715,10.781013006968806,9.337094035131486,5.830859929510552,16.81725341201036,-7.250989627643321,3.7940323073371474,9.646841887999472
2.016,0.7359819971343313,9.366385837629878,10.326514493735885,6.339613022438698,17.666596811443924,-5.607208414536217,5.7126839231141275,11.331279289456688
2.02,-0.3175978260160264,6.961329072471926,10.644573327223952,5.821638771270045,16.883050266656028,-4.688849441015009,6.328879038491323,10.960581483886017
2.024,-0.7587356272774741,4.26923884502412,10.213741029609537,4.559471693706655,14.849000552540929,-4.498795447982047,5.580083490651305,8.782020137352447
2.028,-0.8137412876608323,1.9887986387489036,8.956452781187181,2.884751630748724,11.985225447569974,-4.678098473091268,3.7893422446531986,5.688112324875874
2.032,-0.8780136576792756,0.5507498868423681,6.918756181608387,1.092489678171205,8.62304264173963,-4.760068910953123,1.4757050504958897,2.7539506653638455
2.036,-1.2168184135180127,0.024779126913017535,4.3849787395856765,-0.5440474059732878,5.017780063102691,-4.423608078234793,-0.8336736311539426,0.7509304214981967
2.04,-1.769409898131471,0.2093343497499518,1.872599686140802,-1.7260724216130257,1.4407696718149055,-3.623071925901968,-2.7224819573757486,-0.12063811956249992
2.044,-2.193473169972549,0.8084833789876029,-0.037542640709489206,-2.1480241905933326,-1.7731501902740092,-2.5541884930889864,-3.9464592432486825,-0.18281569076407322
2.048,-2.1168065721908533,1.5750237587367337,-0.9560527313401508,-1.6098467043470919,-4.28434031721622,-1.511503962824463,-4.460993247696024,0.019180850657903648
2.052,-1.435683273147788,2.33916492757362,-0.884453877087708,-0.1728362602048037,-5.888685887921156,-0.732760874183441,-4.431618240388616,0.07097192433320743
2.056,-0.4407836476493685,2.9478509145092175,-0.218679544733277,1.7648017234237159,-6.63380525655316,-0.3068123455486784,-4.1989108368002235,-0.10128981428988482
2.06,0.31219461859382136,3.192717453440082,0.4623554553209033,3.5589254854098726,-6.800333704200966,-0.174186267908226,-4.174351658315572,-0.25345596559054684
2.064,0.2822779601938237,2.8077114931752476,0.7095319364093484,4.5501124293891735,-6.734991814763589,-0.19665813014853484,-4.674557721316887,-0.030972667525929864
2.068,-0.8047697747460916,1.5617678845269438,0.43385948929517326,4.32496423084649,-6.632995832574352,-0.2488457777089934,-5.762267527002223,0.780885602833223
2.072,-2.8802398309953787,-0.5967963894399873,-0.07864510183253515,2.868356263672922,-6.412371093706952,-0.28359875109072163,-7.177065749486701,2.10019079572794
2.076,-5.636862444522194,-3.4309425019162063,-0.3686255389834514,0.5332490638174932,-5.771368531932694,-0.3458995125324691,-8.414761864528828,3.5613946699218104
2.08,-8.683285151987093,-6.411754618442728,-0.08076701791765117,-2.1153745785827596,-4.394294772041576,-0.5159029229157568,-8.926756968254722,4.703247016831028
2.084,-11.615149266367553,-8.84534787940811,0.8589842163037247,-4.481427436477134,-2.1780528888118624,-0.807871792365404,-8.342735129252105,5.211269621906013
2.088,-13.984886321834892,-10.093172883101943,2.271030944533777,-6.060109611241387,0.6648605839577613,-1.0926980931244543,-6.59693007346732,5.089880177395571
2.092,-15.259206106037254,-9.798821049275602,3.9128859071493025,-6.480376224172687,3.6947187404898614,-1.0813545341434292,-3.917332365837865,4.681034603342596
2.096,-14.946293583152965,-8.060203023503846,5.657631327272384,-5.55416662079233,6.435570963806413,-0.41923551156332906,-0.7137652321603127,4.496085544982634
2.1,-12.909562721574503,-5.479796037150663,7.501203830808663,-3.3835540728196065,8.520863786476411,1.108624163740842,2.5368198511055198,4.924603201376158
2.104,-9.679573146396478,-3.0439047838860915,9.385779380083704,-0.4727882747820331,9.707035916020459,3.3597433700897454,5.344980465154549,5.977721000816928
2.108,-6.489070401167737,-1.8324854101863366,10.981389303863352,2.2739958779652625,9.776539516013827,5.740515594320641,7.215010921127032,7.2044861589661195
2.112,-4.848267395041148,-2.6158769889570976,11.656209928847147,3.7882985045439455,8.477608649960303,7.3442332464610445,7.702538226468732,7.850240828751794
2.116,-5.762364934550533,-5.467812863983454,10.758155531672855,3.2967039283644226,5.6384010312287955,7.320971527626625,6.582477179613306,7.224755619496136
2.12,-8.992922586538953,-9.579726964524752,8.087157998432076,0.8095916188508454,1.433300442788095,5.333818412236269,4.073513863149401,5.109094807748079
2.124,-12.872191386185477,-13.434124814567895,4.248880614725977,-2.675464667115193,-3.389347909235539,1.8520154052007456,0.952395056977366,1.9801949387506284
2.128,-14.944395037778122,-15.356978229353444,0.5819077452290458,-5.486979562782835,-7.563345434494067,-1.9234226271314583,-1.610310158199809,-1.1045180010964941
2.132,-13.239702118804644,-14.292894349506696,-1.4563365002159117,-6.075455155283635,-9.792634342999918,-4.54826445044273,-2.5564830972498385,-2.9761335578173203
2.136,-7.531749465103985,-10.45691529671035,-1.1771761277279893,-3.9288860680619564,-9.50515677753424,-5.0430481646067165,-1.6071633655360529,-2.965359581157827
2.14,0.17760349530681196,-5.499269099018875,0.6855601890167691,-0.09356236517578509,-7.461347802560795,-3.4593077421009184,0.300493993098371,-1.339702319852222
2.144,6.341704494199803,-2.004994174649255,2.031243522247223,3.0707912614161614,-5.770250466892321,-0.9689908648083474,1.1582762511102374,0.6837680407497828
2.148,7.504350891836566,-2.4402757283767187,0.29097472855778506,2.90916037000261,-7.108784591753192,0.6258006142729755,-1.2987524952641252,1.4201676431607666
2.152,2.081285446259244,-7.979785153772809,-6.195767702193507,-2.1891595375911947,-13.395183903649922,-0.2350173930803976,-8.405573291650398,-0.49470677098270244
2.156,-8.652375055373795,-17.75543062960105,-17.01627735240868,-11.793819030887335,-24.526538984752733,-4.026518825122366,-19.575612666976667,-5.3574229220448615
2.16,-20.9513771167492,-28.946180294579108,-29.419898503932018,-23.337427460065555,-37.90102025815145,-9.781388613062518,-32.091662926336994,-12.070676974829894
2.164,-30.22506320783873,-37.7551467813546,-39.217002963861205,-33.0430641830003,-49.11412391263491,-15.429405821858836,-41.926126571989016,-18.43081686136975
2.168,-33.07654725714974,-40.87789440935785,-42.48571232338645,-37.45760180072102,-53.62477663118784,-18.69580159681618,-45.30180567487196,-21.92332739395897
2.172,-28.73255644187111,-36.822408558663255,-37.288217993035005,-34.86943571731763,-48.67568234776604,-18.118600947567757,-40.285242266885916,-20.682661760210976
2.176,-19.170522035850126,-26.48398372776819,-24.547551539454844,-25.939189623331004,-34.55458584437554,-13.675911605659167,-27.64039169952025,-14.19694608655982
2.18,-7.966114939342333,-12.730543965007314,-7.659970399457961,-13.286978624952553,-14.58331379840456,-6.728395549520201,-10.534200763644776,-3.482161026074664
2.184,1.4356424744255492,0.7733013419600638,8.937978024563222,-0.31144057931123825,6.162672161698538,0.6496142757314374,6.747623708945639,9.301685195333675
2.188,7.118715914476297,10.948644856181545,21.525882858798354,10.152762027788185,22.806582758400282,6.581653586443963,20.450621628770477,21.587278993450127
2.192,9.142166271413089,16.297669358564804,28.347971515547442,16.734465887052693,32.3991773740795,10.09362711266408,28.58663558448643,31.17705247964659
2.196,8.97746703641019,17.137288112165606,29.837878971906548,19.653067104420643,34.677251576739536,11.300728391641314,31.24738700284138,36.77742492490847
2.2,8.419051952702034,15.085110986202608,27.884305663038504,20.17128141950616,31.643917276172488,11.06326746782588,30.014795440374655,38.18067675798375
2.204,8.64008806355605,12.140811637345564,24.649193497133638,19.760328744853723,26.315776192774138,10.371643413386892,26.910185827306577,36.1162463947212
2.208,9.855704583964553,9.838902094887885,21.60751575002064,19.424980437906015,21.334710095226683,9.830543339114229,23.493578775774722,31.909904840082163
2.212,11.588891739700557,8.813559850910906,19.22866147062507,19.438718505533416,18.080708075314988,9.484775004591029,20.51555475835835,27.093218809367045
2.216,13.175926341795048,8.839613819989381,17.269333852685918,19.469066013561132,16.550008521687687,8.993995100181337,18.11436639106205,23.029889864429606
2.22,14.133490198142795,9.199909773725494,15.329237779299206,18.919066883220694,15.853317073634571,7.982589203571024,16.24237612722027,20.60608563645974
2.224,14.200861135670266,9.126873429173656,13.256281702275146,17.272088236302807,14.934253020008782,6.323730931389491,14.960119680478101,20.04830008339809
2.228,13.200209613962556,8.13041075451622,11.188363813291517,14.320835470138036,13.109847117116828,4.215760987466638,14.404173304213828,20.93008913175936
2.232,10.9613838833817,6.124863172342543,9.31058247442877,10.248024418367095,10.242380727113641,2.0541984400267665,14.522623964278182,22.380796990703402
2.236,7.4717269014768135,3.400966259138272,7.612528376842079,5.603381215860736,6.621185280480859,0.2345513713796663,14.867725052392643,23.470033084542592
2.24,3.1906693727548827,0.5283475857401072,5.893438211511125,1.220811605780682,2.761639683095268,-0.9655027083720142,14.693770286830954,23.637667073351622
2.244,-0.8103687580337464,-1.8004228373059732,4.005426810970675,-1.9761039141765195,-0.7416143824696064,-1.3852992747674762,13.355310673138206,22.95683099109965
2.248,-3.101757751852574,-2.959394975742555,2.1339121185998238,-3.2530104860484244,-3.2750075130932146,-0.910140676959827,10.759337641809338,22.086189403038134
2.2520000000000002,-2.5285379081600468,-2.5867965269601427,0.870898251347171,-2.352228902532488,-4.2546630582512535,0.5648608528913428,7.564379129576082,21.907834171780905
2.2560000000000002,1.1037369697060058,-0.7294283460194038,0.9641437889295048,0.3535278764912846,-3.2461114905827912,3.0651874473143152,4.953710048875564,23.02581178187529
2.2600000000000002,6.7242347851394015,2.1335387735116456,2.8625310785895977,3.9570423313156198,-0.16636840242858852,6.39479502888571,4.053450470713187,25.38019085361077
2.2640000000000002,12.346966698767972,5.241755136829283,6.3503736010358125,7.3667484362085816,4.543163725833381,10.032190458216974,5.3281995740367165,28.196234792950463
2.2680000000000002,15.959399646929114,7.832412370960128,10.522132676611477,9.760936852481791,9.908526124740604,13.174001183458813,8.28398449758754,30.312867438715102
2.2720000000000002,16.477391557809824,9.419181050933332,14.154007692891412,10.901346058765057,14.652732597329646,14.960900968881333,11.660600335982963,30.728722476837447
2.2760000000000002,14.239327263110908,9.93265295209369,16.269113842489332,11.127895411786312,17.602035211285624,14.805374214460926,14.013077381127914,29.07174604452814
2.2800000000000002,10.771057507413047,9.654709410631256,16.572511155290954,11.046594011599552,18.102703511724826,12.675083751099464,14.375909514692921,25.75558866762151
2.2840000000000003,7.950866035919603,8.99631392925329,15.522623015730233,11.099153655841747,16.261934639167805,9.176378198611701,12.663133642425464,21.748843448610614
2.2880000000000003,7.0761963045323455,8.278838517228394,14.02211858688878,11.30281739505358,12.911913354216551,5.38015666886281,9.635512148603539,18.109370963270635
2.2920000000000003,8.325623964925796,7.643136956179774,12.926832659484148,11.314666832930527,9.305940190653644,2.4445475106172125,6.4900786018359895,15.540234028540226
2.2960000000000003,10.873742700816024,7.122459127635068,12.659411738187373,10.767398855287922,6.673778444481229,1.1865966572025854,4.290033321252793,14.178655579432188
2.3000000000000003,13.503518674248653,6.786229509218828,13.118570696083992,9.626124155954358,5.805926452568912,1.7803443566033934,3.526999944092836,13.68716124977982
2.3040000000000003,15.290433903805535,6.804097750507026,13.879403790193948,8.296136547155754,6.808765851641851,3.7035973911968085,3.998273163777924,13.539607953947211
2.308,15.973350141555102,7.344700363072178,14.502692055290368,7.387952034372063,9.098284597459497,5.963110693570002,5.0017205867782195,13.304243269021754
2.312,15.83833955564694,8.355130938486525,14.746446809483189,7.268520522285769,11.626745615057047,7.505973602207632,5.70724610222004,12.77998851420432
2.316,15.308649331161575,9.397242928620642,14.587771715810561,7.720360343072855,13.271264852395632,7.645073347268067,5.528947286612777,11.956121769129936
2.32,14.584146088809518,9.70721544910316,14.101298101632949,7.977155640558408,13.253035290367222,6.330499764924866,4.342367503506807,10.88033485199719
2.324,13.553854833256821,8.505291665691118,13.324843457834731,7.147996258020157,11.429835685921091,4.149734335475159,2.486861710932544,9.565553618991771
2.328,12.023504738731617,5.436428372465798,12.238688173951687,4.804772571417402,8.355607124003882,2.060903761121949,0.5837565474312214,8.007944229760028
2.332,10.0326996971408,0.8784258769593407,10.857885969798076,1.3522223666547575,5.055808571164675,0.962500614645819,-0.7442089287864064,6.272135622590554
2.336,7.996866590747743,-4.093141500026832,9.341120926030442,-2.082241403162584,2.597056671975679,1.3028468858760789,-1.1351060715225003,4.55215238395715
2.34,6.528997604392316,-8.124883090052208,7.983764809957734,-4.229807685410492,1.6126543712366015,2.898716880870438,-0.6380151953607083,3.12644599595194
2.344,6.053026879687138,-10.193840378742493,7.075170154593991,-4.406648454828087,2.008201990289251,5.035559220297841,0.29870647736049705,2.2049245212014057
2.348,6.465214853844429,-10.090698879580202,6.698829523337679,-2.9546661382340744,3.0042997552015436,6.80063152215007,1.0000253097081213,1.7734229009140563
2.352,7.099458817515085,-8.510822938345257,6.618000640337414,-1.110334995616995,3.5111321326747884,7.484943250578112,0.8405267351132579,1.5578935080811789
2.356,7.062230446714921,-6.681701039224379,6.358306616554387,-0.3390604287799306,2.6704378783881566,6.863783691552044,-0.4888416378889815,1.1579011800688477
2.36,5.725965018131774,-5.739199853995444,5.4628247311294444,-1.5106175633171688,0.2953050535256807,5.22973718482524,-2.8472934462192825,0.2788732639058935
2.364,3.0966952627925366,-6.179621986513325,3.778695128288234,-4.379417536572873,-3.0211753116916498,3.186932141005059,-5.694607535061095,-1.0744788434705015
2.368,-0.15388335192005798,-7.671069389939078,1.5793024407672078,-7.672662227328601,-6.205304247131835,1.3364439363846259,-8.307579777511592,-2.579897867487489
2.372,-3.0255438991131314,-9.314106811160002,-0.5708401724745045,-9.753754026993875,-8.262493214349831,0.015462382171108402,-10.078854857032866,-3.787809415513607
2.376,-4.714921895158,-10.20033732694867,-2.1445358129973897,-9.510699856916972,-8.811447109484789,-0.7929331164685891,-10.76711218456171,-4.415647255491649
2.38,-5.023247843008221,-9.944414794117279,-2.9878355017092986,-6.981454236024888,-8.30925894150073,-1.369081867468367,-10.585392371260923,-4.577675945791384
2.384,-4.418400822615467,-8.885791181169793,-3.433128125655344,-3.3641377136785877,-7.822945631579785,-2.051144765953268,-10.087651339413583,-4.784813543022324
2.388,-3.7269115244274644,-7.85700785281216,-4.113342564119705,-0.4146627484143437,-8.46593720417917,-3.034758970874009,-9.91810910170932,-5.688444072252196
2.392,-3.6325210525471903,-7.651345486915659,-5.5649907172360145,0.45728209695062105,-10.783366635318998,-4.2754822546534115,-10.529694418584995,-7.694944623445963
2.396,-4.268323589424199,-8.492368488491593,-7.834070753931542,-1.0811262745627346,-14.398197920298742,-5.511355291711993,-11.969331894934498,-10.657252788565756
2.4,-5.114453692467464,-9.80360512252446,-10.325161141289925,-4.098787027690037,-18.106090436831323,-6.3636307817982924,-13.814849561038727,-13.818968769416415
2.404,-5.262835810581805,-10.433661921513817,-12.015890780980158,-6.852096491265797,-20.393967374051044,-6.466387726462472,-15.309418011033245,-16.077759169137153
2.408,-3.9300820685864437,-9.244102904145848,-11.942129495583004,-7.647174429969368,-20.133465870217208,-5.585496509901077,-15.63697860445643,-16.460079426802167
2.412,-0.9683822006705896,-5.759775609661517,-9.70252693802729,-5.68796429928193,-17.115619881822795,-3.713475823597264,-14.247508841407353,-14.585752181719954
2.416,2.9208169819465866,-0.5240166153251948,-5.718787690760678,-1.482235067851775,-12.166573977950975,-1.1172824056761783,-11.12251021273471,-10.89102911852342
2.42,6.409370389014384,5.054399733465573,-1.0937548093758096,3.3936207384813315,-6.7875634421152995,1.6827555247687087,-6.859386778154999,-6.494560893535436
2.424,8.11582145629427,9.313042221432397,2.879991042246729,7.051634831780689,-2.499108060473816,4.025775280918879,-2.5046014990916774,-2.7582618423230088
2.428,7.26914202480782,11.111393354589154,5.304385609299175,8.19019693149346,-0.21201186878573708,5.314523439085178,0.8113743286639874,-0.7533590930872833
2.432,4.144851642321214,10.372498132398619,6.057697380771401,6.705099864487465,0.08370913239673428,5.25186281149513,2.3179620317172294,-0.8654522671838549
2.436,0.018729910825072693,8.097486779044857,5.779981560426904,3.714982014719567,-0.8183124941005531,3.9995388639040357,1.9368378712226786,-2.699350943069703
2.44,-3.368613632745223,5.829324589017233,5.479204550806912,0.99629483128831,-1.8290675308546724,2.1628271562922237,0.33430616608563923,-5.300562915606406
2.444,-4.6148990425064085,4.829463527155326,5.962463407592622,0.09880006983030398,-2.1467152860543592,0.5589733795175107,-1.365717289354734,-7.584938661774913
2.448,-3.3100442752008803,5.422075842663844,7.4037296905851235,1.6091245353972,-1.6154824110435584,-0.13603769353971984,-2.094089054527103,-8.750235531610087
2.452,-0.21559680249913526,6.856984271996339,9.267200869801968,4.908877176680903,-0.7011602873858465,0.3091597989719048,-1.3412092117555403,-8.505103752753712
2.456,3.128186177338989,7.7760554733270055,10.617986003767328,8.524836978266649,-0.12499641626016,1.5832402413773252,0.6003318502455386,-7.050293052562438
2.46,5.220136811587622,7.042434871368414,10.647603526250236,10.903984943253931,-0.3750115918768415,3.016094651778303,2.8003452248592566,-4.861386993766928
2.464,5.3848872358797735,4.4571168458337524,9.124127478452351,11.180924069000298,-1.3857532407519102,3.946989303442251,4.192046954755597,-2.421063696719557
2.468,4.064641979410908,0.927928522018874,6.516947141631476,9.528049019462628,-2.5799103868495195,4.0606078732066635,4.143188298229461,-0.05110216200796458
2.472,2.4970494388948055,-2.0025915634213334,3.7507311689856806,6.956983264656628,-3.23267316481099,3.521606692476098,2.802678577379993,2.101455089119554
2.476,1.9547977984694853,-3.0142046990928293,1.733969271247247,4.7045530098962445,-2.9352471148681616,2.840001854009415,1.0253532886038101,3.95668283594523
2.48,2.985992792777779,-1.7578055494860791,0.9299954689837477,3.572982829965895,-1.870200641301608,2.540430479494262,-0.08295343963391133,5.383370898777457
2.484,5.110290264371542,0.9484385734027683,1.2098101230117209,3.6009282525019444,-0.7147828684511524,2.840568432871578,0.2500444833401616,6.180367694267488
2.488,7.15401131003739,3.5871370457733747,2.0361195160364787,4.213896647631373,-0.22503657669062704,3.5314842446155126,2.05956173821005,6.17055891644759
2.492,8.025076084597458,4.811084807610428,2.850005792835532,4.7211217094532,-0.741978239638911,4.1263050177483365,4.651809217141135,5.363147633326889
2.496,7.4477892353995685,4.20366062584651,3.4111768833159886,4.818511356806312,-1.919684655622632,4.181654496055899,7.009693054950731,4.0762117327128635
2.5,6.172249486177179,2.4739017275859396,3.8776167848058094,4.751144136209177,-2.8681391712465256,3.581913625966081,8.349796176242307,2.9014260354827
2.504,5.518419157825065,0.9797402748598643,4.58512205826446,5.046298719919378,-2.649986986402837,2.6094122789925223,8.514593093409985,2.496653926084946
2.508,6.500364476900927,0.8704475062035044,5.687401032500702,6.009148574624078,-0.8509471055432414,1.7609599580187023,7.990440624430221,3.2947649616244234
2.512,9.051498457460866,2.3659710807963847,6.9189024947066855,7.339526414771171,2.1172297764760515,1.4346260307747798,7.565526609735343,5.2812711375243
2.516,11.873765070491118,4.6141236715606055,7.6604994757460645,8.166357542333571,5.180536236633088,1.6821484994989078,7.844088859814292,7.9648854041547565
2.52,13.058992346996888,6.208759514223402,7.296080874427844,7.527867074868482,7.1611557317636425,2.18174899130463,8.91076328805616,10.572274296243677
2.524,11.167309444577995,6.046958027411279,5.656473690389703,5.024221541091947,7.418721912346882,2.4533793923762914,10.323493706287763,12.383395766452168
2.528,6.135678167818128,3.9956009559705308,3.2530026376931573,1.2177480711713997,6.199456884126221,2.1789417053653324,11.407890982643949,13.035747656226249
2.532,-0.5275120081605564,0.9703798659595577,1.1192171603430552,-2.5067054433375233,4.487104410063353,1.4157025189804244,11.65893518294456,12.642670283976031
2.536,-6.408330309791381,-1.6077062862405,0.3110044864470183,-4.589320467764082,3.433778534552971,0.5744454564335228,10.998724938939858,11.671481766548823
2.54,-9.383258974292971,-2.650319451859559,1.3201910434729598,-4.1097888058100125,3.6889273704998686,0.17167583426066813,9.74995780690142,10.649427867410395
2.544,-8.703473928082872,-2.027194605846603,3.7420559806671463,-1.3073617346633455,5.017566939411381,0.4996704670861618,8.380679959167537,9.864307280750609
2.548,-5.351084811452665,-0.602200947423853,6.401720862208322,2.5099599246805155,6.425375796231037,1.4134537596389691,7.209550625306747,9.22951888368084
2.552,-1.4939222067807805,0.3147735918624903,7.9016499840101915,5.6322448523810635,6.715865079214609,2.3709072418930646,6.263176989196154,8.388457669754416
2.556,0.663303541514324,-0.2345064322756798,7.311948546319741,6.8268755535855234,5.168919282739921,2.7146008535050896,5.369737367970629,7.005961782441773
2.56,-0.022808441151710213,-2.2997000515665604,4.633010326210751,5.928130661255409,1.9547209539525738,2.0486025402904033,4.40136329434722,5.083161934417603
2.564,-3.159037338783037,-5.0223683011968205,0.7768367402256899,3.828091399919458,-1.9518399043555519,0.48787683269893023,3.4631968398618937,3.0984964847393712
2.568,-7.159207509136422,-7.1641053069830605,-2.9047118350555365,1.9092221243317908,-5.283346495442629,-1.3512245433253156,2.8948981497323985,1.8828426799796034
2.572,-10.170336088058093,-7.830868336625485,-5.272630871684328,1.2476704443215567,-7.109912736462775,-2.6268575688554847,3.069648006900934,2.261697743957484
2.576,-11.034093483283641,-6.963591287210647,-5.894861167681711,2.0427592036012356,-7.243450723996261,-2.6795043774441183,4.121840193268781,4.620041068013052
2.58,-9.768532672325364,-5.326923544147235,-5.139943951339319,3.5739881958702426,-6.213356099466182,-1.3593875879510051,5.7878224320584195,8.61063547544154
2.584,-7.379597340321652,-4.028083832174957,-3.8435099742118837,4.665563038168784,-4.85378582094404,0.8969512122544074,7.500961621673014,13.176645476912654
2.588,-5.190116902759655,-3.8788315550998504,-2.7793834839162628,4.356163960096637,-3.7833901547065807,3.278616974199849,8.688732815212688,16.90058152249594
2.592,-4.1316972656336475,-4.984619101059707,-2.270675130547488,2.38364901732848,-3.1044020059019886,4.973204855328731,9.068779627102913,18.528723540810915
2.596,-4.375475702007634,-6.756978367872762,-2.128515706096323,-0.7491634208920459,-2.471605784572148,5.520273915868529,8.764395807420897,17.451343964908574
2.6,-5.4505071497305835,-8.309258692258254,-1.9131946215768494,-4.11448723357762,-1.4560592247704562,4.971373332241001,8.157447653556574,13.921990459168683
2.604,-6.675150837548472,-8.957581610940906,-1.3086994865307133,-6.849128309072512,0.059543160835119124,3.799846388125843,7.580606550525999,8.937767769564744
2.608,-7.595154832763001,-8.536496034222182,-0.3660891541642286,-8.515123358982237,1.7144507759153385,2.6140496261105,7.054563648575595,3.84477402674338
2.612,-8.142703910062664,-7.369474583600777,0.5363739265985714,-9.149207162732182,2.854900749304079,1.8447008621351415,6.2618236084986165,-0.1529035928851954
2.616,-8.48274973357411,-5.967297694252238,0.9756236696500764,-9.041149390458486,2.95837031190149,1.5751211566166603,4.79535786146289,-2.355052905983939
2.62,-8.718617153405603,-4.685558851348333,0.797723049603519,-8.442992478377164,2.0116472996585344,1.5932180815007086,2.5205634184276278,-2.6900458421873736
2.624,-8.689611141540581,-3.556795686024543,0.25137087015878024,-7.411066669585807,0.5926094237117923,1.6146774401227049,-0.20069129229295868,-1.5961422170084916
2.628,-8.023833791335392,-2.3890589296574944,-0.16181027349716715,-5.878071549524975,-0.4201105626566459,1.5198755943847573,-2.6046713869754967,0.23259383850881932
2.632,-6.392103725572952,-1.022490814972116,-0.01838554168580231,-3.86571033879477,-0.3460762059969511,1.461693503141305,-3.9056425272688102,2.1073017583130422
2.636,-3.7681919774840935,0.45986698329511455,0.7409300057663586,-1.6581553234741477,0.8913352118997864,1.7711330791416913,-3.747866776393039,3.5228237415990407
2.64,-0.5316469829585913,1.7174327729485412,1.7568311226423248,0.20003047178533961,2.7012228213213803,2.722199893550169,-2.437584036159933,4.2294233862226065
2.644,2.666463582538654,2.350206195326109,2.4749397779137325,1.1115608129910015,4.157973923982581,4.292752063589887,-0.787872097210311,4.231092492128937
2.648,5.186647191210341,2.1701126405387186,2.504317840313661,0.7223846690092159,4.538809830315131,6.080917335253162,0.33986904026687625,3.75326854729974
2.652,6.6419946503592655,1.353034908904192,1.881251763725004,-0.8791791526482484,3.748782403338282,7.44579964501736,0.530797055822859,3.1851989384895205
2.656,6.980934630264983,0.3632906297982572,1.06580386250198,-3.173868213501464,2.3781794908686607,7.808843564404924,0.048187484886057064,2.9807646922813547
2.66,6.397860495275154,-0.31600604909112917,0.6641718983166811,-5.438395255019714,1.3458646139433768,6.946854477438137,-0.35467048117652666,3.494616018776469
2.664,5.164425176228178,-0.4822048485416417,1.037897830455222,-7.071527228632021,1.3287267232933573,5.112442178518904,0.049448212153038185,4.786053474499113
2.668,3.514408524726605,-0.3471279144412165,2.0576243228517797,-7.8448119297190715,2.3233152279649403,2.9111712014150726,1.4610191706460682,6.496182627397502
2.672,1.6593617753883336,-0.40039832434808886,3.1673103199166235,-7.953119425818386,3.61009380214432,1.0176504031364857,3.383548180420803,7.897197155025879
2.676,-0.11693431681123911,-1.074485881859573,3.726845090606048,-7.853746595448683,4.150000586587566,-0.12097234646171273,4.895466393707466,8.147305658090772
2.68,-1.4236308526005814,-2.4206228635878233,3.417994027748591,-7.998788615308968,3.18835454572627,-0.4417088046548088,5.209695527972599,6.67305100259955
2.684,-1.8476104638580182,-3.9896893175766763,2.4620754443906208,-8.59632041780651,0.7204631226211404,-0.20806124752425603,4.172238470256161,3.498034391087458
2.688,-1.134972401883715,-5.003372902262527,1.5190530903075796,-9.50522468138297,-2.4449880147194563,0.1988833660943783,2.397391565961698,-0.6560941471716433
2.692,0.6355960046676046,-4.742698380464844,1.310131040689157,-10.31308003791628,-5.071250032251555,0.4996289719474589,0.9321238606576117,-4.587232120037243
2.696,3.0183465544453156,-2.9455248802617007,2.1840840416277842,-10.546259761460533,-6.1196324643972275,0.6190150381371495,0.6507426406810737,-7.088699872336292
2.7,5.359236202677721,0.005953930773102911,3.8801910010499796,-9.90356861403825,-5.264629645452942,0.6270825438605243,1.74358283693482,-7.464747415212969
2.704,7.065025583189936,3.2207267866210714,5.626581420837965,-8.40577322208901,-3.0171668653681536,0.5981512310622747,3.61093330775293,-5.823212515978412
2.708,7.850250691655447,5.7062607858026695,6.528584733525122,-6.38446150927939,-0.40094305616253223,0.5195165381901461,5.238697707458414,-2.992522693045885
2.712,7.826483205682962,6.836294903967655,6.026532757498217,-4.321576510782052,1.6170866539107465,0.3189908033496067,5.8177832154383395,-0.10789295457925618
2.716,7.377543463139773,6.623512865063049,4.163904882323095,-2.62867849987515,2.600665822023984,-0.02286117789662967,5.2218639700395215,1.9123562025392857
2.72,6.923284710834196,5.6754334520408065,1.5486829077899529,-1.462164642919106,2.7757720422162038,-0.3636415518112699,4.061020879596526,2.7357990569962567
2.724,6.718055988985498,4.857016401685314,-0.9543224302503859,-0.6674750696215597,2.7697071924578722,-0.40495775760746255,3.2783157039220896,2.6540275713909978
2.728,6.794356950914562,4.835684071528021,-2.6176191222712077,0.10993703020039902,3.142302956348658,0.15005814567757625,3.529872506239826,2.2920592883856443
2.732,7.0750927414858324,5.755538696909298,-3.1256487007833584,1.2076420571547715,4.008514387612649,1.373100614638588,4.732989322196772,2.1762363393436317
2.736,7.540234085162865,7.192619484673742,-2.624563310974054,2.7271549115359903,4.97618374947092,2.9775428790599108,6.061501459502324,2.4159631946831723
2.74,8.303160396957992,8.402560743616732,-1.5628039580410586,4.429961207605402,5.422809448371709,4.384954708049463,6.40108592214483,2.6757922607534965
2.744,9.540301634228399,8.729348371179867,-0.4406316328995672,5.824570678254304,4.938975663406609,4.99045323277187,5.003469032378689,2.442287730410044
2.748,11.316244336428781,7.961277793337786,0.39875603163045525,6.416322612825297,3.6606565407585094,4.4923198008705185,1.971164477988168,1.4145819896930334
2.7520000000000002,13.444750518364344,6.466788840296431,0.8662609399764278,6.0074840582124125,2.2894727919454,3.102431004598202,-1.697181427338819,-0.21475742773100137
2.7560000000000002,15.50758526611071,5.051131460817487,1.1124111512863237,4.881944549674245,1.781131473873529,1.5031189876649478,-4.529895860142915,-1.7594794312185513
2.7600000000000002,17.03637551714587,4.594610725430357,1.434492669356132,3.746995991647964,2.8648682681302944,0.5462229208169447,-5.257747423589535,-2.33437720455413
2.7640000000000002,17.7476813098217,5.641789574510767,2.1475718035342197,3.4194012943412417,5.639398887417201,0.8384741833674525,-3.4015172708727732,-1.3141377395090785
2.7680000000000002,17.6939297008596,8.139833091157698,3.4606044788131385,4.405565867737096,9.46684749478186,2.4364880245202585,0.5130389323994677,1.2902535694233848
2.7720000000000002,17.220944538252525,11.433642163542345,5.36257276370111,6.58908498732626,13.206532352084196,4.816340244595267,5.177905557759459,4.736414243530362
2.7760000000000002,16.73169240828156,14.509162001226741,7.549720128454055,9.199377301466484,15.659012222560477,7.12666970320015,9.036757267412668,7.8000111545075015
2.7800000000000002,16.414203794787454,16.38206730695083,9.44742241810195,11.11767283721565,16.011963755442594,8.582270757641709,10.876356028972168,9.26288052308064
2.7840000000000003,16.11267873362226,16.469402252284226,10.35621070981233,11.391211407287528,14.095459160454539,8.797587192808805,10.23662213946227,8.428510437712248
2.7880000000000003,15.414069971903473,14.781984092567427,9.705851467084813,9.687887506348716,10.369337271995391,7.887585322132509,7.495012394724199,5.432361758798379
2.7920000000000003,13.919409510151354,11.873585546652293,7.33121615948744,6.461804476087764,5.698120536145552,6.316832166817676,3.64600030713018,1.2050987894081118
2.7960000000000003,11.531045180556248,8.580255265193045,3.618060533985272,2.7356553610379706,1.0321661159166524,4.615387626354277,-0.09398152777293944,-2.883730109217595
2.8000000000000003,8.575737785095725,5.688479692414603,-0.5587087275864633,-0.39240226131732925,-2.850554483066162,3.123764435933481,-2.6888087070183246,-5.534898372433872
2.8040000000000003,5.7001719888287425,3.6885421190459056,-4.107756083137701,-2.248071756636591,-5.4618807578904125,1.9054377171041779,-3.561763161424551,-5.980260069070027
2.8080000000000003,3.567249789587322,2.6843537753973123,-6.108936939626801,-2.838617710710423,-6.600824035761889,0.8404876015847549,-2.6993625744303245,-4.219068058079301
2.8120000000000003,2.5363889309160186,2.476676923523428,-6.142545944631593,-2.7445804994688388,-6.295618120635254,-0.19359013647772372,-0.5750664963024974,-0.9598123287601084
2.816,2.519245334073048,2.746991315161722,-4.415233204026663,-2.7186183656679077,-4.753877575125216,-1.1754103531461624,2.062077903780846,2.6882193286128313
2.82,3.0577164515150344,3.208556533626961,-1.6445907468721543,-3.2464800596364967,-2.3535920448657635,-1.9289929271772053,4.4338910296025915,5.61561911545914
2.824,3.5915603738601476,3.6676417821488485,1.2300756922898017,-4.300504094770986,0.36574501167581275,-2.241961137797716,5.952507892025551,7.05658085175628
2.828,3.764135779606022,4.006717924593659,3.3899411826516825,-5.3981121328454265,2.781276679259463,-2.011631750442575,6.37680876896593,6.785042868742039
2.832,3.595965777817355,4.146575663413614,4.391579106460995,-5.906615369154224,4.351804758718686,-1.3094063936932798,5.8683680314120465,5.128574349219889
2.836,3.4402638098440548,4.053895922538004,4.262406124340032,-5.400098050188717,4.825077989023839,-0.33138799685684717,4.93879220433314,2.8251854182994975
2.84,3.7769335501729984,3.809113234358165,3.446427984642014,-3.850270699993416,4.392588854835708,0.7362460930335146,4.302257900850464,0.7940636670900858
2.844,4.930542765439782,3.650466245806001,2.6200992300444454,-1.5978746861168247,3.659481774396113,1.823272993617934,4.63576134122502,-0.1341106852505618
2.848,6.838183052852514,3.896156752256104,2.423400505775703,0.8129572004326064,3.3715572672236362,2.9547458961008033,6.2819972062460465,0.5090165461857623
2.852,8.980045226624497,4.71869023212173,3.163542625656646,2.800270643820113,3.9774359681666738,4.10539420691066,8.9747558028796,2.5945668611252586
2.856,10.479301635894899,5.859830372029364,4.5784433193672385,3.801132787483084,5.229317776588573,5.01850516493414,11.702764132196762,5.287143089989513
2.86,10.350636208138894,6.486149285980787,5.771570654493871,3.2418163226971046,6.066486028189388,5.137626548189246,12.84031247973212,7.155069819200435
2.864,7.84571700186666,5.372189501193361,5.422668719072362,0.5634322676098691,4.936416681595915,3.758773210423442,10.620798661302842,6.562133637878333
2.868,2.797020849770888,1.4393509242238451,2.2921251960724476,-4.580953827807889,0.499670386135449,0.37927139056728265,3.865856001930524,2.293644261910231
2.872,-4.156603033979422,-5.553113112893811,-4.141514944481742,-11.987567495132453,-7.574019475195769,-4.921606131051021,-7.296421411435858,-5.804318049250924
2.876,-11.576834833251723,-14.53557676146454,-13.1921141754666,-20.60512412306798,-18.116707011739322,-11.291889367336353,-21.082270585358174,-16.466477118157172
2.88,-17.541185577712326,-23.205885939843483,-22.918628824441043,-28.54732892569632,-28.594750615728344,-17.259152995875866,-34.33651968342724,-27.162104241031784
2.884,-20.220209860534396,-28.747552951890157,-30.64780573356245,-33.56043858155863,-35.89734964700335,-21.212059943646864,-43.46766730504601,-34.808172384535965
2.888,-18.55777187764329,-28.95007218334331,-33.934774997413456,-33.85202364589304,-37.5049876091507,-22.025693864463847,-45.73038566639411,-36.84841606763621
2.892,-12.769802565669465,-23.213806053731446,-31.559506162871344,-28.912302803967805,-32.52214323332532,-19.537701211735794,-40.32043445660361,-32.25553975238654
2.896,-4.407554268045715,-12.931746045842601,-24.084332328121945,-19.893122288018958,-22.0875185996764,-14.629045027888424,-28.74614800463496,-22.00766085558098
2.9,4.122201062995373,-0.9996919614925446,-13.659337787954655,-9.270222482800818,-8.94743871615151,-8.853052732863716,-14.253241431667902,-8.788081295728716
2.904,10.465955202704663,9.363643930448461,-3.1333247857450033,0.14232387333277075,3.6305958678093475,-3.765244323617935,-0.5300875570460448,4.0041124567719635
2.908,13.264510017821976,15.923197214390143,5.111004587684079,6.3658233111216305,13.098951744309602,-0.2850061320905297,9.718927537283662,13.510595662869491
2.912,12.691040792180388,18.23818958730851,10.037351211903115,9.040645655831895,18.46630241333139,1.5935623502086855,15.66572428879499,18.394279946169945
2.916,10.301009836927847,17.586500014313742,12.1179968438571,9.40798529656945,20.36315835187702,2.6021146090790808,18.298600637507207,19.102548086641264
2.92,8.221444086115412,16.082650028347985,12.752537792624025,9.483233973389133,20.38053036339977,3.640436572079807,19.498153717894866,17.33318932846396
2.924,8.07037291779966,15.48184266711803,13.294935609284153,10.873422950121494,20.07503477414707,5.166406311185028,20.784294401142915,15.01697321791562
2.928,10.137871610539491,16.306013705175133,14.24879235681908,13.872949800534116,20.17212826974196,6.877127013575773,22.44211120470959,13.351290724733644
2.932,13.257668161694482,17.721081580172836,15.072323576093709,17.317622011343246,20.3481960973495,7.866757192744672,23.487778469426758,12.358152669374022
2.936,15.460391406299095,18.18348358412686,14.669573617246101,19.280546147716677,19.64262533540125,7.18302856701348,22.447514578505434,11.15117455786799
2.94,15.077986041765598,16.4546472935707,12.231073510878105,18.209297061991947,17.201553587054946,4.470281284598968,18.470090177483144,8.69922516209931
2.944,11.71163130110665,12.39761630609894,7.900652871863485,13.866028615570485,12.911508631653419,0.32773737475827147,12.097325345043714,4.617597133504432
2.948,6.54740360715698,7.1257379236137695,2.86115767632441,7.558631260037259,7.577939141721629,-3.8417354888697446,5.217122852432453,-0.4640882387200236
2.952,1.8191045687801761,2.434911706389812,-1.2332586964688517,1.5259097289950887,2.555222322435668,-6.449474023656421,0.20091681912913373,-5.18389346496042
2.956,-0.3195058764705436,-0.13694158767418685,-3.132742326323637,-2.1740393757784204,-0.924926551640624,-6.498803525130597,-1.3000248277902529,-8.196414258127106
2.96,1.0833761230877599,-0.09488469436740843,-2.665745464768179,-2.670588501534212,-2.3403412447552796,-4.121747237342106,0.7708925791441743,-8.94604189399115
2.964,5.268153550720058,1.8039649497356436,-0.8224671714435772,-0.6508611544065843,-2.0712241619912106,-0.5670397931335174,4.820595603881543,-8.015609205299143
2.968,10.118448797190808,3.9916139543681197,0.7983091588068874,2.0614640727412734,-1.1301168888058442,2.370660316777503,8.390850468311328,-6.834541196429427
2.972,13.212853827006029,4.922685211929775,0.863419863027616,3.471561070808548,-0.5991448781620079,3.195986742655464,9.360537336223615,-6.894164189005778
2.976,13.02663635558406,3.848442646300498,-0.9844766128560991,2.4021470482631457,-1.0785118446515298,1.407705039666098,6.939793734543059,-8.89374477763863
2.98,9.678673965904864,1.13861361189646,-3.9618430436030962,-0.9894208770895148,-2.4259864340239687,-2.3009228957832875,1.9638175800132558,-12.301408839346664
2.984,4.827389111423827,-1.993541315717323,-6.599882453023724,-5.399911239944004,-3.9007455778340727,-6.4320421202385205,-3.6274345804275754,-15.595019032594337
2.988,0.8093977021287628,-4.172051823826678,-7.545854265604021,-9.104781207970404,-4.59380505441186,-9.438951683763321,-7.796523567436907,-17.062084113532364
2.992,-0.5231731590004642,-4.563188830472711,-6.262454608368671,-10.81438809960764,-3.9065934395383692,-10.453665222063137,-9.350449215292542,-15.742614228133789
2.996,1.3054248285496897,-3.2573696428100902,-3.2676973580205413,-10.237343281380731,-1.8495247008032152,-9.63645342811651,-8.363604481135098,-12.005236762449385
3.0,5.2146548781381625,-1.1519574573023306,0.18477067374982425,-8.105928195203887,0.9713357776873863,-7.985902683883523,-5.940482746583143,-7.432407792486742
3.004,9.148220781657812,0.5587132318034378,2.7676714739245654,-5.720712663792824,3.639274670265479,-6.745077041646596,-3.522667696372423,-4.065668194535874
3.008,11.104046795903002,1.008374073393611,3.7204904886547183,-4.276873017840103,5.333214192934406,-6.740084591300047,-2.154284694784792,-3.3860637022421542
3.012,10.1013956890842,0.07916033006938505,3.137558544586568,-4.307447088683716,5.661409717845629,-7.989797539912502,-2.0779692047954086,-5.564558349662093
3.016,6.619092184085446,-1.5787731059770636,1.80105629245503,-5.4888053266621455,4.789437138967742,-9.76237637036752,-2.8037071295810847,-9.365804317097854
3.02,2.318649584634784,-2.9178296312659313,0.6877654923005707,-6.862395782698286,3.3200266137037033,-11.004209435924736,-3.5437060625239383,-12.756955325608487
