Timestamp,O1,Oz,O2,PO3,PO4,TP7,TP8,Fz
0.0,2.5011104298755527e-12,1.1368683772161603e-12,5.684341886080801e-13,-4.092726157978177e-12,3.751665644813329e-12,1.9326762412674725e-12,-2.2737367544323206e-12,-4.547473508864641e-13
0.004,-23.329009380391938,-36.725904724484906,-23.2275242828336,-18.918108004831936,-31.69911187233322,-17.03948193428232,-13.846315398926663,-15.480082808768657
0.008,-41.0125143244083,-64.09944484854094,-40.898100984898974,-33.284551274443515,-55.716968680034825,-29.806307306280814,-24.23925466914511,-26.706943659777153
0.012,-49.79213685865727,-76.9032721810567,-49.87630074033444,-40.6194325844034,-67.69660674155534,-35.8736043850563,-29.271214146594275,-31.49981894686698
0.016,-50.01963068306031,-76.05092622375804,-50.60471565982692,-41.50971227108994,-68.23797704088472,-35.57729624119884,-29.302024344437484,-30.683883474149752
0.02,-45.14140350530272,-67.50074219222597,-46.45413125280777,-39.03490494864553,-62.08382174755525,-31.573685001810986,-26.514100936502246,-27.407115627626467
0.024,-39.76174864159185,-58.77144868560231,-41.679041903409825,-36.96746643998364,-55.364755147959244,-27.333506668976497,-23.59552289051544,-25.27213952020668
0.028,-37.369296741939195,-55.083706939452156,-39.195308873087924,-37.78594643823209,-52.489052510591534,-25.422926212717698,-22.337362520273985,-26.379505801726395
0.032,-38.90571472773047,-57.21916229299967,-39.40500197298837,-41.577832090222785,-54.34059487287371,-26.47894918977829,-22.92561234807772,-30.397118547018977
0.036000000000000004,-42.7895466305817,-62.054168809171614,-40.596854625185756,-46.33481864685086,-58.58457863171037,-29.318623304615812,-24.2352955129889,-35.094667778009125
0.04,-46.21775131687684,-65.16074310259884,-40.51127938102087,-49.359624773911435,-61.6602524780898,-31.962180616111027,-24.828875213677577,-37.894463436854494
0.044,-46.871241839337074,-63.688882640724216,-37.95800723253012,-48.86940188540939,-61.08032420450468,-32.86846465785095,-23.94788036550699,-37.4226474338102
0.048,-44.08478139138458,-57.86996826249293,-33.51943549931832,-44.89502927892454,-56.72487834676497,-31.67192008503548,-21.8931428294606,-34.1524734652636
0.052000000000000005,-38.94945708739141,-50.473221667015736,-29.014046124159222,-39.04844849003712,-50.562208197080594,-29.099982505701973,-19.62910851214292,-29.864555602126757
0.056,-33.50196330166506,-44.8536715614207,-26.212806349775178,-33.455788620288104,-45.227747069167776,-26.304120009391113,-18.006731319657035,-26.42004308740843
0.06,-29.609108705321376,-42.98100340841134,-25.733187343740838,-29.597551734090985,-42.50287532189853,-24.127010568706623,-17.19557655572413,-24.697401404099764
0.064,-28.16023332723387,-44.597628615327324,-26.79321715457607,-27.73190275037001,-42.58617050167089,-22.76608114192379,-16.72120962073882,-24.34779857037904
0.068,-28.96003165468693,-47.89006878932017,-27.962555032896802,-27.19564888617947,-44.49469720922997,-21.980890069796544,-16.089511452080217,-24.451816286565247
0.07200000000000001,-31.242796934220223,-51.06029592197166,-28.369262608207862,-27.2826253641137,-47.16279581884933,-21.60313925767781,-15.530704906300059,-24.5549712383322
0.076,-34.350104344974085,-53.655142637299434,-28.510865447055608,-28.03486487140958,-50.38552998825756,-21.91796926842119,-16.269152641098742,-25.310421597183733
0.08,-38.11508895592709,-56.77914250271937,-30.08897140248203,-30.382361100800324,-54.945269199852675,-23.59137241786584,-20.01698436752514,-28.2373307899789
0.084,-42.733241460015904,-62.0564225467711,-34.880163816005876,-35.48751581147849,-61.810825962683396,-27.15774959942206,-27.88944493114826,-34.691073944571826
0.088,-48.287023245917425,-70.11504093700705,-43.350697469605336,-43.720576005931605,-71.01050479761602,-32.42496561296582,-39.381065029817194,-44.689759643070374
0.092,-54.29970929417604,-79.66320304330546,-53.90887200397128,-53.94409911572808,-81.00789262318932,-38.22748855049326,-52.06863331681302,-56.38153218302443
0.096,-59.641548633942676,-87.80950220602628,-63.31776389929189,-63.612281027833376,-89.0657097929095,-42.74977223924617,-62.33072809506825,-66.55597598795089
0.1,-62.89808773600015,-91.4823104506209,-68.11763678639707,-69.73550877526736,-92.45668529416906,-44.293890774727515,-66.80528014113594,-71.97969796109447
0.10400000000000001,-62.976928230732454,-89.04276899697146,-66.25362079989509,-70.20326376999316,-89.77445353125498,-42.07249102155731,-63.82992378099192,-70.83579160403099
0.108,-59.621186074079844,-81.16668386806057,-58.042094391660925,-64.77241194937523,-81.60555477041868,-36.58600909336366,-54.136626839114285,-63.50257610622975
0.112,-53.59424307920892,-70.53663411373321,-45.99937292823145,-55.21322902032327,-70.22233087156994,-29.400035387792798,-40.47936905268165,-52.31756981199089
0.116,-46.46787775955255,-60.57371843197009,-33.67804532034137,-44.55455193215465,-58.52486430146567,-22.467572174032853,-26.42828329763364,-40.52774935946263
0.12,-40.12243170632607,-53.94650130189018,-24.169819433902262,-35.84043727183996,-48.85650050556771,-17.358636274902665,-14.978651167056967,-31.009633646163252
0.124,-36.128916751472275,-51.56730931550234,-18.995152732863204,-30.978791610695765,-42.25375320631845,-14.75905628406531,-7.626609219566603,-25.36596498847632
0.128,-35.27541655051533,-52.53310715115296,-17.873808783321692,-30.21601200266045,-38.45340781235288,-14.42995670694279,-4.268655920765241,-23.727321571012908
0.132,-37.37153850915641,-54.901711779696114,-19.337191934760938,-32.37665308679769,-36.49872499433815,-15.554591162458337,-3.807237886525229,-25.161768845085362
0.136,-41.360130108306635,-56.784945524831954,-21.71463860659179,-35.628111446476964,-35.48596249850431,-17.22028917421568,-4.991974060544123,-28.319352513034914
0.14,-45.69338190461056,-57.17548217019015,-23.92302371643092,-38.33761968338507,-35.00820181494413,-18.77670308940253,-7.0073548528935135,-31.925137615205244
0.14400000000000002,-48.801916195795684,-56.09490485151838,-25.656384405758786,-39.588846403545915,-35.066915403425185,-19.9244922427319,-9.549635146336755,-34.959454054795515
0.148,-49.55140921954887,-54.17774519918373,-27.046247425621516,-39.243673803810964,-35.6745120027405,-20.598440631160486,-12.508038145012733,-36.63102227404346
0.152,-47.59132048670682,-52.10241290101868,-28.172336661643783,-37.70267338179775,-36.550850122800085,-20.818479279895087,-15.596395413051027,-36.38085660037365
0.156,-43.47543234331249,-50.251923300550175,-28.817722975176594,-35.59691121478511,-37.188782234781,-20.636706171583057,-18.24577182725409,-34.0489296367648
0.16,-38.498237058342454,-48.751479349791055,-28.627499274079156,-33.58915607910683,-37.25082351887096,-20.188559976081592,-19.841731844620426,-30.098063939493272
0.164,-34.23273490745578,-47.6801494155651,-27.4603434797408,-32.273232484020355,-36.92619506937078,-19.73891934752737,-20.107565267722066,-25.646619767357265
0.168,-31.932931881084755,-47.246660941021275,-25.65198193063526,-32.09912984229828,-36.96302598778712,-19.630483252416752,-19.34322956541365,-22.153040116955367
0.17200000000000001,-32.070216277200814,-47.79189861337011,-23.9781432395788,-33.26882649860676,-38.302303113925205,-20.138864900843714,-18.342765900636266,-20.833081867994906
0.176,-34.17624561999054,-49.598557494655154,-23.295554114548054,-35.60101527181382,-41.496235251113575,-21.31785349668951,-18.017723719212995,-22.100437460628314
0.18,-37.07899381986573,-52.65298256583617,-24.085594367252725,-38.48249039811168,-46.27216208264633,-22.941571707266235,-18.951069225268725,-25.353259818782362
0.184,-39.41720582596048,-56.48302826421423,-26.152578263908538,-41.00577618367731,-51.49087202096939,-24.60073482609937,-21.128376697991712,-29.258095980588905
0.188,-40.22099964205859,-60.2265952578735,-28.683823042547544,-42.30913526460057,-55.58299662793007,-25.912608415274008,-23.978983233285817,-32.404180677274894
0.192,-39.29561797302006,-62.94281392831675,-30.6533180382948,-41.97669647040459,-57.25700463543984,-26.715266830365863,-26.687088449208886,-33.98058218673566
0.196,-37.24377823080613,-64.01511023182377,-31.33542635785551,-40.278330529689356,-56.09303311570437,-27.129504997847448,-28.575308414979418,-34.09484131300485
0.2,-35.121703538740576,-63.43054312533292,-30.635508548220514,-38.07541404734741,-52.69729114338577,-27.43680983720276,-29.34265949515475,-33.5571520289692
0.20400000000000001,-33.864792908596144,-61.72077267407883,-29.018482498594267,-36.36648418101049,-48.2859869861731,-27.827944730058448,-29.043912131081356,-33.26285158298606
0.20800000000000002,-33.78533475017338,-59.618438661334324,-27.13709305450419,-35.7183428899034,-43.983432752652504,-28.204326102727464,-27.89226491658121,-33.564029934505356
0.212,-34.420708623976736,-57.656409553888466,-25.4382104784043,-35.9260298426874,-40.27949800665198,-28.18146133704954,-26.065038006651548,-34.04171037267815
0.216,-34.82027217877885,-55.94895019773327,-24.002568685986375,-36.12640296863583,-36.96425564031176,-27.32086964569737,-23.658443664387505,-33.82701139907908
0.22,-34.128639830897555,-54.265821482052274,-22.6988633776931,-35.33394235760261,-33.54662331710955,-25.452160493481415,-20.803375607461362,-32.24190116478576
0.224,-32.11900086960577,-52.28338121509222,-21.47013277059557,-33.07506621593143,-29.80485457478153,-22.86763577288525,-17.81060504716379,-29.330679915044584
0.228,-29.382337802425354,-49.88105781211789,-20.542981007965068,-29.756083456632723,-26.12852809747403,-20.2635146255584,-15.217675547270687,-25.94773237692641
0.232,-27.084456811868563,-47.325119712929165,-20.395251991903308,-26.544374253749766,-23.435759704210398,-18.431872012153462,-13.666321424432113,-23.333274364644467
0.23600000000000002,-26.36139997741202,-45.17120790714688,-21.445428338572356,-24.773184157179003,-22.66135452843656,-17.874619822770455,-13.641636372421885,-22.413614260884742
0.24,-27.696390679237197,-43.97845353406757,-23.69716220296857,-25.217773328580165,-24.17085630411185,-18.55773338645986,-15.22201089128248,-23.257489084879808
0.244,-30.624129158879896,-44.007303629690114,-26.598158271911075,-27.652950769708468,-27.483083537764855,-19.946820926347982,-17.993387955645517,-25.025936746901607
0.248,-33.89982107325898,-45.048212177534424,-29.24018380072266,-30.92945356913333,-31.46685772731297,-21.294979721733853,-21.18994308370634,-26.438560752560534
0.252,-36.07630190842815,-46.46826028423163,-30.809309163981197,-33.53980645798606,-34.8914689037764,-22.00284762651154,-23.98674913036814,-26.473086345574075
0.256,-36.19161294018693,-47.463165315861715,-31.032408590629984,-34.36390324135357,-37.01190838901891,-21.85904344394112,-25.81087183232262,-24.897820986286433
0.26,-34.2333051565771,-47.430547503328285,-30.367830933928303,-33.20349953986988,-37.87754904373611,-21.040924735410044,-26.531281836377502,-22.353071667138238
0.264,-31.138607587453066,-46.26473326314169,-29.79697579677361,-30.82871404215757,-38.19317090989955,-19.926034210099488,-26.443113090810584,-19.970292477277326
0.268,-28.311153156831324,-44.39281353921376,-30.290208947416886,-28.52165388882065,-38.798498818783514,-18.842127986355308,-26.05801236652428,-18.74733311001296
0.272,-26.90260561016089,-42.512019476230876,-32.21056884861139,-27.38176583955226,-40.06349804368813,-17.90895531253227,-25.8059995299609,-19.029362474262825
0.276,-27.225570431873848,-41.180696240649695,-34.99906618815453,-27.769564525353758,-41.57173772710814,-17.05446212828201,-25.800783401776243,-20.3731611663668
0.28,-28.6066888201442,-40.52439484230672,-37.36979099433597,-29.175958498473392,-42.316665791919036,-16.155801677847876,-25.791513890988654,-21.834953090378804
0.28400000000000003,-29.75639450800054,-40.21085533789926,-37.93016190450646,-30.550315675569323,-41.29737666872995,-15.18709799142539,-25.32928488919879,-22.48895815940432
0.28800000000000003,-29.44494807657884,-39.674894966963166,-35.902654544601546,-30.876096909959642,-38.15436491996195,-14.258624922691524,-24.064806839925723,-21.872100756854934
0.292,-27.12193934939819,-38.4396299810885,-31.558517971351534,-29.66720407673415,-33.46147975719202,-13.511677046964223,-22.021921678161334,-20.127459623071445
0.296,-23.174323599102422,-36.36577793007905,-26.138311742506403,-27.14019847227587,-28.511335317141288,-12.964285722655859,-19.70067940238482,-17.829228177488858
0.3,-18.7152966762103,-33.7383515602088,-21.322377635406383,-24.032362467938356,-24.743188255585096,-12.444876913472172,-17.942084827084955,-15.642998530206569
0.304,-15.05746022450137,-31.17287130185059,-18.522222683710083,-21.231352463135863,-23.12496317359694,-11.693608979197279,-17.592324792789896,-14.038425378425927
0.308,-13.10259840142578,-29.35582736139213,-18.312224578707628,-19.401690970710433,-23.77345671398723,-10.553842732289922,-19.092419931435415,-13.164987050734226
0.312,-12.927726475004874,-28.716462261911147,-20.245802214266632,-18.766788996921605,-25.956650126905743,-9.116578625104466,-22.19937535037775,-12.890640246528392
0.316,-13.77103834461525,-29.206042062446386,-23.124129467593548,-19.112690153565154,-28.455828319024704,-7.714154565496756,-26.00264671136165,-12.938246036057535
0.32,-14.429327640297629,-30.33564225784039,-25.60056720083628,-19.975376873080222,-30.129516323665143,-6.75106919049108,-29.267280748799294,-13.027357975862287
0.324,-13.873033030344459,-31.448448984129868,-26.810519743953478,-20.890463952506025,-30.407812060316587,-6.489714226135675,-30.96376633176692,-12.976203578145487
0.328,-11.76233877040329,-32.05253020573207,-26.71183824092327,-21.568481998529705,-29.478598637154164,-6.910586169082535,-30.719988656761643,-12.739399700537433
0.332,-8.60034851767648,-32.012419670734744,-25.973398902421422,-21.9302668042842,-28.08868697961168,-7.719927882621732,-28.951083927825493,-12.385203652200744
0.336,-5.481867388809178,-31.528701523681093,-25.503766218114947,-22.045987176218432,-27.099642222003126,-8.505018272252073,-26.584541382164844,-12.042399275375146
0.34,-3.5593340823758126,-30.957866675685636,-25.90017521474772,-22.036073148755122,-27.04418151827656,-8.92898454812962,-24.52390461481332,-11.822961837966204
0.34400000000000003,-3.4891554554399136,-30.57537623908547,-27.088836987114405,-21.98475065011371,-27.869716963720066,-8.849761240896669,-23.137999877090124,-11.73569259391843
0.34800000000000003,-5.123154812477765,-30.401059911264383,-28.333191230230227,-21.899311592172808,-28.95749724394227,-8.294598295501373,-22.065570300101513,-11.611679672395212
0.352,-7.5910855290579775,-30.173797510118106,-28.590496181500043,-21.719159245254332,-29.37855672429373,-7.334694446340336,-20.45840479830872,-11.087094245614935
0.356,-9.723630642873331,-29.480784954203045,-27.025126581715426,-21.355085431509906,-28.27390969859937,-5.981091014862159,-17.538544293216546,-9.703729857875032
0.36,-10.624553865870212,-28.013043854207467,-23.45743015611845,-20.751868824499297,-25.24255149498788,-4.205881401173883,-13.162393122774574,-7.135382472881702
0.364,-10.103414481355685,-25.805115182149393,-18.517905441843936,-19.940851545575697,-20.57690585016553,-2.074148264897758,-8.054102933763943,-3.4432758154023304
0.368,-8.712094662889058,-23.280800208996993,-13.404129800904911,-19.027884029299912,-15.208902429827162,0.14579857044964228,-3.531112184399717,0.8099748578813433
0.372,-7.368016243150123,-21.049319035967528,-9.345068577575944,-18.111894413349773,-10.35660939757156,2.0149421715068456,-0.8457552860284068,4.7045049283010485
0.376,-6.77223746041841,-19.57034994331582,-7.050757339110987,-17.175119128814003,-7.022993845774408,3.116699974756557,-0.5070060592031496,7.330586908457008
0.38,-6.972770939090196,-18.926647345135848,-6.456421075244293,-16.039621568972507,-5.609574510158154,3.298876325142828,-1.9802440709117946,8.196414003715972
0.384,-7.349513528227817,-18.85346108811939,-6.886206048980512,-14.454773986204145,-5.82689433158896,2.7908242214730308,-3.9522877864337715,7.45128529262729
0.388,-7.03482060616534,-18.98722393195635,-7.515974112268395,-12.28883079779871,-6.922310504882034,2.097171693366363,-5.014413155155353,5.806310977742214
0.392,-5.512502653283036,-19.161254304109775,-7.858096046252285,-9.719609763345034,-8.090396464112928,1.7037378466134214,-4.391644742734115,4.177729619007096
0.396,-3.047958309189198,-19.556601464948585,-7.990110187328128,-7.29695548114978,-8.854023106218051,1.7617697600223892,-2.30976111619907,3.234413024443711
0.4,-0.6681890116037721,-20.621419794436292,-8.4239985787965,-5.791902803507355,-9.24881775985591,1.955839293988447,0.19927397682454284,3.095878931373136
0.404,0.3506652864421085,-22.774690658995496,-9.695312609284315,-5.842804734365018,-9.715126321253251,1.6717551232054575,1.9297711804183564,3.3460734106579366
0.40800000000000003,-0.7520368768794015,-26.031121851738817,-11.908836141624988,-7.539926857649334,-10.742988315240268,0.4058745681113578,2.220599923943837,3.378167629138261
0.41200000000000003,-3.650260607939572,-29.76411598620939,-14.507105811636166,-10.184096109742313,-12.458231693810148,-1.82369538323519,1.3643826169482054,2.8677013839028405
0.41600000000000004,-6.917529523865369,-32.78739329586551,-16.418935514769714,-12.404646547294533,-14.392138082994734,-4.335391718451774,0.47454659172444735,2.085662300114109
0.42,-8.680050126782135,-33.81364889480233,-16.562914946410274,-12.683652776563122,-15.624377760505695,-6.048405921034828,0.8787789234568208,1.8348348002250532
0.424,-7.633088035176115,-32.08613530776802,-14.435278610537807,-10.084818597385492,-15.239063893118214,-6.048268375581301,3.3719579636899653,3.0155883698989783
0.428,-3.84975256916573,-27.83013034337432,-10.429666259946089,-4.818323022679124,-12.832719173167334,-4.142080412648738,7.736870642531358,6.06542873235685
0.432,1.1094930427007057,-22.25002168740798,-5.69256914405014,1.6927775057943109,-8.77920505936845,-1.0698786014063444,12.791808328238403,10.605832029643807
0.436,4.924237931780908,-17.03307521393731,-1.5782060258616184,7.356207883935667,-4.0962379641403,1.777840506611028,16.928276789617712,15.512157460984781
0.44,5.705833759366897,-13.633354393646187,0.9790405582687072,10.325660065311013,-0.00876420768713615,3.008175738058071,18.8397237136046,19.377153082949462
0.444,3.009781236699837,-12.688523604211014,1.8400895665579355,9.844017097924052,2.5680940278816706,1.901380832556697,18.083506109232303,21.136377732077108
0.448,-1.8916682808783207,-13.84248353420594,1.6030772483024975,6.587666374416131,3.385449790733446,-1.229840506536675,15.229330155070329,20.546150564464824
0.452,-6.624746542106095,-16.008135646105075,1.1866903258362527,2.3397037175525384,2.916859640824555,-5.176739066713708,11.56942335881763,18.279707449432863
0.456,-8.921272741085659,-17.92171847556051,1.3006279875764903,-0.8697579577121815,2.098755519560882,-8.406964150288786,8.563214334666782,15.586418537741793
0.46,-7.7934182139510995,-18.734591434709273,2.074945513602188,-1.7398119579179365,1.862456021725393,-9.786082042307044,7.266915997977321,13.690075783790235
0.464,-4.020329612683327,-18.3405077082391,3.041462486836508,-0.27426164095322747,2.6891736582524572,-9.082345619475745,7.965667365352374,13.227200247171822
0.468,0.315290518713482,-17.29291835775416,3.453145144164864,2.3275234846298645,4.396394344480882,-7.012126832612012,10.133509646384937,14.010640541155226
0.47200000000000003,2.992965892105076,-16.373233344543678,2.749760089926667,4.401308193504292,6.252401213832741,-4.814052228863602,12.704077383081312,15.23685243869977
0.47600000000000003,2.855959899115078,-16.07649698100522,0.8988026738045392,4.755680123714683,7.339612362339722,-3.5925359284797196,14.509226178530525,15.993074604188678
0.48,0.3636961261436227,-16.337757944105533,-1.5920932464352973,3.29076596531263,6.958529583855579,-3.780186620150289,14.716576708069397,15.775534416573919
0.484,-2.79135694701381,-16.6286443246438,-3.964250257069807,0.9772047293074593,4.900237593762199,-4.985787042432548,13.120894944138854,14.748671696996553
0.488,-4.750432709346796,-16.329303708959287,-5.614491920113323,-0.7704962769232679,1.4958659227372664,-6.269589279685988,10.195581774481752,13.626972565800315
0.492,-4.571974274487275,-15.119517889016038,-6.369303372211334,-0.9276028554479581,-2.5251667228820907,-6.669385012271505,6.902938932757252,13.273534608144928
0.496,-2.7087633128810467,-13.157464464747932,-6.480813620537674,0.5832749671185411,-6.29142582348743,-5.69724895631407,4.334047774514829,14.231938058269407
0.5,-0.6378448168491104,-10.979388182037042,-6.392119316142498,2.9062360623199766,-9.076926898624379,-3.561526029486231,3.290397065024763,16.43477581092884
0.504,0.10480387652251011,-9.195554792151142,-6.434013458912091,4.798217706902278,-10.513101142792607,-1.0339696306177757,3.9670111373345662,19.21600452919074
0.508,-1.1120738798031198,-8.15062506975812,-6.617707030656447,5.373564567778203,-10.643683148249465,0.9596778745290067,5.901967885975637,21.61918604656421
0.512,-3.6292895844173927,-7.716808032333233,-6.608635004228631,4.614756187489775,-9.786085098965486,1.8111399841641287,8.236895650176848,22.85007597268168
0.516,-5.905164289764343,-7.327711703726891,-5.87787205115103,3.3657634917717587,-8.276231650332193,1.5181489587048418,10.169471166471794,22.634541170146804
0.52,-6.464972457583144,-6.271044554332889,-3.9736966223748595,2.814996040761571,-6.2702095470411905,0.6397620874558925,11.35196272805274,21.297801579121824
0.524,-4.805673915553598,-4.080948535718676,-0.771940882703916,3.7955981330756003,-3.7086036166678014,-0.02861690001577699,12.01806359037596,19.5376802904309
0.528,-1.7072103234841052,-0.8158355737957663,3.4009566524836146,6.317147859200304,-0.4627704209020749,0.12748845270880338,12.755657865985313,18.030927112653444
0.532,1.2335897838056553,2.9300439044599216,7.821925766749473,9.586930781255433,3.428873371303439,1.2451084671652097,14.043672402610582,17.091930390999323
0.536,2.5462164709825856,6.290681738871285,11.586507842894662,12.483720759795688,7.5868283722657,2.9447962874230598,15.835038089671798,16.559467113680967
0.54,1.7074318047358474,8.499228828067771,13.884248089654989,14.164756894818765,11.28605675905817,4.548761503355763,17.446044619171516,15.961201185362825
0.544,-0.6425144429296097,9.188019158331599,14.246055220292646,14.44990927499498,13.66888349864439,5.419387705596819,17.85541927622512,14.841676811669231
0.548,-3.1786561367088098,8.496858521456147,12.694756535930992,13.785865445077434,14.105099874300777,5.240961888266156,16.295395213919846,13.069995670064372
0.552,-4.727485684663407,6.971709483404766,9.76022815178385,12.859590429851778,12.530622881278418,4.118013043733072,12.802380944539664,10.956728886185374
0.556,-4.912569039316509,5.331617456734421,6.347401847201695,12.144968584878825,9.571702630385175,2.463892129195756,8.38143103318771,9.105883761519408
0.56,-4.2403293201924726,4.187872321125724,3.4604162540005063,11.662339221323919,6.32419847893118,0.7701584335582083,4.642737095947723,8.076604838637877
0.5640000000000001,-3.613077409139123,3.838143034749237,1.8761035108549322,11.08468498770685,3.878619460932555,-0.6082344396627377,3.062139794273662,8.049025219859914
0.5680000000000001,-3.6157006005890935,4.215695359913298,1.8860883164908273,10.091530656899067,2.828468825041682,-1.5518391237515061,4.2473653514618945,8.69183633716625
0.5720000000000001,-4.064867150800183,5.001585591514186,3.226590859289445,8.711486121746702,3.0314646368908598,-2.131895142241092,7.614122492261231,9.323403707510352
0.5760000000000001,-4.120378812476588,5.832037144721426,5.241711946276382,7.415727855632667,3.7693089329470695,-2.481615960678937,11.673720753173484,9.29196092107668
0.58,-2.890770446991155,6.459060296052826,7.174778377875555,6.877673908792076,4.185947746987267,-2.6844423583002026,14.782790154035638,8.353663399829202
0.584,-0.12369253153372028,6.798496899685347,8.455055023308773,7.548354180745264,3.7642001148296913,-2.74330149665343,15.95412720383456,6.826561737327211
0.588,3.5087243452825305,6.887640656198755,8.863632065625666,9.339565330054711,2.598236878614216,-2.618326821624578,15.298887945114302,5.429643681548214
0.592,6.732604454518196,6.822692332114002,8.538665276102392,11.624336926022579,1.3314227257312723,-2.278350445906881,13.884928939398378,4.8996304204536045
0.596,8.41290372387732,6.728254891205552,7.850583451371108,13.56503912892913,0.8202515393959402,-1.724489296700085,13.10908368536434,5.597681170175292
0.6,8.244674501086024,6.750055371423969,7.2140060386904,14.57154808942505,1.6949095898407904,-0.9746531726786998,13.927659723680108,7.316376409451777
0.604,6.93521634824765,7.037235349337493,6.932194414609398,14.607226139957447,4.046812268651024,-0.057676706077700146,16.349672969924313,9.384989551224862
0.608,5.765034783181932,7.706590251271564,7.138332187899323,14.16838289505904,7.407035484212088,0.9725472187828927,19.450684089932565,11.018968580182673
0.612,5.796857068052873,8.792768190462539,7.828481534555976,13.95656698801372,10.999569612298387,2.0080218022951613,21.873006126354767,11.714638134248162
0.616,7.220559942727277,10.197802461917377,8.919411907554036,14.450334245348927,14.103642174294919,2.8759968975882657,22.508994300460472,11.460033842881785
0.62,9.223724287203595,11.649647388089306,10.255972016330475,15.615995068991651,16.298096084966687,3.3772655916159238,21.005641538075224,10.655835532797937
0.624,10.488448020108535,12.729415227215213,11.584896014278002,16.931992608272935,17.494713822809103,3.368789711376394,17.849286504484553,9.812502635329565
0.628,9.984339454548376,12.98064608665186,12.543001686776165,17.68121744433529,17.78951944428468,2.8492025107254904,14.033822816466909,9.224062382828151
0.632,7.5764849115428206,12.071207989580785,12.711807277460707,17.32127562328583,17.266302733011912,1.9792524722674898,10.54261707830392,8.807234302930965
0.636,4.109456999646454,9.957447296094188,11.769207076221846,15.736817041201903,15.920507119428294,1.011794322746482,7.931915193772511,8.20425184608257
0.64,0.9159736890516115,6.936853005794546,9.651506138825766,13.231933931150024,13.717864995693844,0.1554129122073391,6.2058200204114655,7.075951973007022
0.644,-0.9289667192481375,3.552474358089853,6.631716436552665,10.309097939412595,10.728215861624335,-0.5413120125638216,4.998504807201812,5.392668865230689
0.648,-1.1415955407926504,0.4048905914679608,3.269738494839089,7.413440712125862,7.235412531598229,-1.1918675617730514,3.926619344375922,3.560191095948767
0.652,-0.2519246236396384,-2.026416783850209,0.24390511610374688,4.804486723553396,3.733922997055174,-1.9331580280111211,2.8873973430033857,2.3067670834768705
0.656,0.854086295209413,-3.4774093748151245,-1.867087225840919,2.607781749572837,0.7919129845687962,-2.735504037568944,2.1361407082038113,2.374410214212503
0.66,1.52418846411274,-3.9238014554830443,-2.7812187711957677,0.9414970818037318,-1.1846031964302028,-3.3145825729150147,2.1012486420133882,4.15693694592801
0.664,1.683432417713675,-3.5497183004042654,-2.6111466839496416,-0.008175198172693854,-2.158873048402768,-3.2362752485457804,3.050697612522754,7.458647662496105
0.668,1.7468034996768438,-2.686191575924738,-1.826163904980831,-0.04461778817164941,-2.5149708599049063,-2.184729415939728,4.813405631369051,11.495551939368397
0.672,2.204198467710171,-1.7392190014401763,-1.1018498776305705,0.8774042956164294,-2.906968985795288,-0.22805768480657207,6.729322559807542,15.14629110353917
0.676,3.209326382974723,-1.081559707140002,-1.0874466221036982,2.5301823816146225,-3.9359986510844465,2.115016962296977,7.898278754594116,17.362064405508818
0.68,4.449776627595725,-0.9363775380814445,-2.1697800407333716,4.441118247705958,-5.812383215117961,4.09956095818643,7.625647928099511,17.58885943181008
0.684,5.38771776469855,-1.2736602645317134,-4.294724286495068,6.1024824723899656,-8.16232664789868,5.161473982187317,5.8524575893992505,16.023793000001206
0.6880000000000001,5.677601733338292,-1.7686859346684969,-6.910122211114526,7.244014265664418,-10.08888729832671,5.2732904638785385,3.3240854923602683,13.592336015876754
0.6920000000000001,5.465592566380792,-1.8616111782961866,-9.078118204083694,8.00441180000496,-10.487510656622476,5.0109814079695525,1.3557626674554513,11.62701563251153
0.6960000000000001,5.340170493797018,-0.9463998209366764,-9.767367996874668,8.861061011795982,-8.510534534284602,5.2380409023325,1.2473058509705197,11.327732842492537
0.7000000000000001,5.919283156272286,1.3088865945243242,-8.29613740951072,10.296276252898451,-4.035967361257178,6.5395645646112825,3.562184760237983,13.18239277346197
0.704,7.345269388153895,4.658565576052638,-4.757230971775016,12.390088789256652,2.077657030433272,8.735867178065632,7.620932627600951,16.5921783982094
0.708,9.04557033317542,8.18763766428441,-0.19452596056697757,14.592032488742802,8.113303844688346,10.80189423846116,11.52135266954167,19.92191535431641
0.712,9.951236532994642,10.553879575609301,3.6295937936153564,15.847078625697463,12.015552583649594,11.290400973799478,12.77803924147645,21.039558472253134
0.716,9.077452728785829,10.530642106251094,4.887907100069867,15.06713536107111,12.158559411929332,9.074620234939403,9.376533155963898,18.187652015098024
0.72,6.126359990464948,7.599934406872762,2.504860053242794,11.718993464372375,8.034259487839563,4.012539207952159,0.7926627982998298,10.829600211244838
0.724,1.7827049549346725,2.3285707253174337,-3.2104783458634074,6.254699948369193,0.5832033772336445,-2.8240172679135185,-11.495321532946377,0.0882161342492509
0.728,-2.50366020669469,-3.702539513960005,-10.46892217589766,0.12502697464208268,-8.017195625927968,-9.511267070785834,-24.304373752774268,-11.478537589270559
0.732,-5.1571959497131274,-8.44258025255641,-16.57577019530828,-4.686346309680289,-15.065313615983541,-14.058750111937115,-33.803866546793415,-20.737577673779924
0.736,-5.183116612402955,-10.161740848678505,-18.97591329155506,-6.407184842513175,-18.271952837524623,-15.218789774212723,-36.92422562703814,-25.138304071319794
0.74,-2.585563844795047,-8.160604612540396,-16.33449575492193,-4.186983851465243,-16.568631993299334,-12.922145832455499,-32.529400543735164,-23.667336092741152
0.744,1.705063795764147,-3.051491272933049,-9.13908934686458,1.5544283331159932,-10.450515554342928,-8.158223020738433,-21.83946938225131,-17.167456317344318
0.748,6.326422422462542,3.527366692968485,0.47693129286807334,9.284780193371716,-1.7208723470386076,-2.426310380041514,-7.92753522566727,-7.885150931083217
0.752,10.117061858385568,9.639876542617742,9.632488218859919,16.953029616136405,7.247976218099268,2.9233688019687634,5.49215894894121,1.53513005072341
0.756,12.55493135262958,13.884490500462846,15.91045673158061,22.7556996886226,14.421378887254207,7.1275785719807345,15.44640826517275,9.120147902922326
0.76,13.81613527991783,15.911599417923583,18.300303976324642,25.738442272820407,18.772498337529214,10.058130704601922,20.656517506385853,14.192380498140437
0.764,14.48092978812565,16.388628756029618,17.44543530715748,25.997247320411248,20.45933185133208,11.946310056588231,21.708578635298295,17.291477770051756
0.768,15.086184494903705,16.462578306760122,15.113871860620065,24.420560867174572,20.478521777040783,13.02574789295943,20.433783033849863,19.505695506805978
0.772,15.805706971660697,17.035770611723365,13.20998842348888,22.147696913893014,20.022429486204146,13.334202372150344,18.8584141469903,21.62851998010376
0.776,16.406918112586368,18.253861860058123,12.846668672478643,20.018364446250416,19.86784522898631,12.758831275761622,18.2349423586885,23.611774686067065
0.78,16.447372259611654,19.445251561171972,13.908746055409381,18.245955583002115,20.054730713866945,11.241194676888654,18.579352985603578,24.59785426152007
0.784,15.56410450543666,19.52982986076472,15.285943542982352,16.455996939329964,19.983455828217416,8.968838114803816,18.878768734531036,23.48861888125191
0.788,13.694138163436719,17.675226368052847,15.608272897975837,14.042850684591201,18.853607499517068,6.400573337943229,17.81056634764309,19.717192819848492
0.792,11.131801465169701,13.840318699402246,14.056139730413747,10.640063772594601,16.194004168545177,4.106301940461094,14.569681689719118,13.772228171476968
0.796,8.416454148277069,8.910994678897794,10.824913208865667,6.451694129428802,12.219309783041524,2.5329942322257466,9.39232683562932,7.179077527428262
0.8,6.132127555249838,4.344000871672279,7.022443343971418,2.264206936501864,7.830869734557041,1.8443218259750438,3.5362983462381408,1.931654469925661
0.804,4.721780556566159,1.4969641469174917,4.075248588878424,-0.868697360383635,4.253674092904646,1.9237999696671295,-1.260105092940762,-0.3592663783882699
0.808,4.365683179103769,0.9867546079109957,2.977686284409458,-2.1211965817939813,2.4887321964844205,2.5107252975309393,-3.5685605161842204,0.8219229282578908
0.812,4.942525113949614,2.4125538082151934,3.789538785845707,-1.3211688872646619,2.8573496221214327,3.3695179237594175,-2.9242112048256104,4.666779217015005
0.8160000000000001,6.074948449953126,4.593335895415464,5.64370609429028,0.9242086378536669,4.868790352920826,4.382099202437075,-0.025044843013688478,9.400249650715296
0.8200000000000001,7.233843584670069,6.1724770011023224,7.225722721190209,3.468960259852622,7.447885598433288,5.5093144620013845,3.5982336088738975,13.038195486600216
0.8240000000000001,7.900225708456958,6.28041828568729,7.467228072634157,5.133085361690121,9.413962842291255,6.666942723748207,6.267828057670272,14.176081860163322
0.8280000000000001,7.755153456358698,4.924863307521548,6.0992183170048975,5.232017257864072,9.987374536223456,7.639752244474266,6.889545898537278,12.480334452369334
0.8320000000000001,6.840768584567911,2.931995097058177,3.7868620209731603,3.8750989945551737,9.088947912199615,8.115083686294042,5.386728393150236,8.708888107560597
0.836,5.633720638832017,1.5093260883552944,1.8027040435283652,1.898969727261715,7.316801469379101,7.823123401018506,2.64995965638866,4.299762539683002
0.84,4.931573376306062,1.6329794874264962,1.3834234170910804,0.4531554147688439,5.608971757240823,6.708705591140188,0.04561592076510124,0.7491047669007003
0.844,5.514689354606276,3.5495014382564705,3.092719721665162,0.4221234584177296,4.763493633890818,4.994580600975951,-1.2678929035128021,-0.9573937090012805
0.848,7.714539878147491,6.629452525754743,6.5077877582526185,1.9709552010059497,5.0579209454436125,3.0965412708950453,-0.8791439465696271,-0.6359503045023303
0.852,11.104259047890025,9.632109842517252,10.380240718845869,4.439028667011485,6.1550001641693655,1.4456343018159714,0.73981221777575,1.165951864245244
0.856,14.512397952787694,11.254455028482056,13.20091356135623,6.63612499745841,7.334507300846127,0.31148920880445985,2.5416927252106802,3.5184515792809634
0.86,16.447641868760797,10.70058432497953,13.890069100836627,7.407679171769701,7.905216979773286,-0.2601653305173386,3.476936193406061,5.552477388136936
0.864,15.76766115035656,8.012460907067634,12.270959941913787,6.187470383565483,7.568905162705164,-0.3767471054898124,3.0304174544349394,6.794808851401513
0.868,12.281647715230065,4.036522343485217,9.106037340728989,3.2681353950496828,6.547655468625379,-0.16791546777812982,1.4516368720926494,7.265630160535352
0.872,6.970718558460021,0.06435455690103709,5.697126921317334,-0.33887517555581326,5.41839159415477,0.31012732776247276,-0.42470689778781434,7.334279671195873
0.876,1.6545550069317585,-2.673993967004577,3.2726405221248456,-3.3788343467285245,4.7710372321699595,1.0669721748532197,-1.6459854149606485,7.432338985988622
0.88,-1.7823470884455617,-3.467223183965501,2.4474941131289256,-4.937098614238323,4.865566115543601,2.070343563891697,-1.6432181338357168,7.7714804284111665
0.884,-2.2507101377828462,-2.346984741035925,3.0189169780574616,-4.841860708177194,5.48564553147466,3.139902085039296,-0.5119477605734346,8.204084022999325
0.888,0.030329972314603992,-0.012551019917651729,4.166792404160873,-3.691859464711115,6.064536240442152,3.9485093189066447,1.057202773949541,8.28108757945472
0.892,3.652504236749053,2.4927466181241016,4.924024339426097,-2.5024554726286397,6.009735357581292,4.165317583322235,2.152440647550975,7.482177228582316
0.896,6.746006657147973,4.233389793988522,4.678932322931701,-2.1356961045157163,5.069242237940472,3.6787142031465123,2.116115340020656,5.505699987431342
0.9,7.9231750331424,4.744930185285796,3.4300479575596796,-2.832323091208309,3.514789204319726,2.739900670863449,0.8680324537248225,2.466556158681101
0.904,6.937498748063717,4.156622492660972,1.682592449964318,-4.085761255762293,2.031228573571866,1.9007062807829698,-1.0804971281463622,-1.1118106546629178
0.908,4.708628465271886,3.0373061587597476,0.08021519751702044,-4.9240522946626015,1.3647971799879883,1.7440380604209622,-2.9171811825394798,-4.505888387108712
0.912,2.691698311775383,2.0411467103766086,-1.009878939673058,-4.4684060361886395,1.9028858725632745,2.5339762315718417,-3.9612872873869946,-7.107635088562688
0.916,1.988759776189056,1.5576870843233337,-1.7022014084531065,-2.4470006784699763,3.430631075646488,4.005718002982917,-4.008083067936695,-8.681805426517371
0.92,2.7040086483820573,1.5233498388803923,-2.496910892287815,0.6038906247943032,5.182716694492683,5.44621513702964,-3.4200742570394596,-9.432142157448425
0.924,3.8923316400760086,1.4796113604108427,-3.9478053011888505,3.551700300986795,6.173997650969113,6.04048631822036,-2.935569377118327,-9.854365249775128
0.928,4.145047351779567,0.8537103144037701,-6.283431384959556,5.198800255786864,5.660675404021276,5.300972531176058,-3.2846003625254525,-10.438646745778442
0.932,2.475502340381013,-0.6862874483342125,-9.212107918565152,4.861342429465026,3.503431264563858,3.3448314902790344,-4.809515456033637,-11.372167744385479
0.936,-1.0270627491287883,-2.9945627294808332,-12.012861186250007,2.699656730346419,0.26950467997926353,0.8483386282296124,-7.2744683027540304,-12.402204048125668
0.9400000000000001,-5.187917392092459,-5.48612736065661,-13.879971072825242,-0.3827637010529088,-3.0016767718409483,-1.311643427598483,-9.96288387925415,-12.951691146559142
0.9440000000000001,-8.396285894959874,-7.436851517930904,-14.32858064269027,-3.2094715717731788,-5.258790347092827,-2.524872906798464,-12.010326639118603,-12.439618337828506
0.9480000000000001,-9.525914114195075,-8.384687929793643,-13.44127523107386,-4.910265157153958,-5.905555716696483,-2.745226869987846,-12.807868929547567,-10.637756637483562
0.9520000000000001,-8.620059725606325,-8.4216370669742,-11.837731225723473,-5.326301331393438,-5.065901553800529,-2.453094563751847,-12.28479353811656,-7.87917177469626
0.9560000000000001,-6.903916796088652,-8.168910101960819,-10.35516641804088,-5.017986847790098,-3.492942412417392,-2.3037468047464245,-10.922211818489131,-4.979370427667618
0.96,-6.078382660617535,-8.426655130844324,-9.615757906755334,-4.881103046333351,-2.173189407720656,-2.676014241601024,-9.490544707109848,-2.878269728493933
0.964,-7.302820820275883,-9.684339435791799,-9.709438299742715,-5.596995857348247,-1.8287434873244592,-3.4181435594687173,-8.658805044645305,-2.1818978861213054
0.968,-10.444232250370533,-11.760969167211442,-10.158022295280944,-7.213303143591247,-2.558742141757648,-3.943864351272623,-8.673882370278761,-2.833972021370755
0.972,-14.03202701920668,-13.790183733549156,-10.177979601850325,-9.08109010181579,-3.801348782344803,-3.614201868930195,-9.277112046337606,-4.103487774782934
0.976,-15.973027870561282,-14.585777969758055,-9.100355839557551,-10.180848687674143,-4.63314336834901,-2.178166244170825,-9.89759778763073,-4.9208171763966675
0.98,-14.668396046751695,-13.238433441943243,-6.747466467100935,-9.674063353335896,-4.277384564404542,0.002843011435970766,-10.005845257373494,-4.416618078009833
0.984,-9.930491097890354,-9.628510816611879,-3.5583738738102966,-7.379450974070096,-2.5459419796368365,2.1065211572927183,-9.418375005418511,-2.381976629588962
0.988,-3.197512486659207,-4.580614225599447,-0.40498429437514005,-3.9243859351443007,0.013950501907743273,3.2850235199850886,-8.381120706418642,0.5949158006894777
0.992,3.0782864004614794,0.4379046304595704,1.8042171678391696,-0.49755395483657594,2.3483500037652902,3.1255964767351543,-7.381190154565502,3.4035108259779463
0.996,6.582972087570056,3.9623102828666106,2.5543388118527446,1.688247729102386,3.414981324081282,1.8761243636586187,-6.803899268712939,4.972738970113824
1.0,6.24252101194179,5.179788234062244,1.9509804652738012,1.9471679264306658,2.7099713063018953,0.30402722867211196,-6.66430286963805,4.829821777602092
1.004,2.715734286343036,4.262796283309626,0.6376005996532967,0.41034359675722953,0.5262983889133466,-0.730765078882996,-6.592371794705969,3.344864320671604
1.008,-1.9676501511796687,2.2161871168430025,-0.5509506437732625,-2.085182016377985,-2.198615224922605,-0.7314118066337869,-6.095074601942088,1.5149240280377398
1.012,-5.422203838387759,0.3283419978349684,-1.0161153229398678,-4.440735727154333,-4.367283333809155,0.20843655584030785,-4.933526208411877,0.4067307601385437
1.016,-6.057729047327484,-0.4652180627100506,-0.6631193570797222,-5.834338931800403,-5.26457253015019,1.5151239129077112,-3.3636355770736373,0.5575706546387664
1.02,-3.7936064235975664,0.016929368761907426,0.12121306366952922,-6.08100807392384,-4.874100171396549,2.494888417015318,-2.05530306599303,1.6756018476207828
1.024,-0.0043635742592869065,1.2282875471137231,0.7507200052391454,-5.636552233908333,-3.8031101169972317,2.712798693820787,-1.698533964176022,2.81687227690918
1.028,3.2451876105681094,2.306166229572227,0.8148345196491391,-5.255687183027021,-2.8666033301832385,2.1879197936514174,-2.516578874443894,2.9585866309666926
1.032,4.268242334494971,2.611195745132136,0.318810852285651,-5.507828461652025,-2.5836273343190896,1.3165617299923724,-4.004041999262199,1.6436372894368105
1.036,2.5751127508810896,2.0979529176715914,-0.3339898451922636,-6.427328677632659,-2.8770233791274222,0.5954000712195011,-5.091151914250759,-0.6906782249752723
1.04,-0.9531651152362883,1.30990672470125,-0.6147467264859188,-7.497937220760832,-3.162107771797082,0.33676158323896743,-4.692615500657212,-2.897991410995928
1.044,-4.592753366212264,1.0256979110238262,-0.21804149308763954,-7.967412419026459,-2.752659509133764,0.5436099280577764,-2.354106853907979,-3.7421350117865586
1.048,-6.725623699393964,1.7570825994350798,0.7176496617018984,-7.3235119200016925,-1.3414332780839686,0.9776782889221067,1.3831419400657978,-2.6202806623282413
1.052,-6.683659677051082,3.4077346653098175,1.6612352072286285,-5.634074454916345,0.7518857519125959,1.3570078065358757,5.157072600533411,0.04272897058081071
1.056,-5.03413062536174,5.313853199315872,2.0034425734115757,-3.5279045631123154,2.7436243026716056,1.5480443430942614,7.454431726092935,2.966918197655559
1.06,-3.1940992782731428,6.628354647152264,1.4332307579140888,-1.8299261721590483,3.85432672792831,1.6367654027280878,7.429956289715847,4.679637594798805
1.064,-2.6077421539987427,6.818066954156166,0.14339633302006405,-1.0612211487296008,3.7946443656098836,1.8462147990858284,5.411840887909875,4.307028753650684
1.068,-3.947664746101509,5.984365338096495,-1.2590472030058208,-1.1111052190367445,2.95929582964186,2.3620643091494458,2.7798233207081466,2.0571647743604444
1.072,-6.787422929349077,4.810352502155865,-2.100811799004532,-1.3001906340373353,2.186002194737057,3.1851448683337367,1.2523416359217663,-0.8777795909854831
1.076,-9.903272050694795,4.173164471323162,-2.0245238332713598,-0.8060250101307247,2.232577525037186,4.098176517100455,1.9680577970138984,-2.9332594921311284
1.08,-12.005668473128253,4.6438723428098,-1.1833692359107317,0.7960213570586347,3.294699328716206,4.763997561617998,4.864092942835214,-2.95009569698459
1.084,-12.470820199561786,6.159358429292752,-0.12335272318023272,3.2095311566240525,4.868317308847509,4.896062691725092,8.703042262769031,-0.699883114225031
1.088,-11.627949765589165,8.05272588829007,0.573543969415141,5.532994354020957,6.058019803288289,4.4237619551845455,11.743447806550648,3.1083122287896003
1.092,-10.440652303772822,9.422150904426644,0.6603042127926528,6.766352031516817,6.1472251466541366,3.5668596632863228,12.684676884126475,7.29796471980535
1.096,-9.799227315414782,9.624651701442417,0.38082690442274725,6.413710395155249,5.0788493233849294,2.768518322645832,11.355853284844216,10.854542020400004
1.1,-9.87676280267874,8.602300918787478,0.2958152016490203,4.807000318400242,3.5213004146776257,2.5127263996623697,8.769549841918433,13.340158368857374
1.104,-9.971309174311273,6.86360385001376,0.8912001153564688,2.933415913006229,2.4674652645496735,3.0952749287926054,6.52802824887749,14.884442997010865
1.108,-8.94403900768566,5.148769002620156,2.2062785892026113,1.8710907463373587,2.608817370785573,4.458515462345986,5.929550618724534,15.840040887224404
1.112,-6.007152687173402,3.9926849705489076,3.7262697834321443,2.165057045800495,3.872594417123082,6.178155004072323,7.28148043703186,16.383233106524585
1.116,-1.382497497451368,3.457162695028728,4.634961889718625,3.520332323531875,5.439992172842722,7.6244868156131815,9.789129761661115,16.3509596648596
1.12,3.606822947666842,3.1763170452697977,4.280019940079683,5.0034942080983456,6.246486271016238,8.246428445248966,12.037549798277723,15.413300649328448
1.124,7.11038869551021,2.6646792981857743,2.584798863671267,5.619544010616664,5.662953853733143,7.846888130962725,12.772801036252986,13.433571410557306
1.1280000000000001,7.6888805233948005,1.671359113489416,0.1493791594382401,4.900183280884903,3.9271085925554416,6.702743064674905,11.526325216647365,10.727701590846664
1.1320000000000001,5.084578061764205,0.3431694156415688,-2.0333619947859916,3.143380364546829,2.0411640566328515,5.442633171915077,8.754600445331562,8.009178143228382
1.1360000000000001,0.3732819207812099,-0.8856897531809409,-3.0890425761399456,1.1670663136801522,1.188442579005141,4.721269198066693,5.474179102611288,6.018201926541224
1.1400000000000001,-4.580167420122507,-1.5846171249536383,-2.7004541478486317,-0.23300618742450752,2.03002893190137,4.8712208465194635,2.683802880933854,5.095757089964536
1.1440000000000001,-8.05182187696255,-1.5993797582909792,-1.2258037527781198,-0.7554568497471337,4.316031586697363,5.720106977761134,0.9185505636573907,4.990370875884764
1.1480000000000001,-9.258800347358374,-1.1291630225005065,0.554370464218664,-0.6890178486282821,7.04570488443278,6.696344298128679,0.15584158918818503,5.044211927457582
1.1520000000000001,-8.600760626493866,-0.5666522093929416,1.9024447592819342,-0.5944076199248229,9.079391553356572,7.182395445009206,0.061728473932816996,4.660873264779184
1.156,-7.237022728609645,-0.19972077237116537,2.5387362376436613,-0.8104096926440434,9.835262540997974,6.9134401022975,0.3485984177482351,3.7474994208369026
1.16,-6.300741432650739,0.008173419417744299,2.753244623594128,-1.147418494503654,9.6237377055254,6.1816373505025695,0.9794732421014487,2.8248790648995055
1.164,-6.262618742955965,0.38795614624632435,3.1534338296023634,-1.0151002377542682,9.404336047104152,5.6912892262316745,2.087709041411472,2.7010292445229425
1.168,-6.777016942572118,1.3165211755222117,4.222757231599189,0.10476443214838582,10.12728423616909,6.128669239687952,3.7184660236116542,3.9114050526759456
1.172,-7.042245256330716,2.9226053392935682,5.972026093246313,2.1834397066054407,12.081850491970727,7.702871714509456,5.6300653616153795,6.298263957004565
1.176,-6.423402350456399,4.949441699205636,7.902458209039196,4.508501059969603,14.66887104509351,9.93068265977763,7.328118923458533,9.0199782295349
1.18,-4.910577343501245,6.869624987998577,9.291345040818669,6.02314997306803,16.734484893841,11.822774417203618,8.326274972739157,11.0084853886965
1.184,-3.1207384871031536,8.184760247966551,9.624607672954426,5.963027309138397,17.260756657801267,12.392827468651376,8.464044750725407,11.599272462230147
1.188,-1.888307164168964,8.709982083072646,8.919975932592934,4.375740092630622,15.988029655023638,11.206421058877822,8.048569495284028,10.94023876299616
1.192,-1.714267569444928,8.657124284567544,7.733951916708065,2.1721254696731194,13.582944225472147,8.645087086996682,7.693202066239792,9.909698001077231
1.196,-2.4459550737415157,8.469777843453357,6.854095297719596,0.6420049182597722,11.262784130244654,5.716057474071931,7.931039228021291,9.571967032078646
1.2,-3.38977483075314,8.511730973382328,6.850971489704534,0.7056049049151625,10.104954223510958,3.5182307230934384,8.8386255966916,10.504310357957365
1.204,-3.754463563504487,8.823095495582947,7.756004648050748,2.3674219116655877,10.465179448611707,2.6758066657384916,9.918477991511281,12.411348252221615
1.208,-3.142937248594535,9.094034005970116,9.036178957465381,4.7062338562836885,11.827017212565806,3.0570891826610023,10.329923007949219,14.258107389540783
1.212,-1.7933918215303493,8.868540965966531,9.87127426870029,6.4094466409933375,13.140179144652848,3.9379630672765416,9.340733402322257,14.850039613334957
1.216,-0.4147303389040644,7.861762963816545,9.595915261195842,6.542631947348127,13.440025056237118,4.49864512611839,6.74631600749035,13.514215247823813
1.22,0.26921273118296085,6.185648743577531,8.057059005873725,5.092888388960091,12.360515117382874,4.324900515627633,3.0201555613484743,10.476608130960813
1.224,-0.033964415841637674,4.341929091823658,5.709388085534101,2.970613348235929,10.270524961435513,3.612721471787154,-0.8815137407518705,6.7313973194923165
1.228,-1.02112120210586,2.981633536888694,3.4130272565616906,1.4854802314430344,8.001502764293036,2.972944894938337,-3.935133772503832,3.5064616520648997
1.232,-1.9922369646210427,2.575216901890599,2.045556505004697,1.6243853707746894,6.364117503057514,2.9760779648368043,-5.45674704396788,1.6531001462371933
1.236,-2.2625962569054536,3.2070378585790422,2.1441340663982373,3.5599329926899372,5.7708867337246375,3.7362897445500494,-5.30862280547808,1.304455447426335
1.24,-1.541873951530306,4.586807605397553,3.7291097337356405,6.6321347004004565,6.148247416528648,4.8100823199283695,-3.83606112670077,1.9728278071415843
1.244,-0.06989494905519678,6.237737293258306,6.360743536961309,9.753830971003481,7.126933879230819,5.465489099820843,-1.6254044794441143,2.9554388149281294
1.248,1.5456843876686435,7.722206051072135,9.352454265766937,11.952932441861776,8.32287724695243,5.134544647482471,0.7506423980694308,3.752930082118837
1.252,2.6794731098457305,8.782035024772995,12.022917981308183,12.74274240106024,9.511449167925093,3.7700203504382443,2.8906384469410114,4.260459505936524
1.256,3.0217399674747867,9.356382956947982,13.8969950863966,12.17374825701063,10.63273863434324,1.8980817388683136,4.600473195913764,4.665570489543825
1.26,2.7032255750782497,9.50187242728407,14.786404308087185,10.620664104279967,11.669061962358683,0.3377605499190395,5.855628346471349,5.183718055562167
1.264,2.1644699908847542,9.299981110487352,14.753382570387657,8.50698331672902,12.517113654830155,-0.24210581831721356,6.743857790173934,5.838890790506412
1.268,1.880440905910291,8.821029150713002,14.010109143505815,6.15986587712905,12.96905363840824,0.335793890363675,7.404545827116635,6.435803133736954
1.272,2.1056886115356974,8.142016002575474,12.804164266446605,3.8332133224339486,12.802457160017639,1.7019710678487172,7.969605220779158,6.7114796451287475
1.276,2.7746875158973126,7.383468439421904,11.340349332900587,1.8062715838223085,11.911838443234956,3.1671678945367603,8.494513744619326,6.525341769407532
1.28,3.585217873601323,6.704251477454818,9.74980169949049,0.4162560663162367,10.373879079936614,4.076387406512367,8.905991673442259,5.944956688110324
1.284,4.221322862837042,6.262461942866139,8.126983174730412,-0.018084638202708447,8.432421276842433,4.113659416287192,9.02903450089616,5.184083585283588
1.288,4.5617031301962925,6.15691591032828,6.592787295069684,0.6614985356354737,6.4161830497846495,3.3978884666175873,8.70477242576635,4.445628625662721
1.292,4.7446952717036766,6.388200724732542,5.337441277240032,2.3506779896406442,4.640332462495735,2.3617059457683354,7.946706676804752,3.796774987991739
1.296,5.071309313373604,6.879468915439247,4.611670250609677,4.711532533056925,3.351269708633936,1.5253988860404206,7.029383694207354,3.156373977833937
1.3,5.804469416488246,7.522135596426779,4.6249533488517045,7.31028362689085,2.6886684789797073,1.2827164972277387,6.3997565980671425,2.383585391626184
1.304,6.975742131273364,8.193455760828328,5.379267675685696,9.758992983832286,2.6256101393673816,1.772242867235036,6.408880708370816,1.3650409617475816
1.308,8.301168703764233,8.726034040321792,6.532468448990585,11.763651011475304,2.893639432454165,2.8610654291533137,7.02111915696878,0.037888421704337816
1.312,9.265471633278139,8.86563820349238,7.399938208495769,13.079012596263965,2.9671198695859857,4.218985612551478,7.718129699474048,-1.6285981736073154
1.316,9.37282184275773,8.314240301255268,7.191989468949032,13.48283697835177,2.2204741256332454,5.454900230513886,7.733223516646831,-3.6245011805913236
1.32,8.428642528003365,6.871151468176322,5.422612855961233,12.84243915641855,0.24935749975520594,6.285281886233861,6.544334055606669,-5.812647324504724
1.324,6.708573960043395,4.612504956032353,2.292881285706244,11.268666595206014,-2.782605638597488,6.667296347754018,4.3416823969600955,-7.823124446586007
1.328,4.890439082383637,1.9691028283759806,-1.2098802590853666,9.217227205781455,-6.0165013955902396,6.820494424469871,2.11683206384987,-9.068635641153378
1.332,3.736651298081597,-0.41622859337985574,-3.6550421847559846,7.375457159761027,-8.177920929080756,7.100101564281431,1.199624592461987,-8.990485516727858
1.336,3.6632431358093527,-2.023860231449362,-3.875600165598371,6.304058973852079,-8.221017092363581,7.729462752829932,2.4138890146696212,-7.504285179347789
1.34,4.425706011134935,-2.8269254639926658,-1.7143970794759298,5.991769439946438,-6.043644336924444,8.519594608067564,5.3172246811082005,-5.397234422804104
1.344,5.122780735052402,-3.44864379806495,1.6238966662021994,5.627115533497999,-2.8356405233571422,8.762960089419721,8.034374984643364,-4.353380823778934
1.348,4.559313529100109,-4.951158487425346,3.905457483396276,3.828555089226029,-0.7544097905401941,7.436201561800772,7.923894462810495,-6.4125273597601335
1.352,1.8304543093108805,-8.302825572862275,2.839852465176591,-0.6746671181763304,-1.9667446966304851,3.6938797956026974,2.851905764635376,-12.987309206471764
1.356,-3.143426452839776,-13.754709489594461,-2.7072967770427567,-8.20529427421934,-7.460498237465799,-2.550809986098102,-7.5396575129962,-23.882906439152066
1.36,-9.420060884388477,-20.487038549599674,-11.896473040343153,-17.630156843049917,-16.27085654889288,-10.282715037890739,-21.272699201204887,-36.88750576750499
1.364,-15.314328987632507,-26.774386411774685,-21.99000299108775,-26.55247400814642,-25.61832585816046,-17.539037479677063,-34.573385788189626,-48.30402966363181
1.368,-19.07063607005057,-30.659348840991697,-29.396772578312266,-32.22787943403091,-32.01025718914207,-22.09232911480467,-43.340730033512955,-54.32716124644685
1.372,-19.599820499353882,-30.823312973330758,-31.245751192837815,-32.78560983323041,-32.81355565870035,-22.386189276696314,-44.84974390690695,-52.66036959115081
1.3760000000000001,-16.911106463100623,-27.180105226593696,-26.713542935382975,-28.106070092471782,-27.496106153744222,-18.2553295557027,-38.85536910816518,-43.573607554719274
1.3800000000000001,-12.042227021985127,-20.89164361575331,-17.44023312427271,-19.88259503192421,-17.900573548020475,-11.044451879415647,-27.58250337505524,-29.837519705526574
1.3840000000000001,-6.533052165434128,-13.805382117603585,-6.803100823981367,-10.812827373021719,-7.395508032814178,-3.0373620682075853,-14.650841504624623,-15.528647877703406
1.3880000000000001,-1.738195883131084,-7.619658376703228,1.6049136411747895,-3.345516962748661,0.6642628939307542,3.534393977448417,-3.50966336221245,-4.279517273862439
1.3920000000000001,1.6653480656723332,-3.228813188395179,5.525912760269421,1.343875322756503,4.370702918332427,7.40278513062367,3.832019951660186,2.1623157827561954
1.3960000000000001,3.7521281341723807,-0.5644290844038551,4.867425522771555,3.6240570711543114,3.890102327319255,8.638352976537135,7.237053143695448,4.372192836333852
1.4000000000000001,5.015775491574459,1.0304602564592642,1.4403413091031325,4.825646305760529,1.0299378649178834,8.330678029171395,7.959886057782569,4.536288913950557
1.4040000000000001,5.911624751171075,2.1904389794917734,-2.1631896747730934,6.227195131315966,-1.9174559495713766,7.811837338795158,7.665624330142236,5.058797936928386
1.408,6.555374282340381,3.0605742564830507,-3.917951054374498,8.223762892077502,-3.383963389368546,7.8807257927255705,7.539177991215183,7.262341184065008
1.412,6.7575227313136565,3.2501113069247367,-3.234239517898459,10.160822666117383,-3.1474077456541636,8.464044714410193,7.923235196794849,10.857045122002091
1.416,6.3397362639434505,2.216905000328552,-0.9452605970545847,10.889879313137499,-2.0950219973510684,8.854752249604644,8.542112519910006,14.362565275829184
1.42,5.4550093530233426,-0.21277743833616114,1.4534925105663206,9.636010066016752,-1.3895902690319417,8.317373764271906,9.019467200303552,16.14050554264395
1.424,4.656406464820066,-3.5388492805868736,2.798885682203945,6.611581297016528,-1.5956821063264215,6.648977850865776,9.294532023533975,15.391810516155601
1.428,4.639259524084082,-6.712220943507418,2.9010092495254867,3.0011295773492748,-2.2905873615600285,4.356482362454699,9.680174343358885,12.564471039140699
1.432,5.801507080539523,-8.632492319192352,2.5053816633489987,0.33228518513351446,-2.350170787672141,2.3671405273762502,10.583822758324459,9.017937972552318
1.436,7.912333937866606,-8.705493007065343,2.704898415201569,-0.3694695180929557,-0.6707952355072848,1.4713960893222975,12.14728454676515,6.226774612368899
1.44,10.155399396977373,-7.128381261603863,4.200831389953237,0.8820495564796147,3.123156682046101,1.874543542313404,14.07125424716105,5.026827963252799
1.444,11.546547890605325,-4.746447415827788,6.864193137114853,3.1083450662335963,8.38967032542314,3.1202670245911577,15.736001511484574,5.3135555909975665
1.448,11.481075948868238,-2.590183785820045,9.811552124219816,4.966934294086968,13.718313455596217,4.3998187212946505,16.515909469149847,6.279126795867342
1.452,10.075034957101707,-1.3806460694149791,11.891608292494311,5.490685954386208,17.53227401906406,5.023792261210474,16.074623244887334,6.958601288089994
1.456,8.08347113799391,-1.2599138933583163,12.270795091424588,4.5422398074224475,18.723769898228056,4.7580220791642205,14.467486984221978,6.734376337702997
1.46,6.427432736293667,-1.8625099905229945,10.789495493543654,2.7507219288636406,17.01643157196304,3.8519036523794057,12.031440477796423,5.542975609136192
1.464,5.627057828553006,-2.6321145305291793,7.940444029291029,1.0358778310965135,12.941689819100247,2.7867527420567058,9.174691806287228,3.7420954701228766
1.468,5.506551881553605,-3.156713686051262,4.549463834091512,0.056923509764601476,7.516704217819097,1.9442269872633915,6.226176839041727,1.8075483186566998
1.472,5.343989761444391,-3.3344515022281485,1.381048013596228,-0.08733344617030525,1.8192782940050165,1.428881262338109,3.430335937480777,0.09918204733185121
1.476,4.382156491295973,-3.2975178593187593,-1.102737777969196,0.23363235710712615,-3.335687000364487,1.1267841717472038,1.0400597512470995,-1.1844530436519562
1.48,2.365134564694017,-3.21238053021807,-2.7771122321664734,0.5284218460092234,-7.550421554153218,0.912494286771107,-0.6210745469525136,-1.9120780382399971
1.484,-0.233866179261895,-3.121051309270115,-3.747982678003609,0.5221388876470883,-10.838290959036385,0.818374122840396,-1.2258016598862014,-1.931835834900994
1.488,-2.466394701281388,-2.9514204497527317,-4.227797259680301,0.25652439550503914,-13.506603866475416,1.015422847816808,-0.6316136455461674,-1.1096398555273481
1.492,-3.500151633819769,-2.6782969412397506,-4.476799295835917,-0.07511283827443549,-15.972637316870532,1.6194234365939337,0.9444005322675366,0.5207175721407111
1.496,-3.1411417876006453,-2.464854126444152,-4.7720290184688565,-0.3698917179608543,-18.517678185815384,2.487837761051196,2.9206908132073295,2.625761994782806
1.5,-1.9649106666165608,-2.6568737885927476,-5.349890821295048,-0.7314822930002265,-21.052288669130576,3.1855929421762994,4.567882354942412,4.605274889745488
1.504,-0.9554937072098255,-3.589564690823863,-6.290458145122102,-1.348367089885869,-22.999322388786823,3.1869660642842064,5.364011635288989,5.82376319748073
1.508,-0.8652345320588211,-5.319310778964791,-7.399059419301921,-2.2285727054950257,-23.408159981135213,2.200276156912878,5.283273363209446,5.916965340180468
1.512,-1.7137749537705531,-7.482780091507266,-8.199221982407835,-3.0206755395211076,-21.33333709740964,0.4010627557472617,4.820739330018114,4.980563265540695
1.516,-2.7396457242466568,-9.37735360330771,-8.085488755439656,-3.085451115246542,-16.33400352644003,-1.5944284463148506,4.720183814291886,3.50492130213388
1.52,-2.866020137524174,-10.269144356463585,-6.622765976038863,-1.848493411038362,-8.875576193937377,-3.0429832454610732,5.528129918675404,2.0679486839144374
1.524,-1.3986628133025079,-9.757038719848424,-3.832563940919499,0.767446656984248,-0.37704955697608966,-3.501595530520717,7.224895832454422,0.9715463417087449
1.528,1.4733627730929584,-7.991755663388176,-0.29580339013591583,4.111183624632758,7.1880223321159065,-3.108711169959861,9.138407851101874,0.03945724968434661
1.532,4.667405054837218,-5.642497634208667,3.0048007311943365,6.941015529297147,11.992355732529177,-2.5430584234454727,10.202067017035006,-1.2840031450796232
1.536,6.743241705626133,-3.5853298212368827,5.076806660823422,7.9366780989639665,13.078466993621987,-2.6470511961924785,9.456692384001144,-3.5604515403756523
1.54,6.675706765485302,-2.4914436906810806,5.34467231391136,6.329861253283525,10.738650958792277,-3.921578765337472,6.531628541744794,-6.928048354879138
1.544,4.42921228601881,-2.5270087948811124,3.8862387450972165,2.326814708472739,6.35214751647618,-6.191944958125532,1.8566978118069528,-10.88386941117642
1.548,1.0042443723104952,-3.3229102450313803,1.352787821644597,-2.9207233496890694,1.738353458079473,-8.642852894092357,-3.5134091541694943,-14.433244584193744
1.552,-2.0601739091853233,-4.227940195538395,-1.3949454896446696,-7.796037147878451,-1.6683515922559309,-10.213579352126544,-8.371300241469726,-16.544927844304766
1.556,-3.449236868369553,-4.679381138223107,-3.715342232671901,-10.90454641805627,-3.3992898491706,-10.14308694027568,-11.868112745822145,-16.662721239525126
1.56,-2.7235482645883167,-4.517448519478421,-5.465416501863729,-11.653242398708244,-4.037589014812511,-8.37678191177838,-13.820057891376564,-14.991366757392825
1.564,-0.5223541143059265,-4.089213163159002,-7.003812786584604,-10.445709591842387,-4.808460949732762,-5.61619275758494,-14.67456271944502,-12.400260779380915
1.568,1.7588559890773467,-4.104216311422533,-8.933152914241873,-8.42169663702225,-6.910469627771818,-2.994346110983315,-15.171794189904176,-9.990994337451411
1.572,2.6229446462566557,-5.318511486655552,-11.736780621255093,-6.896982600857882,-10.927847388487862,-1.545362712979113,-15.890468815316126,-8.560257713237661
1.576,1.1573257706859295,-8.158370180344718,-15.477774016599142,-6.7584251690659585,-16.562634453333885,-1.7419333004618238,-16.930285780137638,-8.247003600376047
1.58,-2.5647844712875667,-12.448148179271811,-19.700477581565792,-8.090838092377453,-22.7584431016312,-3.323575373557105,-17.879413923383254,-8.53497050399892
1.584,-7.507552348610261,-17.35107827344291,-23.550378156420265,-10.18065024909447,-28.095953518271926,-5.4750778431443905,-18.0596851952796,-8.594012030756858
1.588,-12.075715393682913,-21.572968934382516,-26.041366067196577,-11.864033299494622,-31.25647644106175,-7.243733400340716,-16.908131545063952,-7.762303274361329
1.592,-14.739041725984862,-23.794108022064393,-26.37544749452718,-12.06626331212101,-31.39326765232363,-7.982051117003721,-14.29953531395222,-5.917066084741236
1.596,-14.613104066731012,-23.164440214214665,-24.185064049538596,-10.276527789506872,-28.3054679682391,-7.603497894152497,-10.635380009469372,-3.5441475953512054
1.6,-11.785858246137195,-19.674705430052654,-19.645643369968184,-6.77225856905261,-22.43449682509572,-6.547085411900298,-6.672009877524033,-1.4904865977496229
1.604,-7.278596845245374,-14.237049715649846,-13.446935650791602,-2.514170577738696,-14.739781743270214,-5.501279897031054,-3.204533118623658,-0.561025508255625
1.608,-2.650972520630603,-8.403164834013296,-6.639625843399699,1.2434946524481347,-6.498055026164366,-5.0430350090391585,-0.7758288431650726,-1.173313631254132
1.612,0.6081807348055008,-3.7985847672316595,-0.39855146001355024,3.453501953954401,0.9436908325806144,-5.367538654823875,0.4449453029956203,-3.230613643361721
1.616,1.6781222917561536,-1.4763261189036712,4.267151994536107,3.6916283460850536,6.465513248775096,-6.2286623602303735,0.5937154186794942,-6.2278696919711365
1.62,0.7199807961078477,-1.4876965226976608,6.7788232318125665,2.300781497158823,9.447729029814582,-7.098246183508309,-0.06415401181220659,-9.489741611752834
1.624,-1.2499023644268163,-2.8944952440288034,7.137314734762185,0.19669675702607492,9.917363427988676,-7.46065781165089,-1.289093458070056,-12.399973462208436
1.6280000000000001,-2.8837321150385833,-4.243082285483979,5.8943953202779085,-1.5733006660557294,8.483372883229094,-7.101323917784612,-2.9130641377760185,-14.526122038736503
1.6320000000000001,-3.185416572358008,-4.292849848365222,3.940449320800326,-2.315528395871297,6.057663538444103,-6.238921752228634,-4.776544301312242,-15.619479602381034
1.6360000000000001,-2.0014977103892306,-2.6237689898025565,2.1942987832790095,-1.9790806077162415,3.490544139081976,-5.428045886263135,-6.626494831172749,-15.549477514472528
1.6400000000000001,-0.05663368218120013,0.18088366209667583,1.295762961377477,-1.1164122324662458,1.2695984534639138,-5.283731204450305,-8.081711700302549,-14.258357832623005
1.6440000000000001,1.4834893621682568,2.859668715418593,1.4207129347068985,-0.5516660666035023,-0.5837380360007955,-6.152298987777613,-8.723894551902049,-11.789809066409362
1.6480000000000001,1.6900160647801385,4.131915437856151,2.2830870581074123,-0.9328142966296582,-2.391002869167096,-7.905762415204663,-8.277442419079307,-8.366486985214578
1.6520000000000001,0.39366447708198393,3.326048390685173,3.286200772603479,-2.411205619089742,-4.570983292917845,-9.953055794809188,-6.772499951861391,-4.4307170523752575
1.6560000000000001,-1.745562685897312,0.6644447848875643,3.7580483317779,-4.61027482271129,-7.402848567428009,-11.487930250943464,-4.5929203330560995,-0.5918570361136517
1.6600000000000001,-3.666007535699464,-2.936894410669993,3.1678620423499524,-6.8819108609113755,-10.92246884459746,-11.848624229689449,-2.3612757455430256,2.5346049726504134
1.6640000000000001,-4.563399413826119,-6.397897934209141,1.2663233489329286,-8.682796836921625,-14.963725637977404,-10.813533457119775,-0.7006153852835268,4.5393075718020555
1.668,-4.369452711804115,-8.9970529532402,-1.8576766185942688,-9.838027463367325,-19.243732825900224,-8.691881056602142,0.012741193482725066,5.3789784016043996
1.672,-3.765731509796751,-10.619290001084664,-5.8044100603074185,-10.554078974622826,-23.416907131433618,-6.156773219481693,-0.20677417660226638,5.387788143270882
1.676,-3.7042946166257025,-11.610641077973924,-9.938063607536606,-11.187371889956921,-27.047453105504246,-3.9290505303324608,-0.9773544245690573,5.107567852232023
1.68,-4.73347520043535,-12.374127083623534,-13.49247259279764,-11.933588043701093,-29.549959831113483,-2.4700710630095273,-1.7196697834478982,5.005702673199266
1.684,-6.547518763192784,-12.979682871587102,-15.692852020652936,-12.630570326575253,-30.204550936217856,-1.8386235575380852,-1.8858338880636438,5.223168405358592
1.688,-8.065230249632805,-13.046631738757242,-15.907355433754674,-12.804627318830171,-28.324102404620135,-1.7672529339470202,-1.1559698536057113,5.46963506078464
1.692,-8.03140022667867,-11.988787987733303,-13.831395451999924,-11.954486972830637,-23.576845553076055,-1.8979281377251027,0.443639202747363,5.118467421252717
1.696,-5.77059298977656,-9.440050710720243,-9.632634847399459,-9.881973687837672,-16.29257478512318,-2.0204120576017885,2.5252977270974952,3.4772402929957025
1.7,-1.6410628626599646,-5.5770615774818,-3.9856349999663507,-6.866270306629303,-7.545614142181876,-2.1564286673201423,4.436461040444556,0.13348924109959626
1.704,3.0701000017470506,-1.1385348589219575,2.048813328750839,-3.588908807867483,1.0877068165464152,-2.4604812902689446,5.442873498466724,-4.776089427432453
1.708,6.762601637501575,2.886318030675284,7.295439463999173,-0.8518974645903654,8.04278125628116,-3.0238694491963543,4.9552400276006665,-10.509487121076745
1.712,8.29522453597383,5.697982144261005,10.794722183753038,0.7473631336652033,12.312139604568983,-3.722658480181053,2.7471075197317987,-15.912979231921781
1.716,7.486851846997524,7.0113034284595415,12.083681795156735,1.0127150840689865,13.760029445526925,-4.232395903867655,-0.9145780512117199,-19.808977624639738
1.72,5.099331514171354,7.100004276848267,11.319555074022901,0.13312380328716245,13.053331385355705,-4.214130518006641,-5.29285146041002,-21.422532983724523
1.724,2.3368678409951826,6.545546962377557,9.173933567975837,-1.5072173647913587,11.23584086088158,-3.5578476961873093,-9.387103817145544,-20.670658939099667
1.728,0.2121773085964378,5.888593827799923,6.559355432008488,-3.5362499939710688,9.195533349368816,-2.5083557386496977,-12.267243454287382,-18.180299432495303
1.732,-0.8719205547440652,5.369059953309261,4.273395559898745,-5.711904630850768,7.278457580097893,-1.5821039282236598,-13.41061368944247,-15.019182393249139
1.736,-1.1516216146173974,4.876849126574598,2.6987299811926277,-7.918758924593931,5.227362524736236,-1.3103161036888196,-12.896624853810863,-12.258982953182567
1.74,-1.1771095452259033,4.126670406443736,1.7028599383575056,-10.072155112682594,2.4632702744620474,-1.9322496878594393,-11.349221411777762,-10.542821691422432
1.744,-1.40182680948692,2.9059217762651315,0.7679987903438814,-12.03555435398448,-1.4803632456187188,-3.2331434069728857,-9.649841168687999,-9.855582600950584
1.748,-1.9510094292581925,1.2375288627199552,-0.7110765730622006,-13.619016545813793,-6.616639015383043,-4.630960551510725,-8.552203683117114,-9.602642395180737
1.752,-2.678901890396446,-0.6391130676101966,-3.1001261293986317,-14.661176294153847,-12.441682669452348,-5.469798181678925,-8.378543254211763,-8.94274405150827
1.756,-3.4032118288578204,-2.421567333229177,-6.311309851800615,-15.114395994349252,-18.141441733005195,-5.361309361554959,-8.934096453140228,-7.213153623048129
1.76,-4.086812989588907,-3.893844633577828,-9.793383307820477,-15.047474093998972,-22.91016640984526,-4.37223790180542,-9.66488133967323,-4.242712382107129
1.764,-4.829170824107678,-4.9807347385849425,-12.732225062548423,-14.56075545854037,-26.205459397467166,-2.968590468142793,-9.962938028651479,-0.42130966791228275
1.768,-5.679715895850677,-5.674867198204993,-14.359841000161396,-13.66936659874409,-27.812888102236684,-1.753581011938877,-9.454661587809824,3.4882986379379872
1.772,-6.447324823333474,-5.9335739959406055,-14.248692573853987,-12.253322313705212,-27.75625590990967,-1.1613834298277652,-8.140378752343167,6.676328090627067
1.776,-6.690614475934126,-5.639847309195829,-12.454058412894483,-10.128925536879251,-26.162561015876236,-1.2828275562151248,-6.346080809595151,8.578270676385728
1.78,-5.948354277109502,-4.667864935177931,-9.451007119509086,-7.214464633669195,-23.190427514490693,-1.9025837506087555,-4.53406131954398,9.020656059678004
1.784,-4.096566734595399,-3.0284178953215815,-5.918724413175369,-3.698121713645378,-19.075388346439468,-2.698315641449881,-3.088721000960504,8.185874418464664
1.788,-1.5731253932208347,-0.9680803354285672,-2.4747915532479965,-0.07858041523650172,-14.215217672323888,-3.4582868855031847,-2.187431955600914,6.465456402056589
1.792,0.7093281510933593,1.0547540058496452,0.5011721635892172,2.9635503555273317,-9.20164587371255,-4.176785353209198,-1.7977929824992316,4.315327620070093
1.796,1.757825632010281,2.5382700146892603,2.902647012082525,4.817321532234928,-4.713827459639106,-4.979135583867901,-1.7575584520509437,2.1840792209586652
1.8,1.024825635412526,3.1924275700894214,4.820741018135777,5.202815181146434,-1.2804143416451552,-5.941410043969881,-1.8755702718935936,0.5092324838951754
1.804,-1.2233205481270488,3.131939878401681,6.412940503168102,4.307799542075372,0.953111140418514,-6.944027991818075,-2.003818337305347,-0.2888966077043733
1.808,-3.9382823959931557,2.8895888241240755,7.80791124055213,2.7262638035899727,2.3151070228450408,-7.66916039557691,-2.059054818808363,0.13308152976787824
1.812,-5.755403321338235,3.195147735883438,9.063051061130864,1.2112924617595127,3.4492741604935873,-7.761031101857952,-2.0148070022078173,1.910789149485936
1.816,-5.660540067040529,4.61445901886691,10.173492410151084,0.372270355677756,4.967719881419725,-7.0469814939569915,-1.8820023631433287,4.841806507003639
1.82,-3.524092179469335,7.2289681548299995,11.092963195505945,0.4495627819724177,7.091158798373726,-5.674608859022555,-1.6913843642523716,8.354090535292926
1.824,-0.2242159869565512,10.52084528532032,11.72961125171696,1.255510148630492,9.4660544669523,-4.077221015795658,-1.486499094256942,11.622476120264764
1.828,2.7282656738543665,13.544180149009662,11.941315929085249,2.302130186031718,11.286705317219457,-2.7769706608705746,-1.3101208666394086,13.822619373582711
1.832,3.8915538621895394,15.30893709589509,11.552752642092855,3.0450308278550438,11.668923257789174,-2.1317280304647284,-1.1880694273186236,14.419621894927332
1.836,2.5719400367879643,15.206651018925186,10.41371435272049,3.1268103953370883,10.092652738407196,-2.174855814915645,-1.1296067297480477,13.354303008309216
1.84,-0.8295702555924436,13.29288065161927,8.491672742913579,2.522098924689999,6.694822074042349,-2.6281467208154936,-1.1400987057531893,11.058952290433808
1.844,-4.988935015839161,10.275668597215372,5.933252938837541,1.5176783642937153,2.250271416371106,-3.071624963260547,-1.2350767779207672,8.305581414373592
1.848,-8.255369112857807,7.221042536387358,3.0543873597434867,0.5527017222066206,-2.145575347963131,-3.170137612763938,-1.4447229633096867,5.953796913261613
1.852,-9.392305453592598,5.090497091840916,0.222133817037502,-0.015300289426704694,-5.553035647765682,-2.8213312259395025,-1.7937812192030833,4.695632937568007
1.856,-8.113474742178369,4.333133653992263,-2.3073313414815857,-0.10696014059976733,-7.578230042749965,-2.1522957356955885,-2.2669541212253534,4.870395208645277
1.86,-5.160776301297119,4.732699303971458,-4.486367459345274,0.01905249516676122,-8.472493877990019,-1.3885178774762608,-2.7817773806746118,6.388158036012101
1.864,-1.9165268575352457,5.560386924534214,-6.4458485918776205,-0.12649275325384224,-8.905649160390567,-0.6977590494243486,-3.194900954500554,8.754767622429426
1.868,0.26680674109047686,5.972153676767448,-8.32671780173132,-1.0114917249748032,-9.526412410505145,-0.10516687367271516,-3.3512641663510294,11.183537808034089
1.872,0.6794724561332259,5.431640395980139,-10.089810259606566,-2.8082254078844926,-10.571921335362276,0.47032730307182646,-3.1545293856333956,12.780646082741441
1.8760000000000001,-0.4948277587309349,3.9524723329141125,-11.432872888532984,-5.238118546909391,-11.730295948236744,1.0937801571635646,-2.6125360896949132,12.787796432972755
1.8800000000000001,-2.3820911807442826,2.0666782227626754,-11.878587069686546,-7.631515948594824,-12.311749948782563,1.7053221891819703,-1.8235183297192634,10.843848009759313
1.8840000000000001,-3.9283717923444783,0.5468431078134017,-11.020775324871465,-9.190539444569367,-11.639179619284732,2.1088269103875064,-0.914677800100435,7.171834581948133
1.8880000000000001,-4.44082666777922,0.04942823810506525,-8.784102507673197,-9.342144325548361,-9.430693086746032,2.0757413899718813,0.030831502462206117,2.583943428902785
1.8920000000000001,-3.8844026058914096,0.8392694035146633,-5.553725051644506,-8.022230517428397,-5.985572972459067,1.5048383467983513,0.9949849020467809,-1.750094758130217
1.8960000000000001,-2.7815992522637316,2.7170655930221983,-2.0830550570053674,-5.725644923886648,-2.0734807820767855,0.5266702209009964,1.9621174330113718,-4.719288319993211
1.9000000000000001,-1.798840730369193,5.1667647149861295,0.7997218747877923,-3.267411713461115,1.4183901890719426,-0.5137813089768315,2.836014058746514,-5.697690455954216
1.9040000000000001,-1.2954911205224562,7.608525301247937,2.5359678417826217,-1.3715602544089052,3.8832652936580416,-1.1981610772545537,3.407291650721163,-4.775087923157116
1.9080000000000001,-1.114143092516315,9.61847343583122,3.054513764080184,-0.304462848987896,5.231172201927166,-1.23017451548003,3.4193836255044516,-2.6791340736581333
1.9120000000000001,-0.724030569682327,11.002117240903772,2.7411918948000675,0.2508184973121388,5.835464392957874,-0.5798048456108518,2.7201781061812653,-0.41422480886467383
1.9160000000000001,0.3637487160085584,11.714862111197363,2.181553782624178,0.9804303544024151,6.2226373173307366,0.4908920709076483,1.4003387927632502,1.1809688624070986
1.92,2.1688081233924095,11.721379064939356,1.8279440787764543,2.4779753546099528,6.691298912413913,1.5293811838073452,-0.19213190741356811,1.7355937826923764
1.924,4.077626374179999,10.895966308976767,1.7537144640186852,4.775861999118206,7.068146126577176,2.0644935292912123,-1.6079082873384323,1.3576429871145592
1.928,5.092421315764113,9.058344774586203,1.6344823499498489,7.155743713072297,6.7573094811232295,1.7703131466250852,-2.5428956931773428,0.3873622675673687
1.932,4.358364577307839,6.109524871860685,0.9425770921616277,8.3717480209707,5.055100935004248,0.552396650906303,-3.033629586364441,-0.9064913270722172
1.936,1.6908930478803086,2.2019725057139112,-0.7379538893210338,7.235963607793565,1.5851712810440404,-1.4443570835446735,-3.4348715130927303,-2.460936136489181
1.94,-2.186057405833708,-2.149073572189991,-3.4282337474955966,3.3002853934040104,-3.3672316531901743,-3.8679513988363396,-4.1476242356930015,-4.276653230404918
1.944,-5.871916028459964,-6.113148005575567,-6.6458739817289825,-2.7293483931998708,-8.826608150955053,-6.212960961515819,-5.2407449013489895,-6.113270288574313
1.948,-7.903859759680017,-8.761625343191099,-9.52849072881645,-9.104264703633817,-13.457033098008651,-7.9004056479225255,-6.229104865607951,-7.298394735975307
1.952,-7.4569672794145845,-9.414101018890506,-11.168740538341808,-13.692444352464918,-16.148700949316208,-8.418756187693361,-6.2314783236079165,-6.896256071262542
1.956,-4.785134482861849,-7.983094885229093,-11.02467470242891,-14.915285331519044,-16.59363384916969,-7.5275602971978515,-4.507070183418364,-4.2692107772427335
1.96,-1.1790037570203822,-5.151083498789376,-9.23032422250435,-12.524100798905238,-15.544907208129189,-5.460065065332856,-1.109676227687487,0.2547529521489196
1.964,1.5520556101319016,-2.2647228388741496,-6.659801270808202,-7.823572148000494,-14.593151535376364,-3.0139410441170185,2.741389658225671,5.041325403397423
1.968,1.8585373624305248,-0.8983089520652356,-4.65183760451373,-3.1670537979325672,-15.48157330636468,-1.4098323968519253,4.914818661847676,7.493685739409557
1.972,-0.851858142726087,-2.2166018717612133,-4.468504426773052,-0.9170098844288077,-19.241430460850097,-1.8755536887956623,3.248186661080581,5.079810746417024
1.976,-5.882808641285919,-6.372504893477071,-6.670570731753742,-2.3240947370522917,-25.536410634995264,-5.0851220540771465,-3.2964684999660676,-3.371667558768422
1.98,-11.43841487145437,-12.223554307958693,-10.687840179169143,-6.866318158885406,-32.55735369520971,-10.691905288874295,-13.780778161885792,-16.760813850843988
1.984,-15.276446080318692,-17.58035056871222,-14.832148548070563,-12.40243166980872,-37.59279683554814,-17.228711649158868,-25.26595460563749,-31.748032531162607
1.988,-15.555081987533413,-19.958607496393597,-16.827212180552124,-16.087746652338865,-38.07293635766746,-22.516266084609924,-33.76188929775344,-43.857738795914884
1.992,-11.560778543324432,-17.60181832056378,-14.721230226019088,-15.657149406220924,-32.67602955721168,-24.475804639895614,-35.811368102649794,-49.231002651371455
1.996,-4.033379749416781,-10.329408372107082,-7.800536382256723,-10.470953073135206,-21.989575575247727,-22.018009627963693,-29.988460601105544,-46.23412244780411
2.0,5.054505329531366,0.21161351656246552,2.9262124752385716,-1.8188454099590672,-8.3971955039151,-15.586146522334275,-17.588425598748472,-36.141907738649934
2.004,13.19100679391704,11.070890894135118,14.949031230572018,7.661809380105296,4.786434684824144,-7.06425279337509,-2.1565495055065185,-22.543799475552078
2.008,18.249009854532687,19.13572990438479,25.1578013940898,15.176605772811854,14.567013900449183,0.9549346723497365,11.950879108620029,-9.763780699989184
2.012,19.271265305769703,22.374187162008184,31.035072113164915,18.975096365461468,19.32676227216234,6.228014478931982,21.294511650728055,-1.0624536368040935
2.016,16.794575811819414,20.61275479664073,31.612283311253577,18.989961755663444,19.236883071656848,7.75430471317577,24.568070800710302,2.5302240230803363
2.02,12.573072852567293,15.497466499587063,27.753223650965083,16.64156376656365,15.885444324112086,6.090495715210636,22.785603686827926,2.2458206118471935
2.024,8.799103983020814,9.654164825159114,21.635361161530454,13.955455661002361,11.353506573936556,2.9538340611925378,18.437855028734703,0.5710025117841724
2.028,7.162532375767114,5.477659259893244,15.70331411753159,12.489991617821488,7.239935418824189,0.3289793745316274,14.12575158715481,-0.19235934551215905
2.032,8.153236362021744,4.1197731891711555,11.597453466009938,12.622031092716952,4.078772976162327,-0.4648956195533174,11.37936296634416,0.9593001694265695
2.036,10.911001273435431,5.144958537723596,9.567366020488862,13.522215159770894,1.3843003486208545,0.6958828083634216,10.215947348960981,3.4608715590220527
2.04,13.69687213081761,6.978099251075946,8.623066193530121,13.774634166708893,-1.7731870988241099,2.8401138826120587,9.551774203555851,5.782627875936669
2.044,14.771598918944619,7.839801850103868,7.2744051266490715,12.260475305429736,-6.043645933384596,4.533388583401575,8.119938887351509,6.465276079621617
2.048,13.228911623636577,6.663449844770639,4.439852905117732,8.796852785656483,-11.322508060934297,4.670346613410402,5.330932177381783,4.971322105335275
2.052,9.405566312689189,3.542588724838879,0.052894692252266395,4.222386848847236,-16.749488432842327,3.0194956774357706,1.6242773325889175,1.9239903215666345
2.056,4.700159007151342,-0.44530186543670425,-4.898263740870334,-0.05123943103944839,-21.110439960796157,0.2749098105005032,-1.8217077466370029,-1.3210939629434506
2.06,0.8951554033028515,-3.874050819552849,-8.876561711291743,-2.7455406173503434,-23.38487297349343,-2.369329173978258,-3.796637228430427,-3.4575509012584007
2.064,-0.6580503227387453,-5.6765181173568635,-10.533199221945324,-3.2725066821276414,-23.13020831198469,-3.8545194688285846,-3.7266416537750047,-3.8962124004192447
2.068,0.4080639407407034,-5.548232733756322,-9.277937124989194,-1.8669131767333056,-20.51904125046508,-3.7507392899615297,-1.9184689464455005,-2.968547230853801
2.072,3.410749326855239,-3.9199977178286645,-5.44834602583046,0.691518035628178,-16.099951512363077,-2.3881046356091247,0.6916821800723483,-1.6283244397518502
2.076,7.0264876057490255,-1.6058253767048427,-0.05878013965025275,3.546912540062749,-10.48271001887133,-0.6116522309794163,3.0897655954249785,-0.8973590812388466
2.08,9.920623492496361,0.6255261055391657,5.681053306404465,6.130403377387211,-4.145197855329798,0.6809892561454944,4.698150732377144,-1.3771228051327853
2.084,11.297666717739503,2.329052581541646,10.806046574506126,8.250005864942068,2.550193918168361,0.9664367489585857,5.571101147449099,-3.0568670137067784
2.088,11.143736282140708,3.431213283637362,14.817309817839487,9.941757573670202,9.211655771471897,0.2932584716186284,6.206225625755451,-5.444652828173275
2.092,10.08629959567088,4.087715590372682,17.630835791739855,11.240259019813493,15.285971188973235,-0.8135183535391661,7.124409552362522,-7.8787868654826525
2.096,9.003286236812983,4.499815431563775,19.36070559812174,12.063221077262824,20.074190354409893,-1.6554441031175884,8.488397111117592,-9.817504861857287
2.1,8.607869925039267,4.811828363891209,20.111618701192356,12.289054458759892,22.929169977250012,-1.697495828285355,9.986606187582765,-10.971075445703264
2.104,9.181606170997611,5.095565234873675,19.885482558353033,11.932551782880182,23.505794188065465,-0.7931320356815377,11.010955201561956,-11.29752554392553
2.108,10.521433057021113,5.380774297237849,18.640487653955006,11.253536763598277,21.927469688277597,0.7782997623153278,11.001680996156665,-10.93150818889626
2.112,12.086936235988105,5.664219974115895,16.41962559040917,10.689137623387978,18.75694260094997,2.453111034853009,9.759416469771622,-10.109782727892707
2.116,13.246338238764793,5.878759074313621,13.43642951098036,10.619697739015919,14.77145996194372,3.6224549868034046,7.5446365002308085,-9.129333755060998
2.12,13.501457877095163,5.864362702726112,10.049319185498462,11.106126047441649,10.661500514971749,3.8739207519956835,4.928572333834381,-8.301770864228274
2.124,12.635880478987474,5.384905985218211,6.622214608027889,11.78333943176267,6.803671384037898,3.1536208262409673,2.5081992332984555,-7.86029704764951
2.128,10.791589349415517,4.246954483286572,3.3891309922087203,12.026580386648675,3.2444712903775326,1.8029828172075213,0.6743516390451987,-7.8265447135700015
2.132,8.423562409612487,2.4204523608341333,0.37065642508628116,11.287951490631713,-0.1501937191305842,0.4481780470632657,-0.4777014386140763,-7.947462699737571
2.136,6.146327209143692,0.08945504902817447,-2.588399084322873,9.41964923760429,-3.4761869897854467,-0.22553581051079163,-1.0686711128250863,-7.77161376901222
2.14,4.520162841842193,-2.403175994260664,-5.663070736495683,6.793937954487092,-6.629126128563257,0.27020476135112403,-1.2638428456316433,-6.8766384602208745
2.144,3.842166820819557,-4.693309121116727,-8.85307480746178,4.143049502970371,-9.284792759919128,2.029185464699367,-1.134277068520987,-5.14898857163098
2.148,4.030314832773001,-6.51991892016872,-11.853471995402515,2.204041053238143,-11.015354270794205,4.690531942434973,-0.6273500479901486,-2.9438877965953907
2.152,4.657488549379423,-7.772899704345946,-14.092403419230322,1.3542246758647707,-11.481106432611114,7.545484203393244,0.34050097167073545,-1.0128554122002242
2.156,5.148592095227741,-8.434641753784945,-14.933767522546987,1.4510258089676427,-10.583523203967161,9.779421175540392,1.7367673760768412,-0.1905677645504511
2.16,5.053075723666325,-8.475627073411033,-13.95746441610163,1.94007660164948,-8.507374068431318,10.75138794542454,3.316570585491718,-0.9957497345185402
2.164,4.258988798453402,-7.807708900655371,-11.18793517289214,2.1538725557552425,-5.644758165324561,10.197323088201301,4.659910657568162,-3.350910954250139
2.168,3.035447143659894,-6.343523156876699,-7.139338757946689,1.6349183246993562,-2.4373770956115095,8.282309471193457,5.3307988738042695,-6.590974214940161
2.172,1.873079331001918,-4.142643209660719,-2.652018856375662,0.30781795042889826,0.7604783715410122,5.4976130142781585,5.082320948055894,-9.76991119225022
2.176,1.2131391037548838,-1.52587541294929,1.421667453149439,-1.5578932565708783,3.7452705644816433,2.4587704324044353,4.002099831719761,-12.094968487008828
2.18,1.2217976305860248,0.9657883704139749,4.538461406439524,-3.529327964773529,6.449857832443854,-0.2897404518816984,2.5167380105526718,-13.241001147999668
2.184,1.7298935256135337,2.772767890946511,6.616908249248468,-5.212780382162691,8.858083399799852,-2.392291072917942,1.225235477293154,-13.39484009026819
2.188,2.3542298584088712,3.596294628658029,7.961591207139691,-6.37770281365124,10.921842864474229,-3.7116457683021054,0.6284427890786901,-13.027091958454093
2.192,2.7230841306478624,3.572973178607981,8.990076558106466,-6.971924286904596,12.515281975260223,-4.2918698766134185,0.8787002048843533,-12.550172474592046
2.196,2.6586245954190417,3.2177053780424103,9.920924767901056,-7.073698864087419,13.448187276573549,-4.297909885224726,1.6751609268851553,-12.07787316232475
2.2,2.2131918600784957,3.143755261824708,10.610833800174305,-6.849097369073661,13.53476723080189,-3.9613647861801837,2.37028927960705,-11.422270440983993
2.204,1.555393791475126,3.6997638815820437,10.621785209243512,-6.545203738013697,12.671190010042892,-3.5322321656508393,2.248188043201935,-10.311405996519852
2.208,0.8222263959398788,4.760758921451838,9.494555204134144,-6.474745802936241,10.901542909500677,-3.2207121538574484,0.8669823588907093,-8.64908385119952
2.212,0.03347216131396635,5.788907407974193,7.054836638357301,-6.956352370072182,8.419878024574928,-3.129152951583137,-1.704867771484487,-6.632097995914137
2.216,-0.8700583011450362,6.14473748665182,3.5718262697075716,-8.183623495938264,5.510053042859454,-3.2107010136624012,-4.882690166014527,-4.660100859873637
2.22,-1.8921120744578275,5.488079391649762,-0.32037894255552146,-10.06570838218704,2.4627885667555347,-3.2878757573344046,-7.788937434255786,-3.0893083063247104
2.224,-2.86436397453258,4.021452031092167,-3.8970892883493207,-12.142143185127907,-0.5002434835507756,-3.1402629332988,-9.60964179514258,-1.9962644627307782
2.228,-3.4753870565934903,2.425462820109942,-6.647078186689555,-13.673587527200311,-3.2467640071956794,-2.6425248747752903,-9.925551620340684,-1.12490221338021
2.232,-3.4521934828933354,1.5043667409543104,-8.44741471099951,-13.923761205854248,-5.706925937241863,-1.8713291744370508,-8.853934246182689,-0.0617334523531099
2.236,-2.779103622509183,1.744024613415604,-9.513704452535762,-12.514986980232152,-7.812247295810948,-1.1166591785313358,-6.955802828128299,1.4514436205188304
2.24,-1.8095903509674827,3.0426405219324124,-10.16766433350449,-9.67774690434851,-9.42846366569222,-0.7566039155713042,-4.952621447522006,3.289523265115804
2.244,-1.1673298077223535,4.7555230144052985,-10.584111180212176,-6.243251404523562,-10.34255413944146,-1.0578610919519633,-3.4080446812690752,4.93482881304908
2.248,-1.4263567792236245,6.049434838139291,-10.664083483526838,-3.3219469883091506,-10.313414981982646,-2.0035528507441995,-2.538405266730024,5.708449496858066
2.2520000000000002,-2.7392599985392962,6.361048463695909,-10.10231401947982,-1.8000317734504279,-9.16591595261832,-3.254327198118517,-2.2163576650530104,5.127766486192286
2.2560000000000002,-4.641934046741767,5.706722381964482,-8.587975662114047,-1.9034763939312143,-6.882842547946439,-4.2876151727384695,-2.128371804808353,3.188566988367711
2.2600000000000002,-6.178832436211167,4.680907079926158,-6.007754894571065,-3.057744903600451,-3.645687923556693,-4.641026412290216,-1.9788186341783103,0.4267937442365337
2.2640000000000002,-6.3330776756873775,4.136075149543444,-2.5391068237815375,-4.148545958922796,0.18323354051642582,-4.13852235445529,-1.6183478274260779,-2.280636364683346
2.2680000000000002,-4.558852680057157,4.7290709385373475,1.3942384642650723,-4.081270359949372,4.132921151405299,-2.985602943449976,-1.0682391722915554,-4.0850894403861275
2.2720000000000002,-1.1485481499411208,6.5584461832045235,5.247591103358275,-2.3686742891501353,7.707048906295427,-1.676059290163721,-0.450765559865431,-4.5132840620841534
2.2760000000000002,2.76916548186,9.065936964483171,8.472113306236906,0.5476272323996909,10.441497053672492,-0.7789298914087794,0.07819262355860701,-3.6554186143399647
2.2800000000000002,5.65637459208142,11.265030741236728,10.591779953919911,3.4392075200978525,11.94994630407507,-0.7025598601873071,0.35663435109336206,-2.12026789730578
2.2840000000000003,6.231155894059384,12.171521059200927,11.249644110157874,4.848975907913598,11.97248292440122,-1.5500423028192927,0.20359000022699547,-0.7757700732070134
2.2880000000000003,4.060051654976519,11.24779661475361,10.287531164830284,3.8130506436902465,10.461606188493533,-3.1178517124027394,-0.5743584061626734,-0.3936620992911912
2.2920000000000003,-0.21596722175894456,8.640013406384583,7.853463004400169,0.3788166630589558,7.663131555031214,-5.011180919245817,-2.116203084375627,-1.3422528472899558
2.2960000000000003,-5.146958645226448,5.1068369000678615,4.473944247299528,-4.3507148980452826,4.1295836343431915,-6.798721233582796,-4.390644394086337,-3.449020174558086
2.3000000000000003,-9.094087958342584,1.695321150212493,0.9972207389636765,-8.679427333138221,0.6159898966733408,-8.125379882575658,-7.1039868768681345,-6.071462312709343
2.3040000000000003,-10.926526371432658,-0.6991265825629114,-1.651829522168299,-11.083134330433154,-2.164138835567627,-8.761314610309455,-9.723100555434996,-8.35044062106806
2.308,-10.461098051165038,-1.6881869113589119,-2.8470007560088675,-10.898360067029444,-3.834984757683941,-8.609882436178054,-11.646834575619607,-9.55783139884386
2.312,-8.452211917974353,-1.51424675108359,-2.5894632922409073,-8.596490118902693,-4.562883194713578,-7.708696257329052,-12.465701199561693,-9.386566935196242
2.316,-6.169105717844786,-0.8961050358402645,-1.575563844732585,-5.512528292633931,-5.023813207623164,-6.235745979467879,-12.172969281047358,-8.068704954239479
2.32,-4.767562762688556,-0.6538383311866482,-0.8926518603823865,-3.1545108651716873,-6.077084459683334,-4.494440851473087,-11.179594179937567,-6.230488417247443
2.324,-4.775382623394137,-1.3053385860272897,-1.460629768890044,-2.459356546834158,-8.280540454410698,-2.848832088707127,-10.11232764510703,-4.560568694288122
2.328,-5.91517059123953,-2.8078612566721404,-3.493806233966154,-3.3583792275437077,-11.479516442929423,-1.605231923091992,-9.481290217233663,-3.4570016238860717
2.332,-7.323200127687244,-4.580179893873833,-6.301581477848799,-4.868565243952958,-14.724446860558146,-0.8852264109841599,-9.408592917978808,-2.818423710028924
2.336,-8.024202629257445,-5.792137658297349,-8.573054522027007,-5.650243199614806,-16.61688293655169,-0.5598208871526822,-9.574649118356888,-2.120780482831833
2.34,-7.4064356991308955,-5.775211076620224,-9.030284623637272,-4.729482439426988,-15.956928306735279,-0.31089803213569667,-9.418697182174128,-0.76645488551992
2.344,-5.475395480651002,-4.358063252406623,-7.109203688697562,-2.0041011749315203,-12.380827934002639,0.1943174663941818,-8.4864375587523,1.5072978479157655
2.348,-2.790338605958368,-1.940546912311163,-3.2735562888354366,1.7255837481656044,-6.629995191745763,1.1005270216810459,-6.703915086480151,4.374405854985412
2.352,-0.16858369282124386,0.706244580363375,1.1944648503712756,5.175147576804079,-0.3054500218551084,2.2404550560421512,-4.452556993537996,6.993472316397515
2.356,1.6711431281729574,2.80840620294191,4.828525719349386,7.2173925913333505,4.809763007829986,3.1771067095116905,-2.3837863243275024,8.385552495485513
2.36,2.365884231412963,3.940258300715982,6.6900333833093555,7.415028122647527,7.539993507572376,3.4173037910063613,-1.0802827871018508,7.945268078763206
2.364,1.9670740377543439,4.160137738572928,6.7537508389569325,6.170824395859768,7.806739342813614,2.6867590078858257,-0.776338231015643,5.792764720282321
2.368,0.8316355061184026,3.895681363881806,5.794405685964534,4.459735705669573,6.592633004172853,1.120176050819964,-1.261055245069656,2.772764695173805
2.372,-0.591740349333918,3.6382935709372077,4.850305934252958,3.285479395479797,5.381206043771954,-0.7564396501592228,-2.016742416539614,0.07362021049573286
2.376,-1.9471532220162544,3.644683824186359,4.60834550147365,3.175576454944917,5.378307087366977,-2.2478424582589014,-2.494447002474203,-1.3330808107917846
2.38,-3.044588275583692,3.827988657479466,5.070697593171701,3.978816605750012,6.929420095612045,-2.809399999147786,-2.3631360893045894,-1.1232260429159169
2.384,-3.873090087256287,3.8498870056956207,5.645571636018985,5.0032887457572315,9.379042201101754,-2.3106564039322848,-1.6347159239045368,0.2655550058823337
2.388,-4.565445039097767,3.3606743592703765,5.577668725741148,5.410245039943447,11.431763850908851,-1.0989602717392017,-0.6208639041469723,1.9049086832279727
2.392,-5.337034749987197,2.2173770364806273,4.414879228685436,4.643243721099225,11.78809677627629,0.16863865081575113,0.22685908697656032,2.8582505671009812
2.396,-6.417619944067383,0.5428233431624676,2.2372708155214127,2.679278924448795,9.731716620191946,0.8339763072739288,0.5009976867349906,2.6168681223339263
2.4,-7.966658506740714,-1.3840256738909602,-0.45219835241471174,0.014940608015763246,5.4099279021496045,0.5358440860713927,-0.012096204756289808,1.274010231827333
2.404,-9.995526129481846,-3.320468687292646,-3.0639480791433016,-2.574509484723194,-0.2788550438749553,-0.6425075325748821,-1.2553887885468384,-0.5972188481468947
2.408,-12.304825872835295,-5.175497220106365,-5.225430277873329,-4.354365465322303,-6.060049902668595,-2.239521923766688,-2.894120708107039,-2.271047427883559
2.412,-14.482907678697643,-6.967171731660528,-6.863436808756433,-4.882822611639654,-10.711405210494263,-3.6407155689596493,-4.361785610716197,-3.1931878660116126
2.416,-16.005364522246623,-8.663751784095894,-8.052733240850785,-4.1208640296066505,-13.375230804129842,-4.346122704900381,-4.984999066449404,-3.1590973641377786
2.42,-16.39027903116039,-10.024734627523571,-8.781778941949483,-2.3823649738632184,-13.682463953311128,-4.1542116247719605,-4.192162932361725,-2.31773519162698
2.424,-15.365597179508768,-10.597439861586167,-8.84552511149127,-0.18326698944736108,-11.72761593870348,-3.1955028213326386,-1.7428644166986942,-1.033706305825035
2.428,-13.001940587318131,-9.919037898604529,-7.974187662794293,1.921971444110227,-7.9816923748603585,-1.8383301147230213,2.0873504335894495,0.2593426205482956
2.432,-9.723386215632672,-7.816491129637257,-6.1002090665871265,3.486938055233736,-3.1766688225627036,-0.518893023183864,6.5137472446866695,1.1811437629794455
2.436,-6.207656934772103,-4.634519282260499,-3.5665788066171444,4.269454684435345,1.8302259751973224,0.41856722947727576,10.468806364648003,1.4924740807941816
2.44,-3.202715480045981,-1.219052364810409,-1.0906109484014905,4.261458209488978,6.22742328483173,0.8176030171152888,12.991047814296508,1.1439809512016836
2.444,-1.3137870409794914,1.3801431284077808,0.5477749143291248,3.661011820153135,9.443949528863072,0.7291677068938043,13.621259570884376,0.3239780051901562
2.448,-0.8275757199414784,2.360581662428558,0.928030319257914,2.7755918347494344,11.296422990790688,0.3624700249495163,12.588372535121607,-0.590580202652518
2.452,-1.6116243547901377,1.5455364040375343,0.2582974720891116,1.9007334173971913,12.01132829660537,0.012036551786422933,10.688685675430861,-1.1515357350099293
2.456,-3.1166611298677935,-0.5079763729008846,-0.6897810069477828,1.2165143202977333,12.077800630924116,-0.03118629501977921,8.902699970510866,-1.054737970634278
2.46,-4.490255903040065,-2.7309597883843253,-0.9669993464958679,0.7566507122319308,11.995632611234669,0.4394950820098984,7.935527743831926,-0.32341533848898507
2.464,-4.821380107805339,-4.012987679812454,0.03935050086886349,0.4544700884064241,12.019414929053369,1.4742502955714372,7.913595678380716,0.6246087921799699
2.468,-3.47266776111735,-3.681591090894017,2.267124400625562,0.247105168855569,12.054097088455137,2.922258885378369,8.386105573877558,1.1186814498689728
2.472,-0.39590830716838354,-1.784386406047588,4.988464728734243,0.14650714222250372,11.743908356101656,4.449884979476792,8.6137940347096,0.5539476331616697
2.476,3.7218375465855615,0.9420635917257414,7.1535473140286285,0.23063639477572906,10.691589963095794,5.622433354731811,7.9736239545295575,-1.2930394058030288
2.48,7.6112159037842275,3.404489969472934,7.896066263734497,0.5694813215945942,8.718135012903758,6.052718768434488,6.265389475345728,-4.0590774920995045
2.484,9.865883134630394,4.607649033754228,6.911239236546862,1.1107741208263633,5.990683236393238,5.552880821908502,3.784171080515989,-6.907912532062937
2.488,9.58782964843158,4.076490743683394,4.564108137131257,1.6578038307377483,2.996768517872056,4.2403952424208455,1.1576441032784714,-8.872174797570779
2.492,6.905601241970658,2.0481594571291453,1.6863748811675805,1.960778581152681,0.3758984564893808,2.538360616804539,-0.9458552659225461,-9.260723528520657
2.496,3.053966754232988,-0.6313837849304491,-0.7889282289927451,1.88768922537065,-1.2939549032391824,1.0452896988838347,-2.055095215429901,-7.915916798634953
2.5,-0.08438785556961648,-2.8469520697351527,-2.1644450077340025,1.5657916081397616,-1.6547052072296538,0.32507185132340055,-1.9960061365623005,-5.234724148155465
2.504,-0.8333095865474434,-3.672737399140601,-2.1638413906972573,1.3773614806223122,-0.6375740914874086,0.6884279961318498,-0.8557249232758295,-1.926083768712033
2.508,1.4269522115748714,-2.7611356170544923,-0.9303664203849848,1.7707939127010377,1.5476244877473846,2.0587032284024644,1.1085765348268524,1.314279610563517
2.512,5.86241245702422,-0.5006684078695116,1.0972066917004213,2.975555807548517,4.4663919619158605,3.9892509537933165,3.5488845545708045,4.041933402504355
2.516,10.496124841905953,2.117759634563754,3.338952091490114,4.7812288576694755,7.519942886859667,5.835615185480947,6.057041975757329,6.092586405538896
2.52,13.139440195792758,3.9098513209090697,5.225820036050891,6.556302586139509,10.050171579411312,7.015148801839814,8.204339432190636,7.497901242609714
2.524,12.467370451720512,4.003444765249355,6.322500286450236,7.515626803447049,11.484490854787737,7.2388127964247815,9.626696585268519,8.35604637712845
2.528,8.687312845060774,2.234069813854262,6.432745853019242,7.11713489246381,11.518200325608518,6.6338106853165755,10.16386480631354,8.773022907529594
2.532,3.4401760177239566,-0.7594562935045133,5.665039701224487,5.369976435534454,10.261916352541675,5.692302168815331,9.97402644632598,8.917827070472185
2.536,-1.0491028286835444,-3.8173994291446434,4.403067982198763,2.846662628709055,8.248365283691328,5.045494592359546,9.517877160576063,9.07150597441455
2.54,-3.101903613163472,-5.788714042873266,3.161817231693135,0.3897921783536731,6.255576401992698,5.171987506271307,9.363243664483207,9.576792544147338
2.544,-2.3902115330517972,-6.06718955535564,2.363068826468975,-1.3306410238471926,4.981328475230725,6.1751402913378115,9.88756478080495,10.66703389110171
2.548,0.041001337032867013,-4.838416541257516,2.1461261330388197,-2.12095724151618,4.732436646574229,7.720608362109488,11.038734230943874,12.272703693876565
2.552,2.5109666552809813,-2.9174941886506076,2.325390858957462,-2.246972806980466,5.293866264344388,9.18341788985299,12.311044397884643,13.963125564223901
2.556,3.732261266960222,-1.2755492563408097,2.5284361326396265,-2.133403985005998,6.048239707114817,9.925160915611741,12.98444647656288,15.074051375867612
2.56,3.5613158313924487,-0.4808119390061165,2.4767935155766736,-1.9525293268488895,6.330348365666623,9.587720297318356,12.541966541412194,15.062960501284124
2.564,3.006537491394738,-0.40474342074980996,2.2106393511299984,-1.422454181915782,5.797685222571204,8.255561521600612,11.003709445378263,13.838663459573581
2.568,3.506883284512469,-0.3480979068862098,2.114722237123715,0.03102222108168462,4.61821940792629,6.409951743015881,8.975451349951982,11.891119993194025
2.572,5.936287127510468,0.4714984498316426,2.679362405911661,2.810200660320106,3.3356428708849535,4.682838224990519,7.339880455360344,10.052226512813832
2.576,9.913857866486524,2.325940492545783,4.094079568046254,6.645738558008588,2.459718074163561,3.5317629276933076,6.700291648997791,8.992696436375809
2.58,13.847892189964341,4.651005581106347,5.92836076355934,10.418658674118888,2.0281325600641367,2.995898404368745,6.910223999786922,8.742241018058849
2.584,15.681389874898287,6.181018797595698,7.113405667393863,12.470347284189074,1.3974575994403722,2.6664671255780377,6.957715577144654,8.544795198625707
2.588,13.929191452108626,5.522791495761339,6.32237825548691,11.311159142165934,-0.5507288173042753,1.8835925116118233,5.33786131803231,7.164915568208926
2.592,8.461322038535627,1.89952143276696,2.6200951721068577,6.402682903456707,-4.827964909871525,0.09540558824528489,0.7962028458082386,3.601001023565459
2.596,0.5999552636346834,-4.346436490644464,-3.9516046426640514,-1.4334229414525907,-11.675244310996845,-2.8116072814509607,-6.931948851937705,-2.2332744694244866
2.6,-7.4653556644636865,-11.73437250244865,-12.160384034318668,-10.205121722984813,-20.15225004960098,-6.370736209634742,-16.758582184323586,-9.204314350149616
2.604,-13.592611410025938,-18.148098194075374,-19.896092291441846,-17.47218089480566,-28.24796790326627,-9.646596005060474,-26.448535096789783,-15.251083983288481
2.608,-16.472536140953025,-21.636008286887318,-24.907466040762756,-21.274109168171435,-33.51915099774237,-11.570097067458846,-33.371356698002955,-18.206250061844912
2.612,-15.937384748607428,-21.130096364040583,-25.640929650183125,-20.81770195119384,-33.99580753069176,-11.34250757407517,-35.44601079862923,-16.719671133483644
2.616,-12.751156241424042,-16.781724039954497,-21.8090737459695,-16.62957158232416,-28.956763154059445,-8.739480825325245,-31.883554387317417,-10.833296944247195
2.62,-8.120640067060549,-9.809614662733566,-14.44049193811793,-10.168650683920305,-19.227693410225356,-4.189490519088849,-23.409026043554604,-1.9297750540872585
2.624,-3.2117192600508133,-1.9851463367444921,-5.435939605534031,-3.1414987593097976,-6.89418743332476,1.3920628965456672,-11.919723161357979,7.889884623516082
2.628,1.131870335196254,5.00621336328004,3.163515598945196,3.1420404359562326,5.454965063546297,6.92750666411348,0.23616985653598022,16.690356234934825
2.632,4.415525374796289,10.033410690954952,9.83536814541958,8.063862117318422,15.57779888990126,11.508020922616197,11.02091858663789,23.371738165664283
2.636,6.414815370981614,12.684587292286778,13.902890861706055,11.596171595518626,22.170556429263343,14.605932534379917,19.191103774716794,27.817070545772367
2.64,7.12496545279123,13.165909305022296,15.48296485369815,13.97979658598615,25.027354701031754,16.115177516572658,24.385181480797655,30.540900086885813
2.644,6.742758560635821,12.03450896517711,15.163423008675636,15.403970973865853,24.77572601443171,16.248808072297834,26.865892008964238,32.123465042610405
2.648,5.651092889628671,9.938910690703551,13.640012245588196,15.882730685538945,22.41288397926769,15.379753140084631,27.15034603327149,32.77184889980481
2.652,4.318165814750046,7.451458926877876,11.480010933386211,15.358033019049344,18.889877952234883,13.900831467968146,25.729551461395204,32.283294196416136
2.656,3.1149199022122502,5.005290103675861,9.07227726874794,13.903625885367546,14.900471099719653,12.15658795292893,22.98572917262709,30.35209287445832
2.66,2.145887547569828,2.893911993441634,6.691047741389184,11.856134449348247,10.875381295449642,10.434057116549411,19.26269920750019,26.979173024087686
2.664,1.2132382845429674,1.2700210087480173,4.545264062045817,9.754436143101884,7.062916961981955,8.963273992959785,14.966956105118243,22.6642535619294
2.668,-0.037263214025870184,0.1328251295362861,2.753398669493663,8.119166188083,3.589950612195935,7.902452681159957,10.589904758387547,18.233748914507032
2.672,-1.8568655489023058,-0.6749226705017008,1.274642910886314,7.207057930623705,0.46688398201627024,7.298278533262874,6.6272640039314865,14.43361634155417
2.676,-4.196135983871045,-1.4458715770194885,-0.12917407617669596,6.879744420979932,-2.433505134150664,7.052102121154803,3.425188680002975,11.524788268062366
2.68,-6.670321953770554,-2.508928516222568,-1.7955910066448268,6.697012194756098,-5.314564010782078,6.9418313215055605,1.0899534335221688,9.187550017127705
2.684,-8.71272193024106,-4.076537534683666,-3.9409867676906742,6.194066603060037,-8.288589268200212,6.718126628456503,-0.47168198816962104,6.8257334845484365
2.688,-9.825046101577982,-6.105691223558097,-6.433349856931272,5.1801547163995565,-11.182685756014962,6.248284986179442,-1.4154326592952202,4.061152510279953
2.692,-9.76384301881535,-8.243462787696217,-8.709633314555958,3.8985152174773248,-13.451845316052413,5.628923542834855,-1.807981946376458,1.128834476128759
2.696,-8.57963444289112,-9.916511676984555,-9.94320934043435,2.936142192871557,-14.324712863226296,5.181472941848824,-1.572973001527771,-1.1474937941648022
2.7,-6.525433939703817,-10.543403368572399,-9.409611024404057,2.9165246812935948,-13.147978977371395,5.30653826361231,-0.5927704283394633,-1.8089977281897518
2.704,-3.9379688817609804,-9.801691129893243,-6.884709233174135,4.134929018292951,-9.775292477955873,6.259758214902831,1.1087388262972127,-0.3767316926591775
2.708,-1.1922005251315113,-7.8184506128011435,-2.842247077292541,6.330956896708813,-4.770521948132227,7.951649682434891,3.2337623742328105,2.737728725253419
2.712,1.2578727667203111,-5.194654307806331,1.6670484480462164,8.710549134289522,0.7086818940840658,9.889555376852059,5.217553474968099,6.29098795550226
2.716,2.8702079496306396,-2.8140887510919583,5.435847714096553,10.24272769811887,5.342894873290106,11.328423880067476,6.424838687613374,8.774991474300805
2.72,3.13182644003723,-1.499356514044166,7.619391628303447,10.090859208412894,8.186618959903171,11.575246814684306,6.446231886825899,9.148375652954655
2.724,1.8024395535053372,-1.680869038520541,8.071366775872775,7.955407098841988,9.011980978885276,10.296897353105123,5.297824644625052,7.316486135859122
2.728,-0.8153596310903595,-3.2063467529428635,7.343572155341462,4.2012672992227635,8.310934823836078,7.698822019797262,3.428293199428026,4.111267349103855
2.732,-3.806902832896867,-5.408119771735073,6.330562517208364,-0.2970170540784238,6.951419724674906,4.476647714596311,1.4917877112757196,0.7614630776470221
2.736,-5.888058649121376,-7.3883279941696856,5.771822556547249,-4.485978782799521,5.706606218570869,1.5402473401049974,-0.004457832322259492,-1.796522071842901
2.74,-5.919009086131155,-8.39188277411722,5.878110085802973,-7.487187667414446,4.920378704683799,-0.3399172254912628,-0.9734708625005624,-3.369804750185267
2.744,-3.4679337206594028,-8.105830494475867,6.265132900301978,-8.835973163998233,4.459037160147545,-0.8093249283338082,-1.7825655976726011,-4.464491432005616
2.748,0.9012355009660951,-6.72806492247355,6.234135292510473,-8.524573465489539,3.9499500289698517,-0.002761401150110032,-3.010544290305461,-5.7818795863099695
2.7520000000000002,5.813971515588264,-4.805640777286044,5.213325157406189,-6.894825165010161,3.102678795509064,1.6038874521245816,-5.058922326008997,-7.6216926063812025
2.7560000000000002,9.678763605183349,-2.955232762803689,3.095040773119308,-4.476187689963126,1.8864860005153332,3.4597962832463054,-7.842492726276305,-9.570352189202367
2.7600000000000002,11.406945163564387,-1.59986558599212,0.309571111811465,-1.8443653295073545,0.4873513153445401,5.181994377853243,-10.731049799923312,-10.684702216870846
2.7640000000000002,10.87773200083052,-0.8692295740897862,-2.4042157358455825,0.4646724136246121,-0.9023018670873171,6.659282925157186,-12.803061308125507,-10.049025024141429
2.7680000000000002,8.91536484933522,-0.6643365792688201,-4.364529247944347,2.021727907595732,-2.261573157571547,7.982651584769428,-13.272916905426882,-7.368898631249067
2.7720000000000002,6.805474900163063,-0.8097063822829114,-5.229499712759889,2.5821384069126907,-3.734020908246066,9.27922242640443,-11.86763507896103,-3.223970000236932
2.7760000000000002,5.60028490884747,-1.1889603737274683,-5.058799891785156,2.154881467944506,-5.4347251631486415,10.552102988359366,-8.962013298201327,1.1851910426876202
2.7800000000000002,5.588938350251965,-1.7752391887759131,-4.1532932696673015,1.0100594742050362,-7.2166943778065615,11.61438713285952,-5.41084648601236,4.627513211427868
2.7840000000000003,6.206482108681712,-2.5681412129949877,-2.8145594593243004,-0.41947869076011557,-8.598807564121216,12.156573306515838,-2.173636597787663,6.431654339679426
2.7880000000000003,6.38019067943128,-3.507750597949098,-1.1872785158495844,-1.7469540644347035,-8.95165765525212,11.888978873183078,0.05986963158875369,6.719399534610147
2.7920000000000003,5.117430684876581,-4.445305414723862,0.7240795579157293,-2.8532538736926654,-7.856646045858952,10.678841100645968,1.0604965557749892,6.178483531934489
2.7960000000000003,2.0244125650290243,-5.203816898263767,2.899819815666433,-3.9860898959987026,-5.422094147545067,8.617588068127134,0.9998971510572119,5.544946190247629
2.8000000000000003,-2.4942362049318945,-5.676388058637713,5.159501409597169,-5.643947872702029,-2.330032967218358,5.992249565358634,0.23099152011900514,5.118713533687696
2.8040000000000003,-7.414342395306221,-5.898289706826063,7.135575567740034,-8.265398002740767,0.43943900222575394,3.1937289985244206,-0.9358377905950874,4.620879107649216
2.8080000000000003,-11.529004515930865,-6.025481137370662,8.410616356194396,-11.87943804972474,2.06978535320809,0.6081164447177798,-2.3260199898372775,3.4404446335461216
2.8120000000000003,-13.913730142719032,-6.229823757935719,8.72903489272494,-15.92725384310529,2.279471403764319,-1.4712434773791756,-3.838339125904895,1.095882458919732
2.816,-14.232238517545056,-6.594730416746643,8.121575485111634,-19.410046028350052,1.3634173516973078,-2.8991126078690286,-5.335385040105393,-2.420114976064724
2.82,-12.76683586516856,-7.063992297028335,6.8660581624658334,-21.315131108243804,-0.09101027285782948,-3.6949182568259857,-6.597147200329346,-6.601152876888591
2.824,-10.202493061656696,-7.488767087333827,5.296088134856291,-21.10547587939641,-1.6241971116378409,-4.015813186450941,-7.398576253040119,-10.695443286037516
2.828,-7.326145228931864,-7.741439944880312,3.5872771006042967,-19.01952159114512,-3.179646014232503,-4.101093906483129,-7.670083674807984,-14.095745831417844
2.832,-4.75306696703683,-7.802675194736139,1.668861254587,-15.989440385600574,-5.052987035275578,-4.178137690438689,-7.612211800187424,-16.585962934022973
2.836,-2.7714110375327436,-7.756348719020252,-0.6676882734027458,-13.195922054303765,-7.559172915219278,-4.354286542425143,-7.646843888164767,-18.304318908671576
2.84,-1.3485713551538083,-7.691143756441306,-3.5263912762291056,-11.492864465883486,-10.661279765592212,-4.5504013059944555,-8.191811721526847,-19.480570823062862
2.844,-0.2639024913038952,-7.593055277206304,-6.712326376054989,-11.02192246144864,-13.852269576012816,-4.519284891385041,-9.381462670151336,-20.156431137574145
2.848,0.7093604117786754,-7.308970038484972,-9.718281099709714,-11.21940694614068,-16.3950727529716,-3.961045171900878,-10.914311100795999,-20.097045546951108
2.852,1.65227009079058,-6.628539583056977,-11.931847892738006,-11.215261114813757,-17.786818090553652,-2.7053723337726296,-12.148366087947124,-18.95506602195428
2.856,2.44170767666742,-5.445813390236253,-12.952172360385475,-10.392532231344603,-18.127905726069912,-0.8731729826081391,-12.418091851951203,-16.57931749381214
2.86,2.808060495676955,-3.8871771325896134,-12.811532826760867,-8.78123613885623,-18.102551744823813,1.0920403375355363,-11.404568706629334,-13.245784692758434
2.864,2.457576649425846,-2.3295737051515744,-11.965810922029732,-7.08063178686416,-18.550089860021103,2.5563372080616773,-9.340366020789133,-9.64152667536132
2.868,1.2138114748429416,-1.2571720559376445,-11.036679083799868,-6.2927945369388,-19.852228674909497,2.9527770282420533,-6.905764822080982,-6.588012359939967
2.872,-0.8710238197602393,-1.015593139523503,-10.436637676966484,-7.165546636078261,-21.51707430436977,2.0509355727620004,-4.851898531524512,-4.6473858561280394
2.876,-3.4769530070971086,-1.5986783562877918,-10.09542403043747,-9.743485082849475,-22.263101672998687,0.10303647999353416,-3.5607993463891034,-3.8282860817082565
2.88,-6.078709868931583,-2.5923799893505475,-9.455022888098028,-13.277033285761945,-20.61525807411374,-2.227454165099516,-2.799811984198186,-3.5694853788775163
2.884,-8.079071483091525,-3.331116248342255,-7.760361657472799,-16.53122639855974,-15.720892287736774,-4.140116425910492,-1.8384399918861618,-3.016345328514717
2.888,-8.94808290007768,-3.1768860976975475,-4.483685183992634,-18.31246181816823,-7.909479128442513,-5.04302691049611,0.1264254474012887,-1.4464684832078092
2.892,-8.36701447915334,-1.8083530344227938,0.330310931756685,-17.976830530323014,1.3173613483839972,-4.807231995622942,3.462516358719313,1.3555182372329
2.896,-6.334180754135787,0.6155271417169388,5.972738157798517,-15.682765414680489,9.874404850744213,-3.8055247597587822,7.793358832151853,4.946698921012285
2.9,-3.193523530151765,3.509141985087922,11.297654579626396,-12.28435023969223,15.967091649694567,-2.7043746219965215,12.080715153686242,8.360229294985174
2.904,0.4281068287668859,6.089227356002311,15.147102081204935,-8.944610900425232,18.78074560217692,-2.1125039356234083,15.062824379463564,10.460301425769103
2.908,3.7939044502593333,7.684933105152368,16.78521289588832,-6.642145798181446,18.66337280500977,-2.2631367888157,15.828158783975823,10.375734216930368
2.912,6.285825413125963,7.98211709771158,16.14489156399577,-5.793834717942673,16.746141835878575,-2.8953921687309503,14.229980705657908,7.844391646041686
2.916,7.61059037570169,7.099438620526257,13.792400786767075,-6.140676782604714,14.259773592425745,-3.402356324555285,10.930054885807749,3.3518110608890765
2.92,7.892711922071612,5.489667005429965,10.656058195701462,-6.923086878400454,11.946780138669737,-3.179130365765559,7.068154145314338,-1.9854940996833648
2.924,7.590449980584481,3.7101030694694828,7.642976337681148,-7.265125704657066,9.849317842763185,-2.005058672237965,3.7378772408578698,-6.768454380034427
2.928,7.26149364503442,2.1937826304362034,5.330474011396291,-6.587525817006394,7.540265028541739,-0.25307997354889267,1.55201334259732,-9.76785842692675
2.932,7.275406271601241,1.1214521527800798,3.8422792681469673,-4.8842502441744955,4.590291118619916,1.202480746585934,0.49659958247639224,-10.318893353244903
2.936,7.622703399725651,0.4365875965612531,2.9209368608610475,-2.744302474655001,0.955821030539596,1.3591981373608633,0.11637315240955104,-8.515885526587681
2.94,7.91527006057413,-0.03222223500824839,2.1303110762112283,-1.1078250077831626,-2.9317596728938042,-0.4213030600660659,-0.11449374172502758,-5.125915531711144
2.944,7.586474305653837,-0.42616735621402313,1.0813146480177238,-0.856106868136294,-6.398178715542713,-4.034260194263652,-0.46364173737947567,-1.241707154371852
2.948,6.19275637998112,-0.7722252878886593,-0.4107283862049371,-2.412440608045472,-8.898584913409081,-8.563458980079531,-0.8335892291935352,2.1654748370801826
2.952,3.6484151475860926,-1.0172755393316493,-2.285198788910975,-5.542241925183021,-10.290511031962069,-12.589780421101977,-0.9081349394076597,4.588640259680233
2.956,0.2809528482953283,-1.134663029937201,-4.28391589902003,-9.428084392723576,-10.832488552627524,-14.751550846171085,-0.4308491879561416,6.067089901164309
2.96,-3.309874707421386,-1.2244799309327163,-6.042513910033506,-12.990323237635948,-10.929657093526885,-14.311839267528285,0.5612567660003833,6.981871457945999
2.964,-6.491291047846175,-1.5268459076302747,-7.188414231232855,-15.306579666966627,-10.802521966880363,-11.469185432096083,1.7046648566541762,7.701400969504903
2.968,-8.7856546357541,-2.2888594244753904,-7.398044030392384,-15.92568809849331,-10.26904364202045,-7.262197926072304,2.496431416658197,8.293589925252263
2.972,-9.932024839512678,-3.5703196733605864,-6.445133675718296,-14.954014834512577,-8.79429136684837,-3.111675715439901,2.5769267253940598,8.476394781683894
2.976,-9.829078243328013,-5.104900200794361,-4.2565608359543035,-12.901119841372633,-5.7901260678228255,-0.213114430027872,1.9481033356303215,7.831855449079399
2.98,-8.459260990298617,-6.325920469363496,-0.9735040807775022,-10.399047795199635,-1.0039724656689941,0.9258901183060289,0.9886296583981675,6.139981004266019
2.984,-5.894534709606319,-6.609106336302716,2.9882617230759934,-7.9578171998452945,5.1927169566974385,0.5949407700468328,0.23714757169295808,3.608870451325288
2.988,-2.3917678610239363,-5.60643709319703,6.960519948416504,-5.856509209384058,11.791985862465083,-0.3820130580687646,0.08772324908363771,0.8534998784356276
2.992,1.519387570893059,-3.489679547004698,10.1494304270866,-4.181240311622332,17.430979339537885,-1.1232885485226234,0.5569824960500682,-1.382364697495177
2.996,5.066880580528959,-0.9548004100566914,11.846495552414808,-2.930774003531269,20.847333319709435,-1.1373795505487578,1.2318565498350154,-2.605998528377654
3.0,7.433963238492083,1.0633687320427043,11.669687592521655,-2.0866741621400706,21.326727106817543,-0.5216053621346646,1.4676499223097608,-2.819880908358982
3.004,8.070029330383647,1.8311138864212921,9.71747833897507,-1.6158126988734693,18.94164094909081,0.15892770125105926,0.7100957035394231,-2.4896064650330345
