Timestamp,O1,Oz,O2,PO3,PO4,TP7,TP8,Fz
0.0,9.237055564881302e-13,-2.2737367544323206e-13,-1.2647660696529783e-12,-1.1652900866465643e-12,-4.618527782440651e-13,-5.243805389909539e-12,-3.296918293926865e-12,-4.263256414560601e-13
0.004,-13.436741576206899,-34.83802643870465,-33.088582342751586,-20.73476150253981,-34.1115109729181,5.825442847198616,-6.690308468330599,3.678223698283972
0.008,-23.526089029629738,-60.57622958655152,-57.60189401560775,-36.627121451768744,-59.15675914409476,9.790581959918825,-11.182467842677468,7.02549919095469
0.012,-28.368760305001878,-71.96183980434166,-68.41804284615105,-44.804801334506465,-69.77891938263883,10.716253271535734,-12.2173757807807,9.864761413319329
0.016,-28.228091615903587,-69.55839541882837,-65.68207695780882,-45.384572155688794,-66.24826020256728,8.515540576152603,-9.949269238115676,12.219254065100898
0.02,-25.149593701254346,-58.88878827047965,-54.14188612464772,-41.05772836903107,-53.69537464260242,4.188367554952805,-5.718957991083215,14.231081483955876
0.024,-21.744445798898163,-47.34281152091112,-40.487432424427496,-35.541268593511695,-39.21265749052271,-0.5953829098076682,-1.2798787979175756,16.005471911333842
0.028,-19.805864665721103,-40.532955260080826,-30.14444310439371,-31.74598060431658,-28.423339662780695,-4.142087465286323,2.086396624609776,17.495090280359804
0.032,-19.517021978222324,-40.00535428616933,-25.162270779827693,-30.61282279445218,-23.300410244308942,-5.347085619855548,4.10222845348477,18.530099221373575
0.036000000000000004,-19.644461061509936,-43.35061484584938,-24.145031648692402,-31.137508664044056,-22.209940748412315,-4.0363780524543245,5.40114126170576,18.961402191193528
0.04,-18.513250063961657,-46.32941021355094,-23.944054389569963,-31.38748370417357,-21.805942429158545,-0.9280576909696805,6.919781020877224,18.809159857033407
0.044,-15.172031644184216,-45.64097418574736,-21.966246868174423,-29.832582239285145,-19.489692395611975,2.717247538523452,9.141369895613451,18.266663684165977
0.048,-10.060359236299583,-40.7343086455632,-17.73788255197747,-26.208977649372166,-14.973401604197313,5.6012669191305235,11.649935829291138,17.537354944476192
0.052000000000000005,-4.853783259313367,-33.84223107815075,-12.990441460413948,-21.544387771908603,-10.231763686269414,6.852767817657067,13.250906871675724,16.62948575329345
0.056,-1.614277720256375,-28.479170979422836,-10.443530820179177,-17.473360566748156,-8.11252875920329,6.292767606694113,12.590339908742827,15.283567590638214
0.06,-1.70679232749454,-27.373791886255727,-12.091230446471045,-15.304966510077705,-10.52726430812077,4.435592480684122,8.959544327174854,13.148185336544273
0.064,-5.07817888445296,-31.023936262953356,-17.995062189400365,-15.383311920237709,-17.290506335934896,2.2445733378091006,2.847976275353574,10.146984853394017
0.068,-10.247961658749254,-37.55014912239126,-26.18585500302839,-17.0222385342747,-26.163370291214616,0.753721619812822,-4.067095159558562,6.814283519342268
0.07200000000000001,-14.997697671349563,-43.80013444114128,-33.66202320739748,-18.974885925085744,-33.988870525246966,0.7046505067603164,-9.531019343499487,4.339373349136309
0.076,-17.413106741444736,-47.02925478997756,-37.89927316478071,-20.137968916886443,-38.24741461568398,2.3037889632091577,-11.675044202255386,4.166234501704665
0.08,-16.7388445494556,-46.189178068947456,-38.01727531712731,-20.067288787641928,-38.15246956665831,5.1866120602784065,-9.850958165054713,7.2920214394634115
0.084,-13.666200063024647,-42.23103106025295,-35.047843186475276,-19.08337577721168,-34.800026507216785,8.578647363638396,-4.960197946902767,13.592549928797183
0.088,-9.925279486494432,-37.37089673568241,-31.222249889967717,-17.956175308436436,-30.382827223424968,11.599958744887374,0.9214398839512512,21.60395828268495
0.092,-7.438824528504838,-33.863500248231254,-28.764222970396624,-17.420666032798103,-27.010197465152757,13.59510485130113,5.4649135433404155,28.976566919597964
0.096,-7.469315630609252,-32.97523212896044,-28.85026051444445,-17.806242971018072,-25.771985584247815,14.357715186401023,7.1098432910184854,33.454485681785265
0.1,-10.100956690997009,-34.53995720897252,-31.147429540560406,-18.894728989366712,-26.378401699029673,14.173231699794357,5.742288518526273,33.92977578811574
0.10400000000000001,-14.261278954998957,-37.20226177971158,-34.07343637094174,-20.03327635473918,-27.446745489414532,13.64656470253896,2.7003542608782993,31.000917798931496
0.108,-18.242415864388487,-39.12172786256548,-35.589541032234834,-20.421036405270165,-27.216627526957797,13.383855437312334,0.08858766776460669,26.68437312617744
0.112,-20.502582308726893,-38.83304397809462,-34.18155717324318,-19.48326818960033,-24.411628897379785,13.672033510858839,-0.29397246908870756,23.369646678465692
0.116,-20.383964197010723,-35.913792155491905,-29.59625061330506,-17.18995997385658,-18.9072221472393,14.332673477747576,2.119894952273839,22.5647061922584
0.12,-18.39950116017234,-31.158519125310693,-22.990656157140727,-14.15507616480567,-11.90045459393735,14.825735817669212,6.355429257459065,24.103291398466048
0.124,-15.963250823642042,-26.219023211104865,-16.446499842989198,-11.454399110401617,-5.514047168849995,14.539770744923729,10.355568583512849,26.240027068736524
0.128,-14.672692688467052,-22.843060755086036,-12.048490202146237,-10.185069296502448,-1.9469557919123162,13.136644672086078,12.003810391646581,26.620863164176477
0.132,-15.50340928790726,-22.09710118088108,-10.993523217502336,-10.971570500798947,-2.5573745631470572,10.770495244774551,10.17731120162896,23.608949519231565
0.136,-18.331700579373805,-23.96382780208032,-13.172837918112936,-13.673047235730081,-7.3125105393091445,8.057120328515943,5.272087811723921,17.235538308330874
0.14,-22.002766223989045,-27.43991443493367,-17.361219449133376,-17.426555355344497,-14.818600097426792,5.8014003280397475,-1.0466592614833203,9.24843806993632
0.14400000000000002,-24.911739686231595,-31.070452525156696,-21.883475545847265,-21.02851665559045,-22.922621975216533,4.612809228190784,-6.721617694891819,2.2216139023733206
0.148,-25.79934925746748,-33.63532758637803,-25.39990302741793,-23.47064244780094,-29.60121160419299,4.624968843787393,-10.324203153393015,-1.77066074790077
0.152,-24.366691272167866,-34.67602800240027,-27.440291036099065,-24.385406498664864,-33.75005304470058,5.469571126778099,-11.667110651833248,-2.175978827931793
0.156,-21.376578477683,-34.6133190683507,-28.443196561763447,-24.158288278113485,-35.516160944583184,6.524960735187243,-11.693940344422657,-0.1085366344318075
0.16,-18.190334858942308,-34.37958426443213,-29.303374541811177,-23.639907613067976,-36.01015776284171,7.281231270194915,-11.759358898376135,2.4176453907968565
0.164,-16.02248498065906,-34.80759576594269,-30.732173467698896,-23.643551193331056,-36.59580485904723,7.5957570223463975,-12.767876267577723,3.6696607214785786
0.168,-15.318434106678687,-36.123343608576796,-32.799433710558645,-24.507115710884158,-38.13708290978961,7.696169772058042,-14.6743890436783,3.109020345485604
0.17200000000000001,-15.619413487166131,-37.885313810851606,-34.95258668945631,-26.00320333705674,-40.64975424599468,7.931881528155451,-16.64038628911031,1.5113668459726526
0.176,-15.991208876728752,-39.419717600195646,-36.49379244166265,-27.64333915206204,-43.51769908248404,8.440664991463962,-17.72315414005932,0.27216826583663334
0.18,-15.710489962276462,-40.384920520773434,-37.122559624521344,-29.115303249153143,-46.002894117140315,8.962607600639835,-17.599845414317976,0.3863997925567375
0.184,-14.776194400717753,-41.065595563887456,-37.156843308617326,-30.533214443173833,-47.678325345289004,8.938364840405953,-16.843810308108,1.7403949803701337
0.188,-13.89772647563909,-42.14685853463982,-37.25618213039968,-32.293594653165115,-48.48819103866528,7.853987339827285,-16.55463718399769,3.1594728638795644
0.192,-13.949563399232336,-44.107324430274446,-37.839701656432304,-34.62750431032744,-48.467113856365216,5.647985790398025,-17.562768789474504,3.189134868995964
0.196,-15.257232333325366,-46.66296641773754,-38.62500699362879,-37.18382750482493,-47.40740073612555,2.918003678490564,-19.731854667040857,1.1037793194112169
0.2,-17.169403299572245,-48.633914824254596,-38.60907989897522,-38.95596258192202,-44.756570205517924,0.74903200919384,-21.835751624954217,-2.5228840488468904
0.20400000000000001,-18.22808637646046,-48.390245148706825,-36.54935585056109,-38.682831104558176,-39.883776365008586,0.2034289003428782,-22.141409447744113,-6.067077077299146
0.20800000000000002,-16.890315808798533,-44.66095685408372,-31.67242228817937,-35.525985413341715,-32.55802414478328,1.7358539526658419,-19.369743405225798,-7.7710737932321905
0.212,-12.434749838580517,-37.30853188060989,-24.231871039590622,-29.65786500311362,-23.363518695490104,4.870670937754433,-13.47680929696589,-6.774475424086717
0.216,-5.543059442067637,-27.642715288163338,-15.590273541230237,-22.40017641396572,-13.770211374182026,8.339327370809336,-5.791115113833808,-3.628691934070389
0.22,1.8318470309919874,-18.01373457514145,-7.716509323799869,-15.755669514839639,-5.708195863260173,10.641411409170217,1.5913128760645492,0.015581835091829532
0.224,7.284535645037643,-10.87217206114207,-2.3661281006173773,-11.553962355241193,-0.8392426757309366,10.738625690900008,6.7899993114280655,2.330882633498092
0.228,9.05614630288241,-7.763598807429577,-0.3835845211093556,-10.65401893071909,0.09776166060575164,8.522606337896057,8.938613275014614,2.2879935514219696
0.232,6.829504670037842,-8.791211588006455,-1.5068941012051518,-12.646723571002468,-2.505411893756662,4.82653038154821,8.370489042408643,0.11296704790150613
0.23600000000000002,1.8272740167356218,-12.765406504188881,-4.7128099149608005,-16.18095521633046,-7.439355703174261,0.9833490538862364,6.153094517402394,-3.0007681364135976
0.24,-3.803644194568548,-17.88762690496016,-8.841120632013158,-19.699271205836027,-13.297597259727477,-1.8031261934820364,3.3367859672518136,-5.679625562088368
0.244,-8.007324776561992,-22.60573288591722,-13.144432752197162,-22.182316156080375,-19.084636073999842,-2.940221820976344,0.4224507228861931,-7.125062551902765
0.248,-9.691934309885596,-26.15485433313213,-17.43671121615821,-23.483389482893777,-24.453661848682177,-2.559326530501,-2.631183477872181,-7.370580828981705
0.252,-9.043945719750639,-28.545469207157936,-21.809563977285897,-24.121659822430114,-29.48740347672157,-1.2593737314301663,-5.946975449844755,-6.946210167296037
0.256,-7.213428208910987,-30.145063392891522,-26.19489960402099,-24.746273531587864,-34.253305539215006,0.2996588014298105,-9.219644069210746,-6.2504233328734315
0.26,-5.635203361701661,-31.23048311161809,-30.139100785813326,-25.659808145989288,-38.48244744401991,1.6966517596629451,-11.588211827557833,-5.113590027727977
0.264,-5.395342013566225,-31.849615590593743,-32.99357802383361,-26.707123201289157,-41.61854043419224,2.7911309986845403,-12.05627219942783,-2.888442999471234
0.268,-6.899410590484607,-31.981673979176634,-34.33342950913894,-27.51552563230615,-43.1289536163485,3.555251049245161,-10.191174163875356,0.9838523386535947
0.272,-9.8908476213405,-31.77660713265894,-34.2613870311406,-27.84462566889846,-42.807163142707594,3.8850417519934553,-6.587247404437219,6.339122292460914
0.276,-13.703428856851469,-31.654666428093748,-33.37415579027735,-27.78798259299974,-40.874903474695564,3.5680516558922903,-2.718972106911437,12.047302903596734
0.28,-17.539179505461696,-32.13816809092773,-32.380318494095434,-27.683241796858134,-37.82163941009672,2.465970573309175,-0.19839198520674195,16.391819331996956
0.28400000000000003,-20.64849682257586,-33.5108730847275,-31.617014641907613,-27.816183937237113,-34.120546757888505,0.7622096474083762,0.13607720650252197,17.88725984542423
0.28800000000000003,-22.41540262180278,-35.5213042270307,-30.79495791191473,-28.152665175678337,-30.033230777851475,-0.9697334265135531,-1.2975477115577583,16.02127381402296
0.292,-22.43672306119931,-37.35883753222615,-29.17229115035099,-28.3107094160328,-25.640169085094147,-2.008402911186188,-3.119371884360868,11.454885845716081
0.296,-20.675327191387318,-38.03186802751023,-26.137157871870315,-27.847448602992404,-21.11696592008817,-1.94600423558974,-3.9471876796108987,5.5526061572855525
0.3,-17.634982513736684,-36.98410541388935,-21.880983199930984,-26.686935506750192,-17.066111035020988,-1.0809321932850509,-3.4448588518236676,-0.45308181195513697
0.304,-14.39753687455132,-34.60432933503925,-17.7253868824682,-25.392143778420646,-14.62917313909583,-0.4375374635524416,-2.7748448259706358,-6.122152403898516
0.308,-12.36987698121174,-32.23377305607775,-15.757925620986738,-25.019567071018873,-15.151113764109951,-1.300331206138246,-4.088618948622912,-11.864596754635718
0.312,-12.737168260396636,-31.54076597175127,-17.83302724087715,-26.550433252046652,-19.45846777057261,-4.465074522200409,-9.260367560495618,-18.363047169347826
0.316,-15.83507815778443,-33.55140405660466,-24.422887149997045,-30.183072190949602,-27.12608978074828,-9.597361700744917,-18.54000733370171,-25.7168425014957
0.32,-20.78661143091456,-37.88756615976783,-33.98208791495299,-34.92187838091192,-36.20816591221258,-15.1057103357406,-29.933311452864316,-32.87295226898812
0.324,-25.676492958368822,-42.701932339700704,-43.28569589161938,-38.784370997357776,-43.72101156640814,-18.69096330879697,-39.74968142795679,-37.761491688184066
0.328,-28.2582191195353,-45.38598159469808,-48.6499027043055,-39.575456083521175,-46.71702745745736,-18.349209288886172,-44.09454594927636,-38.13152214591769
0.332,-26.901761469402807,-43.729567691504876,-47.48564140948138,-35.873174054059575,-43.46755107934536,-13.338576763228007,-40.57715305879679,-32.66281141409013
0.336,-21.358501625115117,-36.99909913784033,-39.468885420523364,-27.75731829743632,-34.22347925163959,-4.604466303365404,-29.401980790003293,-21.75056082868408
0.34,-12.96181300703826,-26.403216065204088,-26.76369861917985,-16.908710840325412,-21.18683631860295,5.585210257902128,-13.302688851172707,-7.512070134641439
0.34400000000000003,-4.1626303086804395,-14.719899768715628,-13.185349494480159,-6.016867966739207,-7.702819085947864,14.6199039866931,3.597562704320506,7.013684769998246
0.34800000000000003,2.435567904415679,-5.199704984644674,-2.6511905257806516,2.2696732608428682,3.0051435427823843,20.64150694593406,17.41009441039553,19.05813378749116
0.352,5.122714342431635,-0.23211508524785507,2.3877048774883987,6.38735790050544,9.014340571392713,23.209698321329622,25.83299680377803,27.113832617437964
0.356,3.738982510614924,-0.4097021431632908,1.808231641829712,6.415127534169565,10.27328209586451,23.244640914178902,28.667104207978937,31.259558446430113
0.36,-0.3468302725446697,-4.428332868338829,-2.403043519796062,3.8908355288380667,8.33214392860596,22.331369123159828,27.405220089167585,32.72749015600645
0.364,-4.907157755504185,-9.841085481422736,-7.287808650735948,0.9960271891294266,5.410289356601617,21.809476167451226,24.24268770404332,33.01694273010756
0.368,-7.822420531736517,-14.225546905562915,-10.351581558415992,-0.4663597736813241,3.3193032539691414,22.13728979180895,21.048291357238796,33.0393130690845
0.372,-7.889928692578174,-16.154873106944397,-10.56899952031033,0.20060363099546574,2.7823518578903865,22.825362916615617,18.765887214809524,32.73786244952569
0.376,-5.169009627938566,-15.564870873492815,-8.54264808577052,2.4526879101190513,3.4039240006665343,22.898919913015103,17.39797992163044,31.335517820913758
0.38,-0.7831296809083161,-13.462954371361372,-5.882966566338562,4.946495451498572,4.170508937302855,21.57467436578564,16.39111999396076,27.999303721670216
0.384,3.652291043841379,-11.252837196314559,-4.2469516905020726,6.271257107195857,4.112832449597655,18.74903498044421,15.116091069615184,22.51305760353054
0.388,6.683245776200808,-10.035615675097507,-4.5260893089123115,5.602687970533426,2.7980235416766384,15.048906616993925,13.202792920342272,15.578101430226525
0.392,7.508682606202199,-10.180363805494704,-6.522975406616267,3.005491760805718,0.4689327330557722,11.469066310450248,10.654248009888953,8.590643266119892
0.396,6.150819296558376,-11.320554123498205,-9.196728684946361,-0.7111517645514449,-2.1729677081553502,8.848479206567852,7.785071950814391,3.0390087825296757
0.4,3.2984433140624034,-12.699890311037526,-11.272998424082658,-4.456811563657482,-4.36607337875849,7.4949240681525175,5.083420873676879,-0.1453151649409632
0.404,-0.050510741646103696,-13.632771884650614,-11.867104024824975,-7.368024650651495,-5.63227626059594,7.1448450043800875,3.071318972271719,-0.9379060072336609
0.40800000000000003,-2.950516507615565,-13.785784645767139,-10.78612721571067,-9.08057881777691,-5.866553458461358,7.234508067709534,2.199291424160071,-0.09821568059923569
0.41200000000000003,-4.758756708814642,-13.172704573935194,-8.427410645514579,-9.67867169394471,-5.192405224719916,7.275071371242518,2.7486646756295454,1.3138337287360151
0.41600000000000004,-5.274138070624064,-11.999757868261806,-5.474602434851147,-9.466618809909596,-3.793230022997797,7.08627706616727,4.70461479717763,2.466854945117075
0.42,-4.7657439555836625,-10.523066881836144,-2.621454121634626,-8.763082136048991,-1.8758760367650211,6.790498473506233,7.654671548854494,3.0660298957521706
0.424,-3.902619096262672,-9.038040611454328,-0.47866654830427313,-7.855455086161627,0.19745708011959295,6.619772160286141,10.791743435580026,3.2994631165564856
0.428,-3.575482748361442,-7.934255060347166,0.4028854841883718,-7.083344576116308,1.7772963111684845,6.674564179292098,13.08315735960226,3.4943993279577987
0.432,-4.605253352441994,-7.672090293753026,-0.4413209240166015,-6.899785004030856,2.0059358750532237,6.792387423473894,13.59122849428749,3.7374013604140575
0.436,-7.392790606148239,-8.611591397420872,-3.234660754034807,-7.772832449702626,0.1627379135437037,6.612415690420553,11.837614774827365,3.726963240381462
0.44,-11.663804406131046,-10.762245237425113,-7.730504435358128,-9.929900649634178,-3.875361826277211,5.779333112866316,8.046087155862082,2.964092968368319
0.444,-16.452204938139744,-13.62735463875598,-13.100307303850421,-13.096665390435176,-9.35803959339001,4.160350764889277,3.1243897011332367,1.157721101679499
0.448,-20.397796532658866,-16.284022165358266,-18.08621938883285,-16.43764812384117,-14.784396870529974,1.9472453429996741,-1.6415449116123952,-1.4470059827908224
0.452,-22.27371506202862,-17.705530381289204,-21.411361438275257,-18.8122478410043,-18.437592883259423,-0.4092529440507302,-5.059495505522364,-4.064796913577955
0.456,-21.54304625822571,-17.226610989209366,-22.309203719810068,-19.299091282324706,-19.139070776757563,-2.39187404657793,-6.481641126037089,-5.744715475780457
0.46,-18.65717037007,-14.905387400756153,-20.892384117779606,-17.717158116118526,-16.83216439261342,-3.621824274789616,-6.027999642805575,-5.906761524424395
0.464,-14.913258634688813,-11.571651662453664,-18.140518490339794,-14.840533357084734,-12.67852715617784,-3.9780905032134903,-4.483023874118014,-4.716223122045221
0.468,-11.890419517034537,-8.466972566779132,-15.447946061416735,-12.112319227147204,-8.55391802983715,-3.5974028991687192,-2.905336614719298,-3.0511839510206364
0.47200000000000003,-10.7170504976283,-6.631730875009455,-13.941328722609908,-10.956610635796089,-6.171137020352942,-2.7879456755240994,-2.1559136225635505,-2.0645038206914452
0.47600000000000003,-11.538233761988977,-6.384504239079408,-13.936929011962985,-12.049413757971987,-6.290006156457088,-1.9110194123408082,-2.5612581247093593,-2.574660939102447
0.48,-13.479198328987955,-7.199347530457376,-14.848179943145784,-14.960842172397522,-8.434641639064433,-1.2882012124223357,-3.85746066487096,-4.6331413517510605
0.484,-15.141013403408417,-8.079585431938325,-15.618180316726653,-18.398001213557826,-11.278966902654798,-1.160054088957808,-5.44054243428366,-7.531613385778456
0.488,-15.362087683124624,-8.182389447250015,-15.39049755062011,-20.906971866489993,-13.420345025245418,-1.685346357861789,-6.756994364357944,-10.24093817138501
0.492,-13.826271875951257,-7.295811569426737,-13.997817545196067,-21.62094792352806,-14.065210594926125,-2.95322715007328,-7.594197447776986,-12.011351666495106
0.496,-11.209599693596402,-5.9068180515272815,-12.006761629803744,-20.647703163345835,-13.277748586744254,-4.984217804798659,-8.120422009297325,-12.77214983980248
0.5,-8.80691815621541,-4.8527494224171175,-10.331751489577739,-18.899508802686668,-11.719827458268004,-7.700926613501469,-8.683534494854324,-13.090121806518201
0.504,-7.864399226290226,-4.816132072509809,-9.707864383699688,-17.515047765656558,-10.149837606010093,-10.885401563308317,-9.53242550421521,-13.744386715420237
0.508,-8.98544871206002,-5.965347911506264,-10.333977503373024,-17.222542813271787,-9.008419408121062,-14.158300004635677,-10.649985250112499,-15.204708439446621
0.512,-11.90472493718477,-7.935858590494447,-11.870278553937522,-18.00253972650326,-8.321376459182815,-17.018003864534002,-11.807020541950031,-17.347917293859002
0.516,-15.69922689837137,-10.135613339029709,-13.750162496897698,-19.21714379720979,-7.930141362274231,-18.945833362075604,-12.785106308490054,-19.57494442571178
0.52,-19.255634398178046,-12.13356705096977,-15.541756678141308,-20.063459366426454,-7.799275733124549,-19.54270780101644,-13.588962584383719,-21.206793440283306
0.524,-21.733816806217867,-13.887881896918831,-17.13256628673198,-20.06035293020683,-8.15219492177932,-18.66240774187149,-14.472971089555156,-21.889340145396325
0.528,-22.789671187203528,-15.63337678117479,-18.601144159999627,-19.253728159345982,-9.277653383775657,-16.481654563707572,-15.7312087531323,-21.741301506181337
0.532,-22.51636006873925,-17.52322798095455,-19.899597465716766,-18.059324704881938,-11.136598542983167,-13.474208715899673,-17.398195189159956,-21.181808184041508
0.536,-21.25608962851199,-19.33540829576953,-20.652553490637263,-16.92456225055139,-13.109545543623375,-10.294390755587484,-19.074382789565078,-20.59351572907299
0.54,-19.44878002739106,-20.501647560902597,-20.295208668444538,-16.082869163086343,-14.153792486292085,-7.603322379501694,-20.07080241634562,-20.089238274612352
0.544,-17.603066734733318,-20.497772289150742,-18.52038099926812,-15.577624549160541,-13.378099833625166,-5.892906727301741,-19.832896832948606,-19.556741484036092
0.548,-16.29299090217345,-19.2986789670646,-15.694213530081571,-15.466375856435777,-10.667693699279837,-5.365494857906544,-18.374988451736936,-18.923210860070775
0.552,-16.046057584372594,-17.5366789300682,-12.889100676993877,-15.972755242053577,-6.923029407103904,-5.914612287095942,-16.418996656566318,-18.41093081955055
0.556,-17.099660780154032,-16.210992335077258,-11.426655004765879,-17.41579084368075,-3.712233157369576,-7.20471390281842,-15.100022732277914,-18.559523438210743
0.56,-19.121925200717637,-16.063509466191316,-12.118448611323991,-19.899610876247944,-2.4635835372404222,-8.78636300941472,-15.326374134473312,-19.92440204103901
0.5640000000000001,-21.11602206404718,-17.017964279602825,-14.658419253883059,-22.975763456812107,-3.651896259376117,-10.198364225856292,-17.143298162699715,-22.60590223767104
0.5680000000000001,-21.69279540444812,-18.078484227773487,-17.595908279035676,-25.582435385896034,-6.477006252943525,-11.059609026810937,-19.533412773237774,-25.964980900526804
0.5720000000000001,-19.67456077265735,-17.809102353971213,-18.972367274222165,-26.405201873974164,-9.239131244588169,-11.145913825856287,-20.82935177749966,-28.77816601938263
0.5760000000000001,-14.765411503442397,-15.181523755896606,-17.343627848258883,-24.54631525171937,-10.239433885426145,-10.44679467904215,-19.57034412983157,-29.810832836803556
0.58,-7.921924175756024,-10.320859949738239,-12.64347638491746,-20.155340746967386,-8.718403506983073,-9.192511371189095,-15.368428360548625,-28.515844858573036
0.584,-1.1502815055524964,-4.682626757618287,-6.378955010002904,-14.608331249820509,-5.305227163426232,-7.8215174433456065,-9.275430048901367,-25.424112367075516
0.588,3.256392718385692,-0.482675433146047,-0.9940335905833795,-10.043217513528273,-1.7145739581364445,-6.8702401395544275,-3.41017562892742,-21.969475621542244
0.592,3.7129581867520383,0.37296941405921324,1.3006088665643096,-8.40663498953081,0.1540819490820038,-6.7813905765078,-0.007621225392259845,-19.789271855312602
0.596,0.0961495084867352,-2.7112513569610455,-0.3700029984283395,-10.472748258036518,-0.78501669569863,-7.6831973354800915,-0.3386497277470806,-19.847878544165997
0.6,-6.120016205220235,-8.636774011869361,-5.096392273512091,-15.359787024395644,-4.248461748286151,-9.24696411381329,-4.063820609307077,-21.87268267190909
0.604,-12.450931708579219,-15.100658088707181,-10.656889904158549,-20.85438212166727,-8.776851403034938,-10.733946888466384,-9.369696012108365,-24.436821557234033
0.608,-16.437548998816556,-19.688060108752506,-14.627947540713604,-24.40587255121124,-12.51260149965998,-11.255541386360832,-13.807476825083265,-25.658568483796262
0.612,-16.63258573879626,-20.968943280775207,-15.519646054293334,-24.28627756044174,-14.088731195973313,-10.162869695637617,-15.400877344774905,-24.155761429338348
0.616,-13.108548464122382,-19.060380017827935,-13.376785207261563,-20.350018736179326,-13.18266686951678,-7.3886902962238645,-13.48725521852858,-19.76590687971489
0.62,-7.296683173227226,-15.40211407630003,-9.58809280955617,-14.03179851181941,-10.490274626238183,-3.558002108805784,-8.911615712774484,-13.658224045625627
0.624,-1.2988978184498547,-11.932165419980157,-6.0761811042747125,-7.616346557699611,-7.2242383447450615,0.2297371166686104,-3.5319405261683503,-7.777128984204022
0.628,2.9846451438867314,-10.109877005411818,-4.314317072691628,-3.1589348171753597,-4.440391394543327,2.8771486974325295,0.696303817149049,-3.9209743909047234
0.632,4.55091299769386,-10.268767454351277,-4.663315966165335,-1.5894840375655548,-2.5435439594439924,3.7897948080212176,2.59659825151449,-2.9318427935126334
0.636,3.543424222473474,-11.601765163744137,-6.334234518572769,-2.438324886378014,-1.2125944973123985,3.1358512543765062,2.2007419536669133,-4.391659496546224
0.64,0.9969530093657983,-12.73672403230955,-7.932026144613931,-4.279895014704943,0.27188887715229626,1.730959109868437,0.5686868831078233,-6.934294985327052
0.644,-1.7322156738053245,-12.559953943318828,-8.257236968934997,-5.604940334448768,2.5053367199471896,0.6053289274544573,-0.8579518889038347,-8.968036609140762
0.648,-3.577921052585464,-10.839573485575073,-6.931595073469085,-5.643556847653579,5.534515162977634,0.467934418169925,-1.0287533051470472,-9.443357626712451
0.652,-4.142517701924637,-8.321700804302974,-4.53479680212881,-4.698160196565295,8.76451307657935,1.35017649994276,0.19790420541074205,-8.293352427688014
0.656,-3.706542285419916,-6.28051171048023,-2.226426060235013,-3.8333345058825747,11.227326289968037,2.62483463641942,2.0351848599771323,-6.355969886183351
0.66,-2.9240379500932,-5.785745765253231,-1.0876304452921877,-4.132805628089438,12.065176113738186,3.38933014103654,3.2401196094793163,-4.86466302538114
0.664,-2.3852821532680135,-7.092480241760549,-1.5523621070272227,-5.966213389916294,10.968817253878315,2.993167902941936,2.8339287545664673,-4.7803627538964095
0.668,-2.2803998330557538,-9.459032050176424,-3.2045959043084684,-8.687768900324809,8.366211316338253,1.4043015687709546,0.6830273677952272,-6.314606798723726
0.672,-2.3319593528091884,-11.476074669845747,-5.023485073141476,-10.93429272609207,5.274201035563218,-0.7817345809467446,-2.3707939191904996,-8.868724589468831
0.676,-2.032802829323548,-11.762235254002265,-5.946345917236301,-11.37261054322865,2.8593383801131917,-2.686512704585206,-4.923972427600193,-11.392254253469389
0.68,-1.058962583065521,-9.693371184352552,-5.458840480429669,-9.496575786741472,1.905959454237709,-3.639034928573577,-5.76305362361413,-12.945474201453305
0.684,0.39087334486599934,-5.815315367057059,-3.922563517136414,-6.027434458296808,2.4256315341360013,-3.5254792325742317,-4.566096516978409,-13.170757679544336
0.6880000000000001,1.5667931818063674,-1.6845749051050887,-2.4386055498579005,-2.659894409267338,3.631648228820805,-2.813090714715912,-2.147941082205542,-12.441854547620583
0.6920000000000001,1.5101883708418142,0.8225504254538967,-2.289857469468279,-1.252034559768568,4.32584879222356,-2.2523988420629864,-0.08067070439519286,-11.63502223539834
0.6960000000000001,-0.3838545635373638,0.42436951305947357,-4.23350233507432,-2.8692149565283156,3.523570044815896,-2.440569191491657,0.14818443321274843,-11.64453162795602
0.7000000000000001,-3.8879819006492795,-2.8630165864375536,-7.996591738682328,-7.181164772646576,1.0192215017555633,-3.499034852539231,-1.9927571291340183,-12.89490393114047
0.704,-7.861327254842193,-7.637947138995106,-12.28264319285261,-12.549752676768845,-2.427659192831915,-5.036084055070965,-5.682455826897336,-15.102647146150423
0.708,-10.684230830007117,-11.728260330622756,-15.329183942371678,-16.786339708630024,-5.4197035964919404,-6.39896563650217,-9.101499456680774,-17.426364536223637
0.712,-11.013489573672139,-13.211418519028555,-15.746050393372148,-18.1836924509304,-6.59689685305263,-7.043552456912714,-10.385935634492059,-18.92141152976469
0.716,-8.469467846444282,-11.344530961393994,-13.2182719024442,-16.29745889949864,-5.31904084716834,-6.809082375733065,-8.672922067671713,-19.0572778904153
0.72,-3.883372401812547,-6.932485509408075,-8.707768308808172,-12.095602657907028,-2.0051798208399303,-5.964606784451831,-4.639459371550899,-18.0252755684578
0.724,1.0396388043680393,-1.9497600991181803,-4.043588401994417,-7.4391565511490985,2.039446203252413,-5.017868046839443,-0.21866177531341435,-16.66835457973078
0.728,4.4918058248838975,1.4224647112820343,-1.0692355230301127,-4.179013414868683,5.242376761569142,-4.426106884994417,2.3867850409959184,-16.066556502967057
0.732,5.388095754457072,1.8772963481535032,-0.7589918293986058,-3.3246793345831094,6.519183351377276,-4.382242244684196,1.8754349874356597,-16.98521085177088
0.736,3.8051427861305176,-0.3940217929065146,-2.76705981120141,-4.693165110841946,5.759042146380519,-4.771114255050136,-1.4517433243900335,-19.46656168131838
0.74,0.822317045133492,-3.859353660842922,-5.643490494740606,-7.166768499378701,3.7969741470002627,-5.295521125664423,-5.863203997425158,-22.783911721371062
0.744,-2.1218740398773974,-6.5017135761386635,-7.615581364875416,-9.367853238239634,1.8964717127952953,-5.674878000806679,-9.145310690905283,-25.785390747582554
0.748,-3.9722431992706237,-6.891663842447839,-7.511641613656359,-10.353559315877673,1.051863110214005,-5.787402210899946,-9.79516616466828,-27.452294973471332
0.752,-4.491674278304099,-4.8883612615689,-5.325078429062323,-9.979031536312505,1.5013049809022991,-5.696390491657633,-7.7910849617910625,-27.387909766610637
0.756,-4.193447015571434,-1.6203680196570938,-2.1417487801216746,-8.79620873214029,2.686143071436728,-5.568143272099514,-4.528790304442278,-25.987533213620658
0.76,-3.865325329693957,1.2218039604512025,0.5077214520352129,-7.6119821041432285,3.6452915054116364,-5.546228083729478,-1.977339589602396,-24.20005827836774
0.764,-4.018526838434984,2.3321134453165864,1.4732551181063824,-7.010190337330997,3.563061442532521,-5.662229694131943,-1.5668890171431764,-23.002345627958444
0.768,-4.5895615337571245,1.4533649857853561,0.5438286450184435,-7.098363478610295,2.1717410867420464,-5.821447564160926,-3.4372016151644695,-22.85444258890719
0.772,-5.043334367281769,-0.5765243347183509,-1.5361979517915891,-7.565788208004751,-0.1801782746279308,-5.859426761162486,-6.446680779055892,-23.426335019813287
0.776,-4.7879113530751045,-2.3990721778996855,-3.571478355414966,-7.976839874464755,-2.7988126899298997,-5.640609004806741,-8.899830879022499,-23.753376128320866
0.78,-3.619973300286709,-2.963041419529877,-4.6201837729956265,-8.097422496492324,-5.054099040189245,-5.153879291292748,-9.546666207086668,-22.75337564256352
0.784,-1.9147648231517866,-2.131158376570072,-4.5002261774533014,-8.058270847583989,-6.6942671064454125,-4.557067838854251,-8.264783803283082,-19.84411820047685
0.788,-0.4617929579248461,-0.7259632032063763,-3.81088150970848,-8.26825128089968,-7.889016577679483,-4.132975512526797,-6.059310725775995,-15.344925062880467
0.792,-0.0338748880601667,0.010157918424822832,-3.468262215425881,-9.130498101022255,-9.001065566753223,-4.175059512911056,-4.418677110619291,-10.437739376051399
0.796,-0.9353543998706328,-0.7932118679952644,-4.05357092439849,-10.726343625928386,-10.254739387533746,-4.829989697160711,-4.42014484147129,-6.680172920180643
0.8,-2.7931470849131834,-3.0483250926233296,-5.367079958728514,-12.649581063977795,-11.499515348038166,-5.965669875521879,-6.104850077571678,-5.296335441647823
0.804,-4.6960651578284995,-5.672503887187837,-6.470139291808989,-14.097695125040344,-12.2292722568154,-7.145778307781445,-8.465318844320365,-6.590747795519722
0.808,-5.6098237813155105,-7.123574225954476,-6.200252097746709,-14.199425233357315,-11.848559620671903,-7.760807971263173,-10.026719568673572,-9.794174798997926
0.812,-4.8608671091624895,-6.205462518735121,-3.870538371021542,-12.437826608039453,-10.034466005417338,-7.2935279383529075,-9.683614193573014,-13.43936541801742
0.8160000000000001,-2.472025496365853,-2.7293960374383275,0.22970477039514137,-8.990334324339107,-7.017134260695691,-5.6205299676866165,-7.33508383093303,-16.08856770633225
0.8200000000000001,0.8113173614148774,2.339302191337482,4.855044109750569,-4.786451301671418,-3.594096992686545,-3.168731929503902,-3.9513803436371973,-17.01502781361928
0.8240000000000001,3.7996680636378386,7.299769572722798,8.343180887978589,-1.2268391486921404,-0.8681630144628416,-0.80622758794566,-1.058323758232891,-16.489263513620724
0.8280000000000001,5.327302035865361,10.49177467890685,9.414176590534701,0.3584859340684856,0.19910929140750788,0.5166003542914162,0.07154386842409366,-15.525489953052299
0.8320000000000001,4.70575805347848,11.043367180978947,7.824272989987707,-0.7061309083581797,-0.7721849796926588,0.22235014956509325,-0.911241335516614,-15.239230227811206
0.836,1.9904505676579731,9.231707098482847,4.534066370201999,-4.081703226316435,-3.3542332506906014,-1.5735447260326065,-3.2499743898979183,-16.176550365305722
0.84,-2.0376507728605233,6.302702489589311,1.2811915807794172,-8.471567904951705,-6.433929673921513,-4.073063048193628,-5.480590007917627,-17.994538252805555
0.844,-6.191838997588356,3.8228895572968895,-0.2735682894402629,-12.13721244033087,-8.695921909198614,-6.168730618810631,-6.2239560907688904,-19.684157030077586
0.848,-9.360513372748116,2.907780423467152,0.611081807639513,-13.65680071508752,-9.249820626170692,-6.9903141570247875,-4.948531597934071,-20.19910431962544
0.852,-10.919574374872226,3.7378209462374397,3.385065037655937,-12.548847737558383,-8.074377629549925,-6.333238114102953,-2.2700976266208066,-19.089310744680596
0.856,-10.905882205746764,5.575596059442727,6.492621227460402,-9.455042348894356,-6.048885414605907,-4.728678483391384,0.37918118737477435,-16.759670177875705
0.86,-9.888175166827384,7.245400753237903,8.187792950704152,-5.783932244147149,-4.515540661938116,-3.1060780785020192,1.5514511691110897,-14.200244575878127
0.864,-8.614841233161066,7.783426040773298,7.442859603223534,-3.011841282271181,-4.5863706705844685,-2.257018069314533,0.6171808026712275,-12.362250509325303
0.868,-7.622295449956045,6.915702788025989,4.476132709411713,-2.0040244008083263,-6.5367413223767095,-2.4074948206492497,-1.8307621063636645,-11.576176363443158
0.872,-7.027874191683376,5.117973763527594,0.6070283851451013,-2.71991525374661,-9.629858058923023,-3.1600156018513634,-4.272081081826656,-11.405612207052561
0.876,-6.6114537672927085,3.2464834996227614,-2.490975459461069,-4.429729605259018,-12.498703752120832,-3.829219379404808,-5.125240664440353,-11.028555986289666
0.88,-6.098145480706863,1.9929815311001402,-3.7222667111744343,-6.26608139883988,-13.883825874666464,-3.9397275184706495,-3.7097960733760065,-9.901567373282607
0.884,-5.453377462324854,1.4862220322871007,-3.155024962505868,-7.752095229091335,-13.320086456242521,-3.5493769555032593,-0.7189906037067795,-8.241241420182527
0.888,-4.971539155787147,1.295912141451609,-1.9055671698456198,-8.967448454879406,-11.358615556770967,-3.1822137503549426,2.1221605122280636,-6.9650425978572805
0.892,-5.067962702513205,0.8396195952991956,-1.3688359264251506,-10.264045185708895,-9.173107265192067,-3.412768549941765,3.067063789341586,-7.09271706852558
0.896,-5.903129693160613,-0.09217452107938406,-2.25060823069959,-11.765301193857127,-7.78599975163759,-4.380623915038739,1.4620496950887336,-8.980872435906104
0.9,-7.1061767871881205,-1.0467458529190035,-3.9932829927354074,-13.039798163260555,-7.387257632109685,-5.585148438489841,-1.725182834353503,-11.911826533281063
0.904,-7.8562090463590515,-1.1257610047517632,-5.025196640833891,-13.26248260523639,-7.229210302766161,-6.155474895382976,-4.374546815756212,-14.388226439632657
0.908,-7.327544808317459,0.38211842196948975,-3.749131297964005,-11.81239681276828,-6.199800945790059,-5.454043531517814,-4.498715292278063,-15.032775944005698
0.912,-5.28022559050129,3.334699453532205,0.2845192362114526,-8.936364639497107,-3.7423204024344146,-3.64737273596715,-1.6247450675354642,-13.571142414643449
0.916,-2.4357128594537034,6.472253766959538,5.7260256105292475,-6.006444982749321,-0.5541991659632992,-1.8429109020527947,2.5647251491603296,-11.262777368774422
0.92,-0.3181566157463884,7.838436949419639,9.803673728833868,-5.06962681198722,1.46995389260875,-1.6231637110249646,4.845570862550413,-10.408657699134679
0.924,-0.5573215381285695,5.744208280909721,9.644010183541923,-7.829757962210879,0.13208475439694656,-4.183499087796913,2.135048013369017,-13.098031870182103
0.928,-3.9689693103048884,-0.2062374972057377,3.8844252227661134,-14.581703676559872,-5.770687248319739,-9.545622511343804,-6.641855482679471,-19.867709389030054
0.932,-9.924076095223425,-8.618642400882365,-6.312885087725478,-23.731779586697503,-15.47413231793505,-16.32171860052457,-19.56930332541225,-29.073281073885983
0.936,-16.413502982492496,-16.698230420976003,-17.478881018337887,-32.2686127895733,-26.22450125972781,-22.222644819958468,-32.28240435439726,-37.40224802039914
0.9400000000000001,-20.840483516694924,-21.392639462087047,-25.264849493527674,-37.017289434942214,-34.31629440867097,-25.07955619754708,-39.85216185873928,-41.3394828809199
0.9440000000000001,-21.20954532047695,-20.779471190256526,-26.435475124156905,-36.08909502399733,-36.74988365116212,-23.847472899399886,-39.091585813432104,-38.839181548365275
0.9480000000000001,-17.095323806557616,-14.975043991482828,-20.392662568701574,-29.76006420372726,-32.6463900094499,-19.052269612552244,-30.05790205120114,-30.3058373327515
0.9520000000000001,-9.878490546518377,-6.081956727985519,-9.441856935542544,-20.31505759530839,-23.672586084089343,-12.455609851160617,-15.967419886468964,-18.37825100344711
0.9560000000000001,-2.116045798336472,2.7956206339565,2.332945839548098,-10.938791455721756,-13.24447881051637,-6.140239517383861,-1.5871564573626777,-6.638799522319288
0.96,3.6400639376840243,8.971044930337513,11.000536515851792,-4.238858874716589,-4.915651291249702,-1.5334935848224918,9.012553867630983,2.0393049127590968
0.964,5.9751997284089216,11.293224117050851,14.505496677458762,-1.1700929350321534,-0.8086465666587852,1.1145267452776988,14.144124476538346,6.635851301678369
0.968,5.1168231777210735,10.417382337205387,13.33035563581985,-0.8850117294811888,-0.8690025508151322,2.5548696891229796,14.78971466299822,8.071798367612526
0.972,2.593123018930479,8.165935506438615,9.850578322144088,-1.509424770743955,-3.2496096729735893,3.834593210246165,13.477256212026933,8.291975737898891
0.976,0.2909540837124389,6.398181951136496,6.843000044501329,-1.3328774123584006,-5.515780393283613,5.537783316570531,12.524630468032008,8.966935093095024
0.98,-0.5497578483158794,6.039090348423969,6.02726921633773,0.2727655677656067,-5.94760203999027,7.424878525930884,12.727876419840399,10.58054286061483
0.984,0.12040044390662175,6.743230870959926,7.3885213883621255,2.666506534358988,-4.2681329687527665,8.659131735098002,13.195546080670573,12.365078701323915
0.988,1.330667895125417,7.315160507522977,9.554932241441735,4.514976377186358,-1.4828495597529239,8.438598638449037,12.314682366687094,13.024369273384343
0.992,1.7895886453459247,6.560206674789148,10.865897396994605,4.705970711324458,0.9390447489590077,6.600010617130017,9.129103008605894,11.702031403663838
0.996,0.6904799981238465,4.044120326460024,10.426696490126707,3.036928411884835,1.9815012439133945,3.807874996918624,4.204207065178833,8.577960714262868
1.0,-1.834257611837462,0.34760308733327894,8.53528009579317,0.29550527883054567,1.5609200126388871,1.2029393115101557,-0.5726584886010055,4.75180754167358
1.004,-4.83809131309411,-3.2922484336129303,6.298360524454635,-2.2692092969556033,0.34459093546689123,-0.2511216260529645,-3.11076234996282,1.5474565260445825
1.008,-7.126276078080833,-5.677361023328894,4.792491374903396,-3.699222518762009,-0.8600620544978774,-0.3054061267789292,-2.411534228165184,-0.26516448526146363
1.012,-7.89337121993938,-6.2470925979908225,4.352488850634584,-3.8295080550136884,-1.6928775113110703,0.47789504044440645,0.7796422751686087,-0.8343865882084507
1.016,-7.093846283233196,-5.288056411670187,4.413042514000381,-3.273818725793886,-2.4436932166799332,1.1152707947291478,4.355001232518715,-0.9975734646060914
1.02,-5.382752110940204,-3.6754997303743977,3.9715434847345357,-2.9450414307158583,-3.767664326915207,0.8243962806769027,6.02697809127705,-1.6488382002682496
1.024,-3.705885611357752,-2.364734353386176,2.306223367817018,-3.4525676761492883,-6.164044487573672,-0.5098832330838345,4.582326019787088,-3.14101238687873
1.028,-2.794777841488866,-1.9373960538982482,-0.5232561430088101,-4.748182264897983,-9.575604188030777,-2.3061336976467874,0.4767867968382209,-5.0967237892331365
1.032,-2.8531975283357585,-2.4380751718976006,-3.7225563226410125,-6.2251966800897405,-13.381594951557005,-3.7051637199217877,-4.5540601701302625,-6.7453292179280595
1.036,-3.580412467033257,-3.5319964293345727,-6.300104955380364,-7.173982498162307,-16.767743854853993,-4.150103272661113,-8.584915533297181,-7.525000144917067
1.04,-4.425353736974708,-4.778809790934083,-7.682794194988897,-7.246731247357875,-19.166511232991738,-3.7437043058292985,-10.580077795046739,-7.505424486954179
1.044,-4.897817732870183,-5.848142515022976,-8.010585651284208,-6.637171190347345,-20.487759891719218,-3.1614447729054596,-10.819805170372714,-7.347430162892888
1.048,-4.775255363394319,-6.5779692318474865,-7.950015378136925,-5.88235229325904,-21.01317033849765,-3.189996506740405,-10.498581879650414,-7.835179109291988
1.052,-4.107890464095974,-6.874793854619604,-8.150963737157939,-5.423182698590828,-21.033132539539274,-4.177162357588557,-10.802827990217112,-9.286003664478999
1.056,-3.0736777774077186,-6.593590153108089,-8.729193086035922,-5.236138479295342,-20.50821163526651,-5.760244045396341,-12.091480275442011,-11.24211716292768
1.06,-1.8156871184620518,-5.522901234326912,-9.131272763836536,-4.797833019945621,-19.00531987478971,-7.058544460838463,-13.702966470954582,-12.675031196527806
1.064,-0.3858536478356207,-3.5267342660624075,-8.499951506336846,-3.43676772948531,-15.986996683753745,-7.216245373535454,-14.476431582108178,-12.60078874019429
1.068,1.207685844910925,-0.7318640667230722,-6.289229611561047,-0.84246317415024,-11.260641880357602,-5.957009178426232,-13.608326432937442,-10.720247848177749
1.072,2.8909452526718087,2.3841722369168536,-2.727400075336626,2.5905762469833733,-5.2885966085570555,-3.803476702661858,-11.279006936563402,-7.687740783171363
1.076,4.448511122464395,5.095328382703721,1.1702759142108388,5.817465229412416,0.8561570536765566,-1.8259575103393892,-8.63156704572705,-4.832614823869312
1.08,5.549083509331506,6.707268823465126,4.07491608049914,7.609051331916197,5.9005394089393395,-1.0652156386610456,-7.134502832693122,-3.488982955766498
1.084,5.8564861943459,6.860661458083062,5.016633723588951,7.176022134675082,8.911230122299042,-1.9607801875959263,-7.72628584741495,-4.3058162422771
1.088,5.193083418276371,5.703233576727919,3.866370027462281,4.610758827737385,9.664239475436808,-4.1146964562849515,-10.262004507718517,-6.92529971052575
1.092,3.6724234377384892,3.8429070664146363,1.3641821801455771,0.8972019560269722,8.658198297910811,-6.520376681577028,-13.587929240679824,-10.199961518133561
1.096,1.7112977658743205,2.083320146605279,-1.3068040858840955,-2.540533090753867,6.779880605908922,-8.131068053569786,-16.189233752380595,-12.813751119113824
1.1,-0.08732050248567425,1.0867966218963905,-3.1254897956882575,-4.509755900321318,4.8426832791770105,-8.435618692979565,-17.00847725565236,-13.95742736215698
1.104,-1.1623625257600416,1.0964131549151137,-3.690461958724976,-4.605136381472368,3.237917552275988,-7.7159429558339765,-15.964330878564894,-13.69278674605789
1.108,-1.2406748492044315,1.8480979884744713,-3.2934389105401554,-3.3587626501022267,1.8738682103269717,-6.850708246682374,-13.881969795620662,-12.823922910030737
1.112,-0.4975615849723414,2.7046045527070675,-2.6238592505395246,-1.9244515345373001,0.3854165261991547,-6.799219435967437,-11.94144149223322,-12.389528742779111
1.116,0.4789083402901877,2.945907223247545,-2.3257180998406657,-1.4657506861047223,-1.553164081788271,-8.04741979272923,-10.996978934438769,-13.068730428530737
1.12,0.9441812540320993,2.1139944302535802,-2.662363637674485,-2.5609062814509063,-3.994099037747528,-10.322326540217606,-11.159424178802329,-14.815030615460028
1.124,0.3653256395868817,0.2417684485027758,-3.467777366501413,-4.940793896279648,-6.688553678454788,-12.715764927135734,-11.85799806806515,-16.877031838790174
1.1280000000000001,-1.2684148566639502,-2.1341593318301726,-4.359283114349598,-7.672743540501568,-9.240840420265052,-14.140181787812994,-12.285944627311867,-18.16375106267504
1.1320000000000001,-3.3691422581462724,-4.177372878777769,-5.027226498000399,-9.672242062932224,-11.307570126026349,-13.870993770374731,-11.918432283943897,-17.748416239759596
1.1360000000000001,-5.0038944884676555,-5.1180431723040005,-5.4232953337909535,-10.279986687428236,-12.730318259994803,-11.905525160624475,-10.80427384342698,-15.284787884229637
1.1400000000000001,-5.393193733961286,-4.623677174234871,-5.74627832853707,-9.604847108526315,-13.538706537899772,-8.971081525883848,-9.495911240746642,-11.170793555931958
1.1440000000000001,-4.393799508316075,-3.007309162337126,-6.273304166909654,-8.466608085340939,-13.866567711137977,-6.196585750278887,-8.686119361805083,-6.412567149373531
1.1480000000000001,-2.6775384556526403,-1.153422121800129,-7.15616115501585,-7.965492633240807,-13.849378799501142,-4.6187180440628985,-8.782609669129751,-2.2601047286440146
1.1520000000000001,-1.4285673711403972,-0.13729669275854794,-8.287171233460365,-8.884126080058776,-13.546739802784707,-4.7472869982431805,-9.667891690775857,0.24956113403816627
1.156,-1.6593127886826458,-0.6813694604285838,-9.286898635961236,-11.212519615635204,-12.902952049852013,-6.3585975744105925,-10.737853525120046,0.6912940995306327
1.16,-3.4964066363648785,-2.6951340966061252,-9.596795668928186,-14.035101317752686,-11.729604800313334,-8.607792419216285,-11.16729913080713,-0.5556961713907071
1.164,-5.889121656262223,-5.186810613262952,-8.655449913073104,-15.866610745037864,-9.73962152155243,-10.400618066359321,-10.258787345956286,-2.4054616048338033
1.168,-6.993691070506394,-6.6573240249436445,-6.109242719276448,-15.300678264649235,-6.649505554180426,-10.844797496537327,-7.714565848596842,-3.4477606336647164
1.172,-5.132004522130709,-5.844090431775282,-2.0148198607981977,-11.691053344104299,-2.3582630584289266,-9.612749175621616,-3.756462778000162,-2.5148089536158453
1.176,0.16475740850684883,-2.4556849349291663,3.038903898380787,-5.538145008302662,2.853536220047722,-7.065985822997792,0.9331850279801213,0.7856958161033261
1.18,7.658242561953713,2.544376848507193,8.001171951091528,1.6439753879979708,8.245440500589476,-4.070734842333375,5.420891990507891,5.818962995512457
1.184,14.814783410657807,7.305542111953079,11.644883692872478,7.94168601319702,12.752503257880164,-1.5918265121611928,8.807185331425643,11.12197612951731
1.188,18.99659322350329,9.979419324211982,13.008699273566297,11.865801317442276,15.346119525502585,-0.2515669806217393,10.50673948770794,14.999988990427937
1.192,18.828016385547844,9.69909393882435,11.828499847037557,12.995282668106885,15.494920338925581,-0.059213008167569026,10.434664194318557,16.26910269640915
1.196,14.965764585892263,7.089145188514199,8.721461593512489,12.115628210922718,13.479444306350944,-0.43659191115874174,9.006040515550298,14.799551307191926
1.2,9.79948511806815,3.9923833999647416,4.990266923512869,10.780287680970643,10.366757017480587,-0.539456182104574,6.944389573839646,11.577074134300096
1.204,6.1776353943107924,2.4844252701295684,2.060994810171843,10.494563857681591,7.571512157616018,0.28780952082451705,4.962539149771175,8.231679960686035
1.208,5.856489293936532,3.7035467624395024,0.8165734174615569,11.943770256992421,6.196136432494306,2.1705967333321916,3.470301118413655,6.286259903906311
1.212,8.546459137210725,7.1593286086099255,1.188690841309933,14.672012475132625,6.511056218949349,4.6625569179682,2.477215144006836,6.535794528338086
1.216,12.121464176041908,10.942263676877179,2.2523257632931073,17.384536415143124,7.8757185416402855,7.0361498361303845,1.7612899791063095,8.875014481747177
1.22,13.89841229989119,12.779556778389725,2.821550784804404,18.719882903465972,9.185213607764494,8.742003947281711,1.2069615065815418,12.61925678601941
1.224,12.224322704790838,11.326253052425898,2.191112358763334,18.030812277180296,9.568056909497274,9.754481360846158,1.074187346668634,17.064162550945007
1.228,7.459679859337489,6.966961980547089,0.5949751331595948,15.748678110390365,8.931784574603924,10.599067147318756,1.9989045153765226,21.91815596066449
1.232,1.7864208481214083,1.6656561447142164,-0.9000733811322048,13.140401194164813,8.03122258051458,12.025466125480783,4.667742231131266,27.32977655539174
1.236,-2.0570612294450545,-2.0902254976929897,-1.0417482204376651,11.589662235693204,7.981726707063377,14.5017092670542,9.309025497835197,33.490804848163634
1.24,-2.3283143167885045,-2.620865830302273,0.8242701832605794,11.84757299922848,9.540494799634306,17.835964226495697,15.333227945327433,40.13035838082922
1.244,0.7948614959385563,0.09461970058785774,4.315354024247306,13.679941771736166,12.604914729575952,21.177984811477415,21.392523028581518,46.293543571313144
1.248,5.443623253959349,4.521372863449162,8.20626103102114,16.101500042856085,16.252197723682272,23.42800964891536,25.902848659937263,50.61682542454302
1.252,9.273375766359532,8.554120013144002,11.165601507826809,18.042887820826753,19.321322504021374,23.83907197969959,27.79068710865646,51.99776728257872
1.256,10.874622265945849,10.75882519885036,12.56735594669663,19.009266797522002,21.153981911683175,22.45898871172063,27.038509345945567,50.25209745795752
1.26,10.510842662702945,11.134878013201515,12.866506032577691,19.32439103541803,22.021753171892705,20.133932115717876,24.679731337991836,46.317931769074
1.264,9.749544691978661,10.949074148163923,13.273738912562207,19.814062435922402,22.92907025746571,18.064279955760703,22.206876098036,41.83847464819405
1.268,10.27291132427894,11.792562542095089,14.91275723098374,21.155437167644806,24.895353426393523,17.162975747143562,20.71476774153154,38.33365009558073
1.272,12.649556784808944,14.47000695986524,17.983520192169962,23.317011778574276,28.15991080601973,17.571687007324428,20.26851717651501,36.42542901377619
1.276,15.868280339903574,18.414076615894245,21.46767364281277,25.459637416969898,31.821775398029093,18.614584201489254,19.88193754729339,35.580666960190285
1.28,17.95030110311048,21.999623910008232,23.618333462957352,26.392748882268535,34.202783043010626,19.22307763327445,18.15446527139295,34.54368274068058
1.284,17.224164207299964,23.524002113041483,22.952542425212236,25.288515489583563,33.73552346538415,18.574775812533602,14.201704884491107,32.20210875055183
1.288,13.446337081759928,22.225084191129703,19.153943325814076,22.205742890992482,29.851799625660533,16.57233466695838,8.321327109118542,28.369512813112664
1.292,8.06733358129571,18.717444343083926,13.33759549910924,18.101370402841383,23.34781437118032,13.891283436711934,1.9851494187941467,24.007919693217467
1.296,3.4510674939141452,14.591308779407566,7.4993176051263095,14.312890460619212,15.999979132535348,11.580199079060135,-2.8503010433632436,20.75491000032098
1.3,1.5425568008518535,11.479357416824492,3.4805623401794445,11.855294871376104,9.681841712980056,10.46517347392813,-4.724386421937647,20.03869069072077
1.304,2.7866328404285747,10.167672465760692,2.048661173063665,10.958186446006405,5.489617963640587,10.713006538974723,-3.3947467925570365,22.291430206322886
1.308,5.933083699290009,10.275627164065316,2.625237604089401,11.106287816521146,3.375570002628282,11.7912407112299,0.10878216317153244,26.709500686924464
1.312,8.811583253849289,10.652225881027858,3.7877073924399958,11.514216307502721,2.461178587807068,12.825579887388873,4.100297361928237,31.670685182416722
1.316,9.58200811960132,10.182457475221046,4.20751165292886,11.699948082724037,1.7753133036695292,13.121413933425913,7.152877812028061,35.54251902808454
1.32,7.710446400861768,8.496958242134099,3.460841403902813,11.789600449744835,0.9481586779604054,12.533844094451794,8.791834032165658,37.4266826907032
1.324,4.134260869626236,6.14566899613673,2.218979981622435,12.358994510531158,0.42021055448978917,11.477445035123797,9.584239542867156,37.434398383569096
1.328,0.6027739124893234,4.184047492233358,1.7399319524098984,13.944418297109223,1.0791103680395588,10.603207111987684,10.625296824136601,36.40180165762847
1.332,-1.3375892626197992,3.5014289851720903,3.026501211231847,16.575039507417205,3.613546211199684,10.36982026533332,12.773770611995534,35.28398777352093
1.336,-1.0788362023060356,4.332980930271981,6.182775006525076,19.655617981627273,8.014004879038136,10.770099054105078,16.09183352999656,34.600952293395274
1.34,0.9858918734100186,6.252946250751545,10.377064721851518,22.29534280698243,13.55258157687414,11.366205765973223,19.79660826036788,34.234447291546125
1.344,3.9825949726925067,8.570657182669999,14.389756488420963,23.856426743947488,19.206685320607455,11.589604653919976,22.70907505932276,33.640847245683936
1.348,7.226488259530308,10.799742839956252,17.35534842945795,24.357804608846926,24.20834690595369,11.09441903926416,23.903426949206946,32.28279360423096
1.352,10.576219738195777,12.868944116002659,19.215241679389244,24.468852299065215,28.351281049901498,9.951766244785613,23.16727891756702,29.98909362650618
1.356,14.274211948448674,14.95664013298147,20.599896584821757,25.092789311688588,31.871476663742058,8.588702722460457,21.03629057240932,27.04720285718748
1.36,18.471260209403138,17.14196801041598,22.25516389702011,26.815281954332065,35.03623382575421,7.5402218052707495,18.440219733967787,24.014991814387525
1.364,22.82337799611099,19.15687849404227,24.399255998538692,29.545047174289042,37.74687936480009,7.18093914059764,16.194993187345005,21.40263099115961
1.368,26.491287355521305,20.45839632732727,26.44754600368441,32.559558950455774,39.45961750064529,7.587952651506274,14.654324106533085,19.446997730689667
1.372,28.578621987479124,20.606757886392124,27.313913724583507,34.920447122418665,39.507439978189865,8.595620770684986,13.682781595521481,18.101134726349898
1.3760000000000001,28.685805173904644,19.65677788002596,26.08939422434416,35.96781952369713,37.583708590154004,9.970169339717849,12.899746796638333,17.196390346737196
1.3800000000000001,27.20265174215783,18.273975784895217,22.68000721478991,35.604975507170245,34.05769797148646,11.563741434434807,11.997533344718347,16.64179633424604
1.3840000000000001,25.107307066097178,17.427920477151577,17.970936708974122,34.22384813125155,29.86654031168821,13.34984633492639,10.919416945331701,16.5185280742377
1.3880000000000001,23.366736694447376,17.798232687493865,13.367338444429258,32.34237238677705,26.000090975341642,15.334138985665001,9.800711961029728,16.986514940280657
1.3920000000000001,22.311256357819765,19.261217839987758,9.980997242914537,30.222283760160366,22.90526568836372,17.42899464171075,8.756248258429387,18.068003882005847
1.3960000000000001,21.384825519219827,20.791294581639175,7.9521449147263485,27.712506548316757,20.19240652485945,19.391691121633677,7.683328953603521,19.45158028727843
1.4000000000000001,19.461262877523517,20.917447863852267,6.367223565199755,24.4281083318986,16.898356559061906,20.882230818881695,6.255105194392693,20.4683334956187
1.4040000000000001,15.558955087960054,18.499782585368035,3.848270139040733,20.1325515571636,12.180531176345635,21.602302506747417,4.123806295852231,20.29256751528999
1.408,9.552427284262903,13.420964216612418,-0.490065348600222,15.082072218029762,6.052063451418672,21.4325138756897,1.2274116209079429,18.314632579368872
1.412,2.478335164617138,6.819591699901239,-6.267235727326947,10.126003514840617,-0.2857633242194968,20.488427298324332,-1.9937987961880275,14.52000252169598
1.416,-3.778156741983603,0.6956555904715938,-11.74787753811763,6.46290138541502,-4.785989025768313,19.049726831155773,-4.645872458077536,9.656065496097405
1.42,-7.24032219482704,-2.8982761598874602,-14.54027954327385,5.184331114704624,-5.4327894749590016,17.421294892250515,-5.715631976134921,5.061375459261404
1.424,-6.67359181900415,-2.7033659077328798,-12.769850079708636,6.823172251106046,-1.2336210684424138,15.812853649148606,-4.5415030094234385,2.1919528113989015
1.428,-2.1144172223094433,1.2359606615358163,-6.130117359084815,11.095569666045343,7.1681157149117585,14.29854758883476,-1.1990801354325469,2.007661937935672
1.432,5.150176993120867,7.625481127581383,3.7739032131479155,16.96027315853408,17.608992113526632,12.867115057302875,3.4159734324077324,4.500751082420514
1.436,13.088917751753861,14.456203769794719,13.993852702701037,22.957654151208015,27.209480185290793,11.500976535670361,7.880760736425841,8.608456372565392
1.44,19.6757027690878,19.779645763211757,21.474473249312485,27.70214297680851,33.505769972698346,10.236315685194745,10.798127459960293,12.58892327628896
1.444,23.55456099056384,22.369533293377454,24.33272944274084,30.325631329863423,35.372008932905736,9.150818171573084,11.351102090499332,14.72107507683915
1.448,24.373446299877596,22.02149015704513,22.545829506890616,30.706853018611824,33.316723153724205,8.298499846693101,9.601032595627983,14.026723197301031
1.452,22.73734376009448,19.463277778894387,17.77399254033125,29.428834295213164,29.085287122889447,7.661106799630742,6.413145569310259,10.692173747980762
1.456,19.863524598192992,15.958385741819587,12.434987881014914,27.468694842911802,24.784143864478764,7.140483864321737,3.0416408402759627,5.962989904381855
1.46,17.10800507012919,12.804196900437187,8.55268602010387,25.7572470142591,21.976112550880185,6.606300102391953,0.5932153155387849,1.5621397660000245
1.464,15.489809674057463,10.892307657316172,6.9550845878350245,24.773050013305642,21.13871147543442,5.971282515876826,-0.3726383958751618,-1.076129774044599
1.468,15.3784266701674,10.473388216415023,7.167564085243342,24.358198757958643,21.674640425154646,5.248854820655749,0.06349648731148605,-1.3708687698057993
1.472,16.434085252273043,11.181485573157596,7.967223759970721,23.85340009706549,22.397772153920958,4.56169929334757,1.4051542552890437,0.3176754941760702
1.476,17.79482810019674,12.265506991871005,8.1966528570781,22.482687183948656,22.182609550680098,4.077439645667223,3.1067904789496037,3.059595936101836
1.48,18.442555423229223,12.937291096325099,7.370027618015573,19.800840839299372,20.4613374778929,3.9032131448111045,4.844488367306209,5.9266019967097385
1.484,17.60866836849542,12.687754623516987,5.767838190781617,15.953974351836248,17.3601096158619,3.9945996090615505,6.5481792755399155,8.418930538033958
1.488,15.058665520333903,11.442995196142729,4.0545381152054745,11.604054173891111,13.485525195726211,4.12657750350952,8.225014563230307,10.52693226304028
1.492,11.144454388325386,9.512332593965695,2.7302776274663216,7.560854560503882,9.543853047274816,3.9610176206497236,9.736063570729826,12.448304246212754
1.496,6.614367602348066,7.3721295350465965,1.7941481737669953,4.335843613767987,6.0290806641090136,3.1951531532274746,10.724187827722911,14.199071851889986
1.5,2.305930738227956,5.441202420168644,0.8552443031371748,1.916579630123696,3.1709383298076226,1.738037114399809,10.799593081284144,15.440657656683609
1.504,-1.1136534640930558,3.9653647902460665,-0.41638314153381994,-0.08487013760871864,1.1138209796792324,-0.17044402197914277,9.877309775941955,15.673675768317459
1.508,-3.2517911359173706,3.0566126176374855,-1.833386965587752,-1.9983226841076505,0.15128580203728603,-1.9779461890451309,8.429655181209936,14.661676227860733
1.512,-3.9263492226524543,2.837051942952521,-2.569734024278109,-3.660944906561501,0.8131559547797527,-2.9967349197217805,7.423383897081836,12.769475506418832
1.516,-3.063215949002121,3.522105322565956,-1.540486053119242,-4.327168446985544,3.6595226916355608,-2.7155282818598603,7.848949594612455,10.89368209633265
1.52,-0.7062973505835164,5.331176032960343,1.904150821010342,-3.063053976174363,8.85661368762655,-1.12429568661907,10.05046347721454,9.924151292796743
1.524,2.81401912598327,8.210833862251118,7.345566944320415,0.5383755353456852,15.746383216032392,1.1136651315504018,13.220672445140652,10.011036848210495
1.528,6.69410609987272,11.559440431206,13.155130741233195,5.772144044399909,22.725524028916354,2.791295057011595,15.441189517127805,10.135880010778823
1.532,9.662207911569126,14.192687942884882,17.02769640376165,10.792498391476082,27.61598010412987,2.583823319137715,14.39192843177455,8.361327356088939
1.536,10.342873526922162,14.704504864260256,17.002911609756815,13.303487335871147,28.470015536176504,-0.3616628074522612,8.488668035118799,2.777782350019419
1.54,7.912183087474439,12.165014825062528,12.51201940853615,11.708831608511895,24.509490760063606,-5.933628863986659,-2.081747171659112,-7.280797010236215
1.544,2.7084302187768365,6.789082732621994,4.875186469268031,6.097223120247628,16.701666093552568,-12.927214330889147,-15.010458612620285,-20.439172264933713
1.548,-3.6036967368550163,0.15042525655861816,-3.073344931137203,-1.5316394559571918,7.604456514977972,-19.38565342932815,-26.49458969396121,-33.430710080976986
1.552,-8.550100253236932,-5.29075014929596,-8.121620484184962,-8.024166407175947,0.4521301918133309,-23.31342898467619,-32.65236895929786,-42.254419483466904
1.556,-9.919954898478569,-7.23327929566131,-8.089378082440854,-10.508350121649396,-2.189798658461486,-23.457929298256772,-31.124940556986225,-43.85281971373793
1.56,-6.870436952387642,-4.646088054940725,-2.8210827841785635,-7.774958408217699,0.42848824489783155,-19.786508478337254,-22.105957316736443,-37.48476514005891
1.564,-0.4608513492389532,1.6336303195778246,5.7103376490823115,-0.8876869128727822,6.850684691923212,-13.437893186507802,-8.293005115274928,-25.08886070758866
1.568,6.733562468530289,9.180875943949033,14.255374210922525,7.310003854426167,14.01001088435519,-6.177385862772825,6.22874593203684,-10.432310221656337
1.572,11.804629370613862,15.067027543171658,19.70290200109463,13.543230424590288,18.58427978198908,0.358244894460677,17.65173358165103,2.528848584929015
1.576,12.888945548300764,17.19971262070386,20.380094377960553,15.602279421470552,18.47268471348449,5.248170039032933,23.873545042599986,11.248786022488499
1.58,10.002906260820692,15.23476118296907,16.640499737432545,13.225435494211718,13.700631005787697,8.422984055072511,25.036199707471358,15.354647169580227
1.584,4.869161027017503,10.565377621816445,10.481867833961171,7.954858326706901,6.311662978448025,10.347701418818376,22.982865315085142,16.26311587024935
1.588,-0.14440651673200544,5.430360797135881,4.4514542313938685,2.1366139234865624,-0.6733063057048074,11.500092574418257,20.028620303576446,15.982606336835303
1.592,-3.3361790228640373,1.6832650353880942,0.44405248386701146,-2.3115453032127897,-4.6768044748673,11.977715187877749,17.743837298079875,15.833319796574497
1.596,-4.468332646292641,-0.07627710724641057,-1.0040543559829622,-4.672801039006709,-4.648391592392301,11.48227080015817,16.363572556150245,15.817801927013942
1.6,-4.592145959026841,-0.5224310384104025,-0.6058237202130261,-5.378112377438845,-1.2803433539178375,9.671669540980037,15.062104064402973,14.93094637554144
1.604,-5.087831954263047,-0.8657765086299363,0.4114318062834226,-5.309310537616353,3.6373170386350253,6.619718951245158,12.81080636069482,12.109770826863185
1.608,-6.575508539757982,-1.8814477925951196,1.168815142601126,-4.988628417487224,8.285354805919106,3.0444433595389526,9.237894669631636,7.175452596560595
1.612,-8.387576023237727,-3.3169250476889953,1.6218712566875855,-4.173978461689524,11.705766614040694,0.12532475923730635,4.985085100639999,1.1626829304114912
1.616,-8.97517137997613,-4.071451135511063,2.3942046304634492,-2.112409354419636,14.026964204906,-1.0358169905406158,1.3633519795099578,-4.1715946047674874
1.62,-6.974433854497116,-2.9799306364188993,4.1481599278969785,1.7790184715573094,16.011755054837327,-0.016245328533748715,-0.4308516990030613,-7.328472818449671
1.624,-2.2250089568071587,0.3300154057494247,6.945773556850074,7.298689204144946,18.289980954989897,2.6335440813278663,-0.026028376246739704,-7.904033986036753
1.6280000000000001,3.9187952170759104,5.065786377890465,10.023821340982117,13.334490333635653,20.77648190529583,5.598323498789869,1.90662964399497,-6.761017282133219
1.6320000000000001,9.209629029337258,9.625544314693215,12.135494859413967,18.319249152426515,22.626286095480975,7.411018478545144,4.0257458447162895,-5.445620046605679
1.6360000000000001,11.704931266499086,12.45744189773685,12.250948797207755,20.990384652287567,22.723505395356312,7.147257892145492,5.03562899665718,-5.2222749027676985
1.6400000000000001,10.803189737214936,12.884109103272973,10.16935615990917,20.988445429893638,20.377738382830685,4.827382013120546,4.307115744269916,-6.327120823299544
1.6440000000000001,7.483171694299772,11.362721878243761,6.633374686614221,18.92380172121382,15.763131999990259,1.321895236729482,2.0623789678709987,-7.89587991128645
1.6480000000000001,3.6191368397754147,9.046883108168,2.869433676091438,15.899294140641064,9.83695963361559,-2.1576947577243293,-0.913100631053672,-8.584835010639296
1.6520000000000001,0.8386608978987036,6.986361602741932,-0.14017082534531156,12.828493745305845,3.831443097266095,-4.669582117306704,-3.783268333975082,-7.458443919526328
1.6560000000000001,-0.3741777721525068,5.4917512267157775,-2.193089837079556,9.974209592964822,-1.3469206068481379,-5.927999433716062,-6.066028262676626,-4.576809065591965
1.6600000000000001,-0.7981822796283486,4.065187678246565,-3.871534847872269,6.971621806026783,-5.439779906892197,-6.2812507321646365,-7.701080924592077,-0.9244176423739985
1.6640000000000001,-1.7968509852716492,1.903541921217411,-6.025572345234748,3.2771198411661984,-8.725913248276795,-6.34724909384961,-8.8184705172811,2.2360514758746097
1.668,-4.335733354311743,-1.414566163227498,-9.08773752270762,-1.2991816489217731,-11.611466713772048,-6.578253509405619,-9.46019433681526,4.128208134538174
1.672,-8.32346445368039,-5.530967136977338,-12.660145648233513,-6.339576671420485,-14.220337196833619,-7.011666113365649,-9.4841305285447,4.858744456273131
1.676,-12.66374772879223,-9.463708322712131,-15.647378230176516,-10.991375984064042,-16.259340057849748,-7.338817053488552,-8.708699467871446,5.214012715347618
1.68,-15.925617192245072,-12.182322168781212,-16.85086188845759,-14.425938031468867,-17.209974079401714,-7.203337140697934,-7.16597167830521,6.006204315754159
1.684,-17.13775114242945,-13.180933575143657,-15.640534558091582,-16.254010637927756,-16.66963369344745,-6.50120916844652,-5.228387438796248,7.4360619373251495
1.688,-16.186469257779265,-12.655728219365068,-12.284021964303648,-16.623289308539075,-14.587683757138446,-5.4829679200316095,-3.4670385461860733,8.918216423809977
1.692,-13.609293660924905,-11.188741472360798,-7.747391259369484,-15.956242424699104,-11.240063375162862,-4.600853426839752,-2.3144887050490803,9.476754628494817
1.696,-10.029865736095948,-9.222872287151082,-3.1384032871127436,-14.555418072602876,-7.012811446493513,-4.2266740240099665,-1.7834096649523374,8.430737661888422
1.7,-5.6821675798104625,-6.7107274358625215,0.8476022712639275,-12.367314895449733,-2.175933594093367,-4.43791620552364,-1.4706998502707975,5.901504881535726
1.704,-0.39476646026779694,-3.223493614138981,4.124404014391847,-9.090971839402206,3.154218783604204,-5.0206066020090665,-0.8846777740741176,2.7796421187607967
1.708,5.941931190562548,1.521193005421408,6.952870675170275,-4.574525667784591,8.812276322074844,-5.6724718768777445,0.09572077264030376,0.14671373684536637
1.712,12.808077837645202,7.112170607433266,9.449835259915162,0.798811563907269,14.313788717640808,-6.2376270146149455,0.960155663480375,-1.454402506294211
1.716,18.85668539048304,12.29544041015315,11.238656727789108,6.028005565198589,18.759523817183783,-6.79097237294463,0.735027215377924,-2.3971148843012817
1.72,22.355572720936333,15.439315576216893,11.543709117761686,9.844581053151398,21.080199527656337,-7.505748023246272,-1.4425164060270694,-3.7162675367100406
1.724,22.09120446404367,15.397379887319325,9.702705121484781,11.33130531204242,20.54568539572422,-8.391365780741022,-5.671112012501657,-6.34206829815283
1.728,18.175734192323098,12.235295183704192,5.752912432074661,10.436586492434675,17.23651765074519,-9.097653334724358,-10.976207936844972,-10.306003387801777
1.732,12.212107691696342,7.337583118135985,0.6644499986926009,8.040983088237663,12.144222007844077,-8.97612069200813,-15.603635846602094,-14.462477247127625
1.736,6.6305287090905205,2.749723986467403,-4.007634726897244,5.506188592878658,6.757628256069646,-7.409457407405771,-17.8221635323735,-16.95861577347073
1.74,3.5050468212009998,0.1030626391767866,-6.8975107015936885,3.9428923108254894,2.329537395790828,-4.23751886741746,-16.819774113141097,-16.230613771260238
1.744,3.5062587332271566,-0.24873545981173395,-7.582632476728017,3.613591985549684,-0.7587317987608739,-0.011176191743292208,-13.176321623099481,-11.942186599013255
1.748,5.600832539899036,0.6282019488736426,-6.840157642086153,3.8305095772991713,-3.152175852497424,4.1252302539645065,-8.60477319534649,-5.293295666305535
1.752,7.673648614074595,0.9219284872291973,-6.211533363249988,3.400764754462285,-6.070849967852161,6.9033988266457245,-5.082421253644732,1.5089604685993194
1.756,7.723746916498628,-0.8286927776441698,-7.103209170040475,1.3543651071479732,-10.491347044180944,7.526438272527218,-3.842112643971949,6.343533426174458
1.76,4.968785579820056,-4.843550845376234,-9.918342409290407,-2.4570746074674066,-16.41034694498489,6.069445456808149,-4.769636573978831,8.208261911350363
1.764,0.22032184944412947,-9.94640459308647,-13.748627697745565,-7.2470169497153565,-22.64481108205341,3.4460615611199796,-6.559687111300696,7.596845980999305
1.768,-4.6551444411431095,-14.245020571517685,-16.850977370851467,-11.728857804882159,-27.335676357562118,0.9317959420048938,-7.550185010237421,6.000309926976678
1.772,-7.8619869704018885,-16.237303558006783,-17.64809424527464,-14.829271742337085,-28.893207112423394,-0.4991822635270702,-6.7444503613021975,4.856825184792463
1.776,-8.720958397167404,-15.692001988412514,-15.685731277535638,-16.25725970396428,-26.863421762523238,-0.6578136259994514,-4.434151573204268,4.606439810423526
1.78,-7.987054286578658,-13.743220776269528,-11.950299398246505,-16.561624117276985,-22.19407975709162,-0.17413034988921394,-2.0406457503376023,4.435383070110032
1.784,-7.248700771885645,-12.11208999887684,-8.31870641555728,-16.629550312290466,-16.71810674332925,-0.060786722816552174,-1.2597617055690273,2.882075337224403
1.788,-7.786273904069493,-11.928861493995315,-6.4457089992778105,-16.94072210269644,-12.147593789975058,-1.0583860918965713,-3.000149558171261,-1.0591374987354234
1.792,-9.590303130437942,-12.866424116774953,-6.738567709476844,-17.04745763013949,-9.152078059469803,-3.1497364934138345,-6.735713572409681,-7.027326422400584
1.796,-11.173485436888,-13.162646728813275,-8.059233487287253,-15.66016815496701,-7.075389963897239,-5.5247087135349915,-10.674584042623776,-13.17912141881386
1.8,-10.349887675303698,-10.587910571574563,-8.371233703828143,-11.35884060070769,-4.465985221891778,-7.017359394434644,-12.68897242612008,-17.01142013601053
1.804,-5.589136999100181,-3.8567146413481974,-6.001703605766346,-3.5741222631016347,-0.12557937689870613,-6.763536174461217,-11.501846456726868,-16.700631064001353
1.808,2.8042833709199972,6.297507933558621,-0.8103473877241003,6.7019029351333055,5.921754971263276,-4.703006961072096,-7.4739533535505425,-12.21141950918741
1.812,12.437962075608759,17.07071852747346,5.4548848854443,16.952594551474984,12.140459274794681,-1.6329326383348586,-2.5293812794397095,-5.493779320030542
1.816,19.73707703971954,24.677270954896862,9.87947570459341,24.00362730476779,16.07745244914271,1.2229831842283865,0.7697148926770796,0.4042914960309236
1.82,21.582976325380724,26.079070896351823,9.850807222755536,25.351003630455065,15.554241677051639,2.8779617025857185,0.521249438910949,2.8531361734058702
1.824,16.87083241722013,20.498900909028393,4.5105016390594095,20.325365994826498,9.83285578720103,3.100452817126756,-3.5213136283632718,1.0079808257176417
1.828,7.157449928427699,9.90435918403252,-4.628922103302982,10.494893203093103,0.10450421175179558,2.4930441795171987,-9.788413018754476,-3.7080924390069367
1.832,-3.9807296134395487,-1.8183896760886213,-14.276251643748779,-0.9262234684324611,-10.967647432046135,2.1001243784458046,-15.641187180354235,-8.280453779792989
1.836,-12.587025944253302,-10.621083283876937,-20.89808046232315,-10.417858711708806,-20.428328793073092,2.778409366300433,-18.623391237770587,-9.59144305981142
1.84,-16.099855529604078,-14.070784837389438,-22.37615778869133,-15.588977108239034,-26.289232918002455,4.707942441752454,-17.547919324173055,-5.92588232384971
1.844,-14.363116028741981,-12.25702694222458,-18.91882345045244,-16.03444296742966,-28.213328950209025,7.3132848098169525,-12.88184519122581,2.266841931332973
1.848,-9.425295208694948,-7.446922155848053,-12.791252306786312,-13.266815025651075,-27.341839262620766,9.605060614207218,-6.305775470711829,12.676941651967073
1.852,-4.307516175979836,-2.7410744170226096,-7.048972116233966,-9.82355398288964,-25.43720013798171,10.727888177492868,0.24308467445055904,22.27822996654072
1.856,-1.461672148224686,-0.5116655536567896,-4.011930391025183,-8.047705075554797,-23.895401992894797,10.389842942444941,5.481054234051134,28.66556076116889
1.86,-1.765373414694472,-1.4483599494430761,-4.29141078786496,-9.15023508423009,-23.180904906756,8.921425518410919,9.15047348485791,30.89251454708279
1.864,-4.500016423007836,-4.619795305707422,-6.820075329606517,-12.939666714403536,-22.923400510505324,6.972012073388667,11.724397672988118,29.46918062889753
1.868,-8.161452195991728,-8.362078425642125,-9.741549206690287,-18.20693950517061,-22.4891028640529,5.07699590125057,13.736468570160705,25.695376188232146
1.872,-11.494545093610867,-11.34813850547975,-11.544748593317578,-23.431947226590236,-21.56926025067866,3.3851182689251798,15.22283502001683,20.828605286168646
1.8760000000000001,-14.080964836775381,-13.18702688901518,-11.779085589277592,-27.390587295717975,-20.38961414483525,1.715689878128003,15.635912437301762,15.586906650644165
1.8800000000000001,-16.175165618879156,-14.242230358845749,-10.982202271888339,-29.38528222419074,-19.411316103858795,-0.13123352642624697,14.290308607784455,10.20643555022334
1.8840000000000001,-18.029135853739263,-14.913153770022722,-9.9985621785704,-29.13548373074034,-18.799195284475417,-2.0573400299591116,11.01755419711307,4.86683637772816
1.8880000000000001,-19.295423107723124,-14.988102806650032,-9.236918365861543,-26.575167462282824,-18.104696710940996,-3.5824992373624207,6.5546085503931275,0.06710171229061723
1.8920000000000001,-19.003109067713826,-13.573299071639745,-8.38398919044306,-21.79434941863221,-16.442214802777862,-4.087016674662243,2.3716945093189423,-3.3740305055000293
1.8960000000000001,-16.17922420195905,-9.693938140097337,-6.742286749458092,-15.178259090864934,-13.09675825317672,-3.222505124872026,0.0035293412990373696,-4.709500230212407
1.9000000000000001,-10.723516731080188,-3.175996391346294,-3.9208555970442625,-7.599173362498005,-8.178896300227397,-1.2241346915854474,0.24144978176306608,-3.793288541919255
1.9040000000000001,-3.8839096717875883,4.822734178680638,-0.3566133812505621,-0.40529578556847135,-2.858838012943897,1.1173582067373506,2.6656933218407297,-1.3464649608183743
1.9080000000000001,2.0753404249687977,12.062032318999297,2.738253683624998,4.921457656264289,1.0456941267394075,2.843481939024037,5.821000218143098,1.2838255486784371
1.9120000000000001,4.932816865011908,16.20754138754705,4.010305827521647,7.337986344539466,1.9462629597110315,3.3578098295616936,7.950230699562937,2.779179361686505
1.9160000000000001,3.7060222429052474,16.011166256630524,2.778279247524644,6.727602963155451,-0.6805910857571442,2.7755034698195926,7.89340803368489,2.549012108719489
1.92,-0.7320269297286889,12.010571119550136,-0.4906287098840161,3.999100192551035,-5.977734295021937,1.8620488963905424,5.669786602435577,1.0461036087902302
1.924,-6.021495166373528,6.324638495328482,-4.357406711680837,0.694654538860183,-12.102886153486224,1.5852188848290598,2.4451787016167676,-0.4977967888112378
1.928,-9.519575427633256,1.6210899302292658,-7.155968086659855,-1.7245862871892441,-17.117380071358426,2.5273872892698233,-0.07403593174414602,-0.7705420257697746
1.932,-9.657994734248149,-0.16757288871818599,-7.853492551406141,-2.5291550491966936,-19.8489932934602,4.509655846431842,-0.4767007603481419,0.8926221244827266
1.936,-6.699783167274412,1.2972815123883694,-6.53219322535882,-1.9640133025445206,-20.273090245699883,6.669779331445145,1.7164286609205015,4.172127574914777
1.94,-2.5024261582765694,4.753604816491714,-4.22515246553979,-0.9790594401307038,-19.25264769643315,7.9339715071724175,5.896319457763317,7.960098862849197
1.944,0.5679165258357575,8.133157724494065,-2.2459653444455507,-0.6199568842414251,-17.855463417514326,7.616187233192164,10.708910600482657,10.94798269730644
1.948,0.9388439269772153,9.66695869098017,-1.4456130661973825,-1.4343007743471716,-16.70340158187634,5.811090140402364,14.677185269978462,12.256230575886542
1.952,-1.3855846186923184,8.694874913204217,-1.8292793992431875,-3.2267136044016542,-15.733298163752119,3.356035874844884,16.773751556301235,11.751993336327935
1.956,-4.943959616611382,5.805559607460277,-2.7159534126500167,-5.261448203619372,-14.457059929314823,1.4059295042894662,16.721275892214884,9.946306842002283
1.96,-7.689061793333754,2.3468424072112457,-3.2667076875800336,-6.741447571061503,-12.478217984478688,0.8517207937036613,14.92861768449777,7.589654907941516
1.964,-8.089425881066477,-0.3466187996546135,-3.0171735145738,-7.265391580330755,-9.897183965669909,1.8942131243300606,12.169170080741736,5.2370571847427145
1.968,-5.859618833902525,-1.5708811620609842,-2.102826340239691,-7.008100626858745,-7.350904095572185,3.9719854407886284,9.187771470308217,3.0286998342744833
1.972,-1.9778846332059863,-1.431066125049444,-1.094748408629318,-6.549760816969483,-5.678910501128517,6.047340584465373,6.397861071217699,0.7579910515959547
1.976,1.9242455712529207,-0.5941177098597414,-0.6055886833353252,-6.494952404449009,-5.449751447915203,7.076829369436103,3.78826522034837,-1.8617790017850622
1.98,4.409147929218155,0.17539461601201634,-0.9319528164538919,-7.111463595429991,-6.635073224770421,6.423517942163677,1.0593262882583643,-4.914040881911458
1.984,4.878656790929642,0.436587110600001,-1.9286886736422728,-8.164204808659168,-8.591706999538019,4.061491988915944,-2.0908078645437973,-8.123071607999984
1.988,3.729513279339845,0.24577880120667883,-3.1444908414521118,-9.015883831154953,-10.346815148559113,0.533599656270451,-5.6652353823046635,-10.877246214999444
1.992,2.0333253819931763,0.07247030568981261,-4.056986708485449,-8.914651485169859,-10.99293976417173,-3.2563676037526923,-9.176533915165633,-12.376531983838529
1.996,0.9504683852648093,0.5228732305611412,-4.280067668327428,-7.342707394813294,-10.024499509011601,-6.323139564604133,-11.704109573576895,-11.844264886028336
2.0,1.1720583764126251,2.016238645296156,-3.658971396632891,-4.280329333198512,-7.50772437214706,-7.876915126585912,-12.23036484703713,-8.7707253314918
2.004,2.6236454230287096,4.5537107821759175,-2.2616313063373696,-0.28598822515492817,-4.0564996333760135,-7.535553766809082,-10.117910864022228,-3.1317634580603215
2.008,4.491345642649378,7.6217358199322,-0.3679255694954371,3.609460894957301,-0.6904936504268879,-5.452012060888202,-5.5311173627336085,4.453382419434023
2.012,5.5489663300096055,10.299741193408035,1.545244446484786,6.19209939813491,1.4167649812227685,-2.296421381788489,0.4604438307148393,12.729969094543723
2.016,4.65960969048241,11.562186680848859,2.871168548810737,6.460738378206639,1.2859164756086203,0.9372355829167558,6.232948335739532,20.07300136621012
2.02,1.2667303535151397,10.687088141684688,3.0500794620788008,4.001932501243798,-1.4815207471778966,3.2565158525014315,10.289404820152868,24.97808713369843
2.024,-4.298412149384431,7.613206611315711,1.8352316473444006,-0.7914402528975373,-6.4124742587635515,4.039422971402569,11.962159396466483,26.613732250613026
2.028,-10.84966985190002,3.0456049671407377,-0.49252985378222514,-6.797269463277107,-12.154522345591959,3.2747521050700965,11.748594046866895,25.176034254579523
2.032,-16.746847858621535,-1.7784243972714373,-3.121819045708603,-12.5502261392486,-16.857315257027416,1.534292970251917,11.059353938062,21.82760056572397
2.036,-20.535144824050477,-5.603494465591746,-4.9990630409159325,-16.804442379540845,-18.880409517565955,-0.3257543676372283,11.466393782617063,18.18826454116063
2.04,-21.544320777133056,-7.699452523911549,-5.29782191655581,-19.00968830782596,-17.51988413944301,-1.599850885513134,13.822029420126388,15.589941006489296
2.044,-20.137746483455896,-8.127120151959913,-3.812869413647753,-19.441065720672228,-13.360785584801963,-2.0664080727444576,17.739232190798347,14.476383069119832
2.048,-17.475375804161573,-7.585962443696051,-1.0477533647701947,-18.91655946610573,-8.034345202530663,-2.026947841372552,21.731188562182172,14.25241564578107
2.052,-14.89734998870216,-6.915793717636929,2.081212502815151,-18.246118802450653,-3.445060055795126,-2.036981178262477,23.953084567951386,13.677558140442883
2.056,-13.243709466451262,-6.555661639906724,4.7443879397781625,-17.735098210260063,-0.8664842781861228,-2.501420112834002,23.15036075616069,11.585771490732908
2.06,-12.482067963773822,-6.290384602690188,6.605390552375792,-17.031378300022897,-0.3901334780649286,-3.3774973910194577,19.289869671678645,7.537429277269374
2.064,-11.849035880685614,-5.4423277441076685,7.892525134435983,-15.415403814590812,-1.030004922869928,-4.184757702237453,13.534554499883392,2.0647880331871074
2.068,-10.408685550324549,-3.3978131103769336,9.09692534294414,-12.363247701931705,-1.423044779116447,-4.330851091093522,7.604685067348969,-3.599911437288469
2.072,-7.6974667674727115,-0.12784848969986662,10.511295695807275,-8.029160184796016,-0.6994146167237894,-3.546616521350066,2.906774703199777,-8.134516836883229
2.076,-4.06720838751392,3.630518373602915,11.91887368126569,-3.344027597172948,0.983254539775885,-2.141357973510525,-0.07710003303045188,-10.721715308637515
2.08,-0.5096252444657061,6.685345686324101,12.666124356336464,0.3654831381045458,2.566831016280444,-0.9005820381560443,-1.8106463941294102,-11.318636626094204
2.084,1.9181507774005802,8.02555856874723,12.081432376539366,2.0340495791189745,2.79481792102131,-0.6679883400889883,-3.1722870132383614,-10.505366564163257
2.088,2.6809826674851926,7.364830162629394,9.941200202582419,1.3808574166323808,1.0183963084957826,-1.867929344830412,-4.754665519886733,-9.079203910467072
2.092,2.013979918428097,5.272766854888017,6.678678074634492,-0.9949701061587195,-2.3795452390534444,-4.255683913479005,-6.429956588102689,-7.650751325756409
2.096,0.690683541736542,2.800983450996449,3.181471157975201,-3.9946717603129045,-6.201379816331897,-7.040065582574782,-7.429587726491991,-6.447257072422016
2.1,-0.5047230189283627,0.855875780505972,0.3153833169132223,-6.622336417029391,-9.12436167763709,-9.304714969954938,-6.858111973262303,-5.361953465275156
2.104,-1.2370431205209336,-0.2669062687258257,-1.5036172566995387,-8.425707424924003,-10.401704360551264,-10.4612051487191,-4.284235487684539,-4.120549469683672
2.108,-1.7153418134575,-0.9062878306417073,-2.41788678247037,-9.528443580147751,-10.151944611458806,-10.465455688933273,-0.02299290233888085,-2.4254167390839036
2.112,-2.3881930039723223,-1.6311099861337102,-2.8735264494151602,-10.287811546908456,-9.094206274562296,-9.69420819055633,5.021804819847802,-0.03333347640240403
2.116,-3.4778912741760672,-2.71875561849519,-3.217583212486674,-10.859645473346909,-7.964312856166918,-8.59140479695948,9.803553716322133,3.195981058117038
2.12,-4.699988730236659,-3.8853550208932344,-3.436494721459596,-10.986446753955436,-7.023199234597554,-7.355005133452535,13.563012601153787,7.205046324839235
2.124,-5.382859833393803,-4.466953292149914,-3.226184120163893,-10.159284807132137,-5.976956721433652,-5.876499980524305,15.98185943239584,11.598981253416893
2.128,-4.916696917740822,-3.9308949955234063,-2.3261643588642515,-8.032552718557179,-4.331881313821944,-3.9556641496511755,17.035884760385652,15.575648380980542
2.132,-3.199553178185403,-2.33722947180741,-0.8315076598439592,-4.766128267602612,-1.879899259658551,-1.6137502504186276,16.750035720219053,18.0789980404144
2.136,-0.7670597827501355,-0.4241093094369459,0.7681168835816736,-1.033089228058289,1.045047512394726,0.7586625451053806,15.096513021137593,18.21215836776961
2.14,1.485859582605487,0.7715199094289833,1.8883084045435643,2.333915972548944,3.726380189087843,2.5479072484554424,12.146046151106178,15.742545205944776
2.144,2.829782678819438,0.5437420066575056,2.2902551228921277,4.836086363579481,5.526346114904323,3.290528335582364,8.325117687257137,11.401581484374997
2.148,3.14444179307778,-1.0050123541937293,2.331934209893234,6.6063656129950195,6.31005785558323,3.017452476584796,4.51763326507934,6.730112552655749
2.152,2.9621503975224943,-2.979304167726632,2.793129827669958,8.276535428340198,6.50278685243379,2.295720323685101,1.8015856923305034,3.425128121762098
2.156,3.0499583231573686,-4.244920619625805,4.303692341863703,10.453361121658604,6.695661098721327,1.8865499136099206,0.8498237604417005,2.4604614258453203
2.16,3.8046846399142566,-4.185844894366438,6.7343767442279105,13.141033158970592,7.07439802783662,2.20267372126293,1.3406572432128412,3.4571866519692787
2.164,4.8689766355138815,-3.1838124774080283,8.98048025266864,15.507303479070083,7.089718436078414,2.918169175850508,1.8110641038250201,4.710004189478316
2.168,5.221885276457098,-2.506130657253058,9.359236416317387,16.18801353681956,5.643111332919428,3.0214729392023774,0.17989218672183682,3.956135071222577
2.172,3.7377999162717117,-3.6167660728558495,6.478015176338575,14.012087723880999,1.7473825431562613,1.3556465014105363,-5.213824653186857,-0.4440164577053807
2.176,-0.08876257707555091,-7.2800543287885375,0.11917111097560351,8.759141486798452,-4.707358232958024,-2.625991652377704,-14.544925447348064,-8.493769183529176
2.18,-5.682834517788318,-12.969954251007461,-8.36631573715216,1.5025890315225432,-12.557646821326717,-8.342414773636786,-26.01111048974728,-18.277493694636856
2.184,-11.473213293940834,-18.936467781686943,-16.42904997506135,-5.693424192614225,-19.626127283444774,-14.153977946462398,-36.27182385622356,-26.61130238426435
2.188,-15.503272265074456,-22.931244782971493,-21.325913406373196,-10.609466777689317,-23.557295029253055,-18.044748692179642,-41.69780207896026,-30.349095273179238
2.192,-16.266080102237332,-23.228693209592223,-21.27171697698569,-11.822809538249482,-22.814537452600707,-18.57368407912554,-39.867660062988215,-27.73288825357103
2.196,-13.35527119979884,-19.436036140984488,-16.184729933262716,-9.307242120434445,-17.34400273573678,-15.58204476613369,-30.609802175758208,-19.148112445711636
2.2,-7.620592846199966,-12.681951359876788,-7.673553713204718,-4.3848453470449735,-8.576111137425677,-10.257191730361807,-16.095530130394298,-6.9344091615490004
2.204,-0.7758878480729354,-5.102269135421826,1.6968338157897023,0.937450554188791,1.2097885627088143,-4.508766343608925,0.048758865969758425,5.635222106999792
2.208,5.318072123683511,1.0911420582803313,9.463000914097288,4.896498937712736,9.79868777633287,0.0007583137588795807,14.155200585971116,15.699788074367827
2.212,9.36694783321758,4.512870389654445,14.138095310365069,6.710450835517317,15.779597993350942,2.6266488392246092,23.78062795600265,21.8408313579042
2.216,11.033264812637874,5.050889196066498,15.542666575381554,6.783545561275184,18.801489909758356,3.901731436557521,28.29936486971542,24.368502429372548
2.22,10.881450546263073,3.705033596077579,14.544764141817936,6.324210573352016,19.337917660080752,5.01946196328182,28.664826715975593,24.80703152707893
2.224,9.970157983850537,1.9551736595273121,12.433325478677341,6.601801265035608,18.184507057638427,6.970143806527069,26.588463591229907,24.897337109971083
2.228,9.286376285834391,0.9830480531264358,10.27231197027638,8.223063477516748,15.99106599971715,9.857728783303434,23.61263997053359,25.63377502004431
2.232,9.292560031052833,1.1447694413138434,8.548493700356946,10.800721790459427,13.073526472202708,12.804708060079458,20.533016159525555,26.801340436418176
2.236,9.758917687350426,1.894563912256249,7.1839646417981005,13.14755288428281,9.507205762295648,14.4756578127478,17.354677106478515,27.18492415325569
2.24,9.953413911901498,2.184703627873117,5.841812155754808,13.902487960617021,5.392555373584596,13.908476718627831,13.677938876929401,25.31244457121973
2.244,9.107800474742605,1.1299229032253515,4.31749966077584,12.274313897041328,1.1024857500486718,11.158351672320887,9.226047634942152,20.348964526393733
2.248,6.914967814455659,-1.4224795766318508,2.7826442256612878,8.515415448501358,-2.6593380241508147,7.362082552182816,4.209082222410734,12.696415309676878
2.2520000000000002,3.817020759675281,-4.688389570161559,1.7800642977726673,3.8872745319633033,-5.015972048457578,4.186185705018026,-0.639791216625385,4.002138166178339
2.2560000000000002,0.9450597610223994,-7.212024999006272,1.989111389022968,0.13109524862736066,-5.219276881767177,2.9814157321484718,-4.31347604945473,-3.4229261463047145
2.2600000000000002,-0.3116830860415378,-7.496786617504521,3.8831561739242315,-1.305907303989728,-2.9606778932238837,4.109195671500173,-5.923601349937847,-7.520045663626584
2.2640000000000002,1.0372005920389382,-4.732254959910202,7.428080994142005,0.06841271127985582,1.4320987195850974,6.7975316820096205,-5.061699958608857,-7.336487440963563
2.2680000000000002,5.0178331358318555,0.71856641675905,11.957783453532542,3.5643605099168876,6.994192642801062,9.578602315890002,-1.9970781732056215,-3.4398385180112867
2.2720000000000002,10.529559980520624,7.334036872907372,16.310576582845947,7.63284199927708,12.35931872138217,11.04178017927919,2.3468709465551285,2.3047698884390955
2.2760000000000002,15.690760219622774,12.955746137023585,19.178585058556195,10.561824821234392,16.160837572085786,10.487604637922814,6.62180058602609,7.483710028365561
2.2800000000000002,18.573442061094035,15.622205888701599,19.56086364316345,11.212192440295805,17.481230445102568,8.16334089953496,9.435673572756315,10.08042462205636
2.2840000000000003,18.024755211706406,14.372691825151168,17.152502676141065,9.453669824307868,16.184116650806427,5.024042363151002,9.79634452024073,9.23560149046648
2.2880000000000003,14.17380572119186,9.648287727649153,12.497142706868365,6.1150331194373555,12.971330094899193,2.2145960161025,7.473795749128661,5.511058750739591
2.2920000000000003,8.344482154518516,3.095186672366136,6.818615431782666,2.4971403691279157,9.10361361407303,0.5612311883840357,3.129809285628946,0.5625309667740148
2.2960000000000003,2.4399532956125096,-3.1328226305042293,1.5918328168110616,-0.2596412085428934,5.880886524391613,0.3245987616811279,-1.8575134508832942,-3.5897951952848426
2.3000000000000003,-1.8704959511545916,-7.241095761945695,-1.9759277310848633,-1.6167749395707727,4.11709261402336,1.27037771910542,-5.851948589359892,-5.366095369716441
2.3040000000000003,-3.784058721655139,-8.449453717597045,-3.3501545581409067,-1.7097318216592914,3.8490461357044237,2.923556424113366,-7.553900628967454,-4.18520859397975
2.308,-3.52892170172937,-7.167755094402521,-2.8120167711986106,-1.083410842319517,4.40855994061995,4.811683426231334,-6.513028869970244,-0.599840541480475
2.312,-2.0255533033321935,-4.64032686987124,-1.2770994498662396,-0.2913147916856378,4.835606075412459,6.5807868437066634,-3.3205216885169246,3.988691017203669
2.316,-0.3049216302077704,-2.302900699540234,0.10229016890795428,0.3769827687560796,4.400259401485675,7.975091693817882,0.6199781691180482,7.871847069125735
2.32,0.9804100861611111,-1.1700445130655703,0.3902196632537551,0.9174207152898788,2.9678395928095256,8.779436645554503,3.6582445609382583,9.608779160256475
2.324,1.7223919390522706,-1.5168023482354585,-0.7943395143642089,1.4390102590798381,1.0332421518924884,8.822855193825117,4.562327453389405,8.448206320352782
2.328,2.1789552639098826,-2.9507667172160263,-3.171663979050303,1.9634142891469786,-0.5832249221737129,8.056318472388643,2.9900654927449977,4.495566279145056
2.332,2.649342893929518,-4.738024872884305,-5.92588593778768,2.3721210570857565,-1.1751669128576747,6.638739432609606,-0.4343940566007305,-1.3785743999144264
2.336,3.2418276943259343,-6.172842432621836,-8.003635634892428,2.5369775871246354,-0.47969498941053335,4.944719932298595,-4.455674188679906,-7.834075049157981
2.34,3.882128540123711,-6.794279896532521,-8.47207087625172,2.524697492513173,1.2739864258808433,3.4374026166518936,-7.757773002786525,-13.47077845198259
2.344,4.488604233612159,-6.401014428981171,-6.830135613051302,2.6878922482616225,3.5782188077423225,2.4608165057775717,-9.502513815113257,-17.237652803453592
2.348,5.105985077119168,-4.984535494371613,-3.2156391286998716,3.508459863219267,5.9239192755505545,2.0659562356081547,-9.63435078461675,-18.743049788425417
2.352,5.871027171821449,-2.680327659868416,1.5751710134430166,5.269108589656284,7.975690404036197,1.9889147729282013,-8.826735622152277,-18.35026204725554
2.356,6.814220987367715,0.19757720951757252,6.2770784879800345,7.753009053348579,9.548726410749495,1.810287499647655,-8.12064064728449,-16.99493668283202
2.36,7.667120654719602,3.1022784321749697,9.528185980355946,10.200790002193843,10.461998495406725,1.2083428880459155,-8.445283209324376,-15.785392027380375
2.364,7.857018738766464,5.286851793956693,10.31449993389051,11.591614043150585,10.422991181438057,0.1567307871149044,-10.238013847788038,-15.557970737594157
2.368,6.766114452011365,5.988891545898472,8.324313843111653,11.123107915780782,9.06467786608929,-1.05046014503891,-13.31013195340519,-16.594063668269527
2.372,4.114855649736559,4.725815295166302,4.057557517277629,8.623122184846524,6.141014765074493,-1.9690783851407305,-16.992138297973398,-18.635447202961444
2.376,0.22933015045528693,1.5506418469755716,-1.3817737418134146,4.6499251333514575,1.7465105039385431,-2.275384137834927,-20.461801984926712,-21.159729718370087
2.38,-4.020348289184413,-2.8995303251146893,-6.735787980332294,0.2122899867703949,-3.611657297253921,-1.9815768983998412,-23.09501528282283,-23.747112834676667
2.384,-7.638676898359636,-7.631972480605759,-11.07767741692273,-3.7355160195114716,-9.16386513817665,-1.4625841202176604,-24.687268147631258,-26.292305486883283
2.388,-10.0320685561827,-11.703542805793449,-14.11026840239554,-6.7282626831950925,-14.183408458260297,-1.2777754844687519,-25.460345169165198,-28.916419867666548
2.392,-11.295651904837248,-14.569923597254949,-16.127230461520952,-8.889171981736766,-18.25273453359997,-1.8734102692463739,-25.86185415520132,-31.630890136072424
2.396,-12.085627064142974,-16.21798109691505,-17.693755058290378,-10.675605933612827,-21.347038342932365,-3.321529931628424,-26.285711469047932,-34.000621403249866
2.4,-13.130135047551313,-17.00948956598259,-19.23267753389256,-12.443011589341053,-23.68338015916569,-5.241803318932397,-26.85250550819051,-35.08108292320542
2.404,-14.676872812752716,-17.341315161365536,-20.748096830776603,-14.106634554142744,-25.439838209280076,-6.948677676145838,-27.360507232190173,-33.76086084770606
2.408,-16.24723265599511,-17.362641078544456,-21.84665952554242,-15.129477476076323,-26.552342466679647,-7.7625384525699745,-27.425044292937386,-29.390775565940306
2.412,-16.888447605003872,-16.92011562585025,-22.021860255394447,-14.843319800123721,-26.723777171215247,-7.338869077833361,-26.7251297164837,-22.352651347534156
2.416,-15.777622679888157,-15.74690021719027,-21.010140994038682,-12.886905651635917,-25.627002844296822,-5.847097811976804,-25.223745797934676,-14.18318023406858
2.42,-12.81429527814376,-13.755140753846728,-18.991403326985562,-9.489174410895007,-23.16418817457805,-3.913303374935759,-23.230372791460347,-7.106472723084689
2.424,-8.807759515853556,-11.202916141947286,-16.4972934859223,-5.420970325736704,-19.589101444749378,-2.351286181354757,-21.268249319721388,-3.1414772107790108
2.428,-5.107803654120318,-8.60960916471903,-14.091523361439844,-1.6376883798907205,-15.40834205305648,-1.804201973218861,-19.82255473283391,-3.2147053660697757
2.432,-2.8785141931710685,-6.452706307376532,-12.01583666151827,1.182745431953368,-11.115347533115347,-2.449096160464544,-19.086964242085593,-6.725726087349853
2.436,-2.458648762081636,-4.865400318472764,-10.046935482390783,2.918245824237361,-6.958055879521182,-3.902555511002372,-18.84782785797188,-11.822215727074964
2.44,-3.191561713468618,-3.5449930180201745,-7.6529233052147685,3.9590830842164717,-2.895723299391469,-5.376202498573832,-18.569195732782497,-16.24538159632511
2.444,-3.83522012873902,-1.958294658144447,-4.363918269659129,4.8875155627111715,1.2223535124926963,-6.015214415987709,-17.636315821366445,-18.320934588593808
2.448,-3.298192434502227,0.26953676220942313,-0.12879141805139893,6.09460418411276,5.381979514548867,-5.269135063773382,-15.639728495267907,-17.601404811016383
2.452,-1.2637727705093948,3.029450170324285,4.553148979789393,7.561589953463411,9.223603953201147,-3.1319238503537012,-12.576628542259016,-14.872758427788611
2.456,1.6558982880645505,5.680487216493385,8.79983837851287,8.91016226376679,12.088663636464338,-0.14065847906162388,-8.888061652019122,-11.581262662611625
2.46,4.317603021141055,7.347728969299375,11.730603651668295,9.662726722020054,13.288977217003703,2.8635516294641405,-5.3234524366633185,-9.026571484612202
2.464,5.70404291644466,7.386305204446262,12.83961964862762,9.512024878174357,12.424036544318504,5.095838632223694,-2.7041614907583003,-7.768037515865846
2.468,5.417547485847379,5.720507779374569,12.14580006305083,8.421741172898649,9.539112809023946,6.137503278253005,-1.6856892098685168,-7.518785006331287
2.472,3.74008652393829,2.8582185430351057,10.072795349437001,6.525622212966633,5.044984581047372,6.061469386824461,-2.5834557059652044,-7.497759318715564
2.476,1.2582205816743297,-0.45385393856531575,7.1399000605550205,3.9120845082646634,-0.5593086373412861,5.312158838688685,-5.319678990894963,-6.987147668662722
2.48,-1.6515137273039802,-3.715315962373091,3.6672258115127607,0.480807676910894,-6.959791102293467,4.418137522441771,-9.479579523974095,-5.758539894635127
2.484,-5.094407443487509,-6.967572331543528,-0.3181654182858882,-3.994804317835224,-14.0888031063931,3.69539898310398,-14.428383605584951,-4.132259247285633
2.488,-9.455018565615688,-10.67799091735055,-4.922748449323702,-9.592356089841587,-21.91572236733847,3.107603827879462,-19.441271746696735,-2.675568025135896
2.492,-14.867325301596555,-15.26450774572565,-10.088054515971624,-15.925189794902069,-30.09779020828791,2.3588908166879348,-23.822935030141803,-1.770453049536157
2.496,-20.753497110319,-20.563165621709594,-15.355464953498943,-22.025491245356527,-37.74182289258527,1.1499159634336547,-26.994896200315708,-1.323267043665616
2.5,-25.769718242781067,-25.588483916538266,-19.847444983910435,-26.544399119372706,-43.48028620876275,-0.5580945274701836,-28.553222909446543,-0.7994232145113007
2.504,-28.26764593974104,-28.790106047883434,-22.50468378347879,-28.216614198347106,-45.87556802572196,-2.425742664070671,-28.29485959517998,0.4476429604054153
2.508,-27.06002737547123,-28.729531015563467,-22.475041607124936,-26.38156269045659,-43.98226162450219,-3.8503087048377203,-26.22195115014403,2.7480876481785663
2.512,-22.06884010525912,-24.82688741363051,-19.462985070395384,-21.297522554656933,-37.784929383998886,-4.267554879929632,-22.540056798270356,5.820785722345619
2.516,-14.465182069649458,-17.769584370653938,-13.885082857682633,-14.075919716720916,-28.289911377922678,-3.4748428679657515,-17.667613840709365,8.779683640296788
2.52,-6.194341414613911,-9.31626322412012,-6.742907226288403,-6.24882637481638,-17.203736152330258,-1.7816577627073162,-12.221529880401537,10.465884300510808
2.524,0.8464216538035494,-1.5786125222182155,0.7111546138148563,0.8029303906096992,-6.368192064323681,0.09604320449013219,-6.9619566892265565,9.940851660347715
2.528,5.5482809244439615,3.8651366248076697,7.3735165938098834,6.295379582626875,2.7887339737607864,1.3633878676876974,-2.6646171387704563,6.920477380775289
2.532,7.877849502396627,6.576267227309328,12.59490780473787,10.158957973337483,9.565312233591824,1.5240578353939873,0.060080183708574264,1.9518936834442027
2.536,8.600614027962045,7.27219702405097,16.27435220521459,12.805136973865821,13.963173372544183,0.6110958577672372,0.9488058510484154,-3.749693618283361
2.54,8.669816195945122,7.284815611599559,18.72953823721896,14.714596297279906,16.419308603660244,-0.8525994303422813,0.18948629383644078,-8.7405534935582
2.544,8.66566383674917,7.773249358915326,20.412984767698536,16.095453144909186,17.4775785614918,-2.133161907656123,-1.6340759604288848,-11.872465421695587
2.548,8.596041054136375,9.123665597348197,21.61647901362121,16.814474320833227,17.565456020832308,-2.640257086611329,-3.7453212717702202,-12.657992676534839
2.552,8.126915702689502,10.856910904375685,22.303690827533565,16.6239525489427,16.946380301175328,-2.168344371417942,-5.453017218758511,-11.3216403043814
2.556,7.019283204765839,12.023077989276084,22.121669845006465,15.49543162552048,15.77213303753247,-0.9149093909456463,-6.395342507462468,-8.548886135120991
2.56,5.447777581244207,11.821436034579925,20.585735138035,13.829220717657723,14.140990766435852,0.711299600163666,-6.634183002957828,-5.073143298702654
2.564,3.9885930987785887,10.077661212132101,17.355488222721778,12.368656989264819,12.091307983368248,2.3552091281364733,-6.555205569694765,-1.3317908793413347
2.568,3.271959911212143,7.292443273162797,12.458713738211857,11.821614904937041,9.536495783704911,3.8860996420948455,-6.633649952682723,2.6224113007920256
2.572,3.5468872900336335,4.292362789522638,6.377693888138195,12.404844711423596,6.248455267116391,5.382006959907772,-7.177285914169365,6.924779491382738
2.576,4.443267676820081,1.710740766193755,-0.05509994996627521,13.584569479447088,1.9511704462691233,6.966067831021984,-8.172028299248067,11.557630702775684
2.58,5.109728048835056,-0.36021697669874553,-5.901917877114075,14.217534532494287,-3.464987952869252,8.617708328439814,-9.295486268295608,16.097718485110022
2.584,4.651531919376484,-2.3305148788061114,-10.393158304013685,13.069233048155306,-9.708554364401053,10.088688943208524,-10.062864021971329,19.748533344083253
2.588,2.606815293247534,-4.742959306200062,-13.12637095464693,9.45717487098432,-15.994431819923118,10.985036794411068,-10.026645012219529,21.674591175347338
2.592,-0.7902235097871246,-7.7921902290171765,-14.101257838745978,3.698266470929637,-21.175957544636464,10.96090236856661,-8.931839702157784,21.454931940741503
2.596,-4.6886913557884995,-11.043067591684931,-13.607328279651968,-2.8922033801372278,-24.09210167060267,9.904167138564265,-6.766002607274594,19.382465801083534
2.6,-7.992741202905362,-13.53178451814978,-12.03578121943795,-8.482059138192085,-23.98641972986251,8.003303190435,-3.723715665002661,16.39308460033747
2.604,-9.810154945681234,-14.19395901830205,-9.703816013669972,-11.462315546150837,-20.783701815442182,5.665044674176277,-0.1269169337027014,13.62803443655379
2.608,-9.725872828534062,-12.375589797037765,-6.768885011339474,-11.077324513243946,-15.086041013576693,3.3494780527394314,3.6587245163969646,11.859972582934006
2.612,-7.797166871823356,-8.127511149805791,-3.2373325347317,-7.638527155234338,-7.8762251807603745,1.4279984245713866,7.2973702137926635,11.12615839222411
2.616,-4.356630009401639,-2.1502987751600404,0.9461693615339848,-2.2599476766914393,-0.1061126836976024,0.1286037962741835,10.545131439768664,10.792297563619243
2.62,0.21216472932283859,4.5551907540272705,5.784728915920639,3.720387675407062,7.609851030169276,-0.4337455330836466,13.301878673883003,10.016727610861773
2.624,5.570916661310674,11.108430176880107,11.137533373179412,9.307441837872236,15.036613750314014,-0.2094724984493399,15.619305609957756,8.3368352858925
2.628,11.346242269650459,16.985145597846543,16.663316133218142,14.103337780467776,22.075555012996425,0.7716713468231968,17.634096309051717,5.997196157864588
2.632,16.97578760463642,21.96747915072737,21.811833006754956,18.157191236434965,28.4142565828828,2.3133322901211892,19.42206900879612,3.7865499620784724
2.636,21.65733289623356,25.905330265943228,25.880992792072185,21.578922220871103,33.32229292198629,3.984643723776264,20.85366062940831,2.4899733300669684
2.64,24.509787174836646,28.50841171386795,28.162663812359664,24.208784836700804,35.7769549405085,5.17170682623318,21.555262034483604,2.3063349226130665
2.644,24.903898819958016,29.35238882752055,28.153116138021524,25.568368505062892,34.904774214478955,5.289948410714387,21.04978430749396,2.633783438492273
2.648,22.791318668995018,28.11346640185421,25.770191302361468,25.13825361316249,30.51261557010575,4.083884187594498,19.05281229070425,2.40481172322547
2.652,18.827802313907092,24.88916470002398,21.486468541360516,22.775768952479677,23.403079644162474,1.8461449560815595,15.772118894957632,0.7884127602994044
2.656,14.15581966195232,20.338354751980724,16.25101500505308,18.963672545740323,15.217278744572369,-0.6149772184495688,11.997259617862131,-2.18666290717546
2.66,9.914389039081454,15.493412283248961,11.189433161585715,14.693082917356843,7.823658415782781,-2.30663584807379,8.858669740190937,-5.516192860445644
2.664,6.732485608263515,11.325155250495204,7.195045952830066,11.01872537353637,2.5447921899100394,-2.5380265997895046,7.324167432863409,-7.733028918310906
2.668,4.490534610497761,8.297641580083774,4.587961065793752,8.537793528296028,-0.3912747125584817,-1.309418820699939,7.689528675357149,-7.763377752942295
2.672,2.5017856952414546,6.2088099888733215,3.044330545783631,7.125005665503472,-1.8461843851146749,0.6394548074628643,9.377104632309939,-5.599495154651245
2.676,0.015567056744881236,4.419739338039262,1.8394267749821376,6.084535985857626,-3.207112702619469,2.178736885700648,11.200834475705982,-2.3557355407795586
2.68,-3.2318535718229455,2.3451455026109422,0.29281299632604263,4.645386726650749,-5.557453385002642,2.362004714860981,12.00310155925011,0.35056068732829326
2.684,-6.748965620435265,-0.09713307463581078,-1.8200542584028465,2.498226048592821,-9.031245207879744,0.9142941343088016,11.317287756623232,1.3265763700973823
2.688,-9.49457403126166,-2.3905998529024837,-4.142158095373064,0.03052398408942647,-12.71998641872246,-1.6424536218299866,9.650509439111786,0.46005550344822366
2.692,-10.467316268824945,-3.75169221007566,-5.966378605634707,-1.897057818324809,-15.181822280714579,-4.307012458743533,8.192725417928202,-1.3072454124147788
2.696,-9.351314217045765,-3.6900702365165774,-6.693645733173426,-2.5008395827433247,-15.265176826431352,-6.1661952882249444,8.083832925879936,-2.667924434586098
2.7,-6.810920966491032,-2.4136901853758963,-6.219650467465231,-1.5925045683850478,-12.7609074537236,-6.880292127989412,9.675877951785365,-2.8545121642359454
2.704,-4.2204046289992725,-0.77473592011076,-4.9905527841028245,0.278044772125416,-8.49668494565357,-6.797977747896043,12.258755946436839,-2.1549667914035613
2.708,-2.9558231703441744,0.2280780616657917,-3.6947173946157736,2.1462521764213562,-3.8478276242980924,-6.649437412188709,14.426969094755048,-1.7028185661919366
2.712,-3.6145211276475457,0.11163345460513568,-2.77283910223983,3.2333669785749786,0.03664032692910224,-7.024100427032726,14.894707175614013,-2.6811724362266034
2.716,-5.634009695185768,-0.7104454498951903,-2.0763850810986235,3.4291385855208474,2.8086520304667566,-7.971664527732125,13.27307378570995,-5.45961442401685
2.72,-7.55541925529411,-1.108711199737491,-0.9157478905381051,3.3373520415949427,4.960466446812753,-8.983503220922827,10.323263029596605,-9.242411056586878
2.724,-7.819447940883327,0.07912888051345757,1.4882491976252696,3.827734667435256,7.318922906992015,-9.366930550467314,7.508619660377489,-12.486721519943393
2.728,-5.64765423130269,3.260468806672163,5.410476617989107,5.374453075228028,10.324917627811699,-8.766203249822116,6.112989768951346,-13.827564469420023
2.732,-1.5099113152984742,7.701761454824835,10.267548625703139,7.6176332574317875,13.5811087906467,-7.474967228528893,6.465117963058254,-12.909711866597636
2.736,3.07539956613334,11.799637103707257,14.74464290551732,9.440839188477096,15.961455561885774,-6.319364069534553,7.75103125067108,-10.576095892919916
2.74,6.302137308465121,13.88760290833795,17.369217882155418,9.555885062405661,16.22117976570295,-6.162242922902791,8.534104706233988,-8.28965199709133
2.744,6.974209859281951,13.124371501477492,17.223502570295473,7.262558567775753,13.740976388211262,-7.3224625124722635,7.662182564599815,-7.158793989116351
2.748,5.0203693296665275,9.915447742776399,14.370169144810939,2.9072614085639055,8.92360468057918,-9.290824617930568,4.991183152663461,-7.2166452688097324
2.7520000000000002,1.3546846458031068,5.622113888105173,9.755875362689764,-2.2482870599737104,2.999316753102033,-10.946093831898441,1.4807659833555582,-7.433494774439908
2.7560000000000002,-2.7719590998082544,1.7413137860871366,4.661177537658693,-6.683663583091358,-2.6383571434524016,-11.161215519186701,-1.3864254519167634,-6.459908801784807
2.7600000000000002,-6.484559611890349,-0.9206863532197769,0.04881210364336397,-9.402576455402386,-7.131017393348131,-9.451548724553898,-2.4748165783086833,-3.6004345757222125
2.7640000000000002,-9.606413016391624,-2.553862427017642,-3.788669469788264,-10.369382203473446,-10.448553095866195,-6.278700945397901,-1.598734192023511,0.6431008941988614
2.7680000000000002,-12.41995247307431,-3.9653807701434514,-7.097044461792255,-10.352265242031333,-13.121621797491452,-2.8205603416918112,0.503126707064049,4.834762619680863
2.7720000000000002,-15.07148912052092,-5.777220795774181,-10.169103167421875,-10.290886893746734,-15.60982592669655,-0.3380544499877902,2.7684832394778134,7.516368984948787
2.7760000000000002,-17.099697903153146,-7.778220085204113,-12.88471348644822,-10.62808889124698,-17.777884234146377,0.48284544686371644,4.541853275041937,8.161173193163302
2.7800000000000002,-17.48617166103676,-8.909202257904052,-14.631158187788955,-11.048008189791092,-18.87766661397127,-0.1708371294031532,5.92363948528703,7.511414334555123
2.7840000000000003,-15.253808789697688,-7.9197531902423925,-14.668149250250671,-10.771295311594432,-18.05556144529226,-1.4430534547961802,7.527610860225636,7.068627506544825
2.7880000000000003,-10.256612792013442,-4.304106592380422,-12.712843512857022,-9.209720873261004,-15.061558965909764,-2.3746206110122827,9.842054397236154,8.052547081149088
2.7920000000000003,-3.6220184895601424,1.1151269384237892,-9.320387919555714,-6.5284154260503975,-10.648922437204678,-2.4728861081108637,12.677983563256143,10.512747197845632
2.7960000000000003,2.525906308104691,6.385346484062933,-5.759107385066406,-3.7211649499289994,-6.335782475578009,-1.9443393070110637,15.132669172964738,13.206228855234484
2.8000000000000003,6.027103009945787,9.384145389377178,-3.3769004580807893,-2.092209205775405,-3.5918170975768526,-1.4599004381190903,16.153624527137385,14.36239297096777
2.8040000000000003,5.8240412735636085,9.018312154348498,-2.8109052984521723,-2.4432092111616894,-2.9199912987602934,-1.6334889464392868,15.347210637405173,12.873036731445286
2.8080000000000003,2.56659344594258,5.895318928869532,-3.577344500653603,-4.520207879100304,-3.470036777779445,-2.5831026092145453,13.419876121699646,9.105013850786648
2.8120000000000003,-1.696476828430944,2.0426854890628783,-4.3295190751379735,-7.082467666227626,-3.48325837501885,-3.8573366131998466,11.868960814643946,4.76864414363696
2.816,-4.634255398977609,-0.23428996138810243,-3.702710683658604,-8.611299809044795,-1.3986389969730508,-4.768629195008459,12.015476677492753,1.8644477710794698
2.82,-4.936017812445219,0.2924910131533589,-1.2599001068597218,-8.249558815856382,3.011660851711925,-4.913653903293719,13.955564077219933,1.3500138106479271
2.824,-3.007341589148492,3.0339147139427514,2.0703323766830626,-6.374210971302835,8.20751964252925,-4.520311463073802,16.153919249141715,2.398349476468188
2.828,-0.6704041746051521,5.887811763069093,4.3567561039942495,-4.448447007892332,11.46853235017823,-4.377124713129772,16.04760420173411,2.7628105350452987
2.832,-0.02087410446481286,6.463865762250096,3.7105385186782023,-4.177614382383528,10.289076237997179,-5.352791542431029,11.452487779772182,0.11658091387404423
2.836,-2.105485844786295,3.535709973722998,-0.5556180620587945,-6.446759623823295,3.834710093027386,-7.792131830343582,2.026244770349411,-6.396145785556795
2.84,-6.217788875072389,-2.1397571542712006,-7.337900760519797,-10.671351677403623,-6.373084195503788,-11.163173572508,-10.09276159656759,-15.34807784328439
2.844,-10.264686528788765,-8.134581540039648,-14.112144231490959,-14.976568432699898,-16.973860322471673,-14.195867166707394,-20.94341512081313,-23.488413188278997
2.848,-12.008007479892626,-11.640844779994788,-18.117810192367646,-17.145982033109284,-24.277875601274133,-15.465499279796713,-26.456933872147218,-27.284524196750887
2.852,-10.418397847121806,-10.990125207926736,-17.713402429150207,-15.80432139970783,-25.97319855282262,-14.10090857669472,-24.356024595249327,-24.706690676251462
2.856,-6.332463971281803,-6.546768156988048,-13.182747212890195,-11.175496732275878,-22.146726962877583,-10.226250218363251,-15.235690659351622,-16.256151094015088
2.86,-1.9992714154450504,-0.46719641879002727,-6.547688054546794,-4.977840303949523,-15.093917519855014,-4.888181906880735,-2.2620007652682457,-4.682969507063926
2.864,0.23345418015752806,4.530230287687624,-0.49127248429359405,0.4873478428729676,-8.046470118947017,0.48336654578978955,10.355353023588375,6.424818735945577
2.868,-0.7000388166021114,6.645474383725465,2.9956211141451377,3.52884157050467,-3.5472073602597227,4.767823895794881,19.29797135133618,14.365014291080078
2.872,-3.947432825202,5.898698066947919,3.523741635391451,3.8821663510378404,-2.3225194380596044,7.605005963796977,23.473354174646833,18.406278267641277
2.876,-7.250982073911388,3.9400868643735727,2.276253885473851,2.684945442765594,-3.224381981607733,9.363552642079316,24.095579933392475,19.6846241972585
2.88,-8.306074835799059,2.920998527690072,1.1135401874266977,1.6600049249137374,-4.184007221163345,10.691310884056707,23.568132361941668,20.073734722961753
2.884,-6.158105649621152,4.12814104736267,1.3782919732252763,2.0123727131261973,-3.5557183305073368,11.950957387969884,23.887244547511223,20.784003118559085
2.888,-1.803272131823423,7.183077126750842,3.0913089967380363,3.6851647769478113,-1.0780904201557882,12.896960515184546,25.48399450929329,21.544150230908848
2.892,2.3709418028606875,10.281070068173573,5.004099052093022,5.41592002586385,2.076639916352746,12.807900237929175,27.11954344875595,20.830309890328614
2.896,3.975832036226389,11.307861573111591,5.442542342334575,5.551138531558785,4.127954280987571,10.9992674248501,26.81830736362402,16.96872577605268
2.9,2.0226246375388914,9.162082409990933,3.428408778202942,3.1337827996480874,3.8584011019235342,7.402201405928659,23.232982548620313,9.411806874352532
2.904,-2.4607453943465565,4.517817706226788,-0.5817348459175005,-1.3705031757810082,1.4396827956876184,2.844058240659263,16.624800942408505,-0.5900743403950779
2.908,-6.974813648829235,-0.44810248839776357,-4.796966547002046,-6.165014581434997,-1.5862168940191834,-1.1919828987940326,8.89724603840709,-10.35006250425792
2.912,-8.91472104925816,-3.1813753779379668,-6.9640929068328115,-8.98239124397141,-3.120778415192323,-3.2217467910848643,2.6978011987791213,-16.93977404393022
2.916,-6.974912547522072,-2.0981018319616744,-5.544195812898224,-8.261790599000161,-1.65580432449593,-2.495984850302666,0.10547769066528012,-18.562999597003717
2.92,-1.8198519533503807,2.5766681414350203,-0.5539235342606861,-4.0037295752399515,2.8754071019088796,0.5784592045851809,1.6184618188544277,-15.375401531841725
2.924,4.3118970443093865,8.913817733570799,6.3677973405807204,2.160639216279729,8.992271817011407,4.574958389208851,5.954455566571863,-9.346226760209873
2.928,8.786851575692358,14.228419233980626,12.679730737206029,7.715616330203265,14.3305454806103,7.691838792537007,10.717506635198813,-3.281883720310494
2.932,9.891427970263189,16.36870283711083,16.0848182022314,10.450440948953585,16.73268041236102,8.592991078743479,13.545043200078593,0.46519753532896146
2.936,7.573557160700387,14.668422248941647,15.523739007119312,9.472951246861578,15.208777642482184,7.010704858121877,13.13854142422887,0.9543214375658491
2.94,3.260257136419401,10.112893197294127,11.54790847493124,5.540938951373976,10.313050224459722,3.8046666366981285,9.709370829980283,-1.142959323911505
2.944,-1.0106900596694235,4.741163340474081,5.958610220865254,0.6073439990251623,3.8209460478576553,0.4786230363126496,4.7057074846305005,-4.086078910274476
2.948,-3.6218280895070514,0.6468058545571918,0.9310127793489791,-3.157425180284587,-2.0859668130319,-1.5871668758368784,0.04179252485510404,-5.997048246125363
2.952,-4.033245532562908,-0.8994509497799825,-1.9244890143138966,-4.357400302810079,-5.705523639185694,-1.7913346238268533,-2.742555715625631,-5.702417513845979
2.956,-2.795059385607891,0.16968449537250718,-2.151249660315181,-2.908320065711313,-6.395498665359059,-0.5273835015367494,-3.0291160904976104,-3.1375040342515046
2.96,-1.0319517152398154,2.9094532800001645,-0.4695343786022066,0.08967118492077142,-4.648629630551238,1.1146607362315675,-1.1884409714151762,0.7883868204780837
2.964,0.2348791994097117,5.9328046082228365,1.7097552585341247,3.0089987452167537,-1.7046789997563199,1.968957214497479,1.756825911953448,4.6955038955105035
2.968,0.5428226777083451,8.023719854604574,2.9953922631425955,4.497976798671777,1.051099514665104,1.3954761657259764,4.643633959814473,7.321618925953755
2.972,0.060115432891227005,8.556969388089275,2.641535907346912,4.054997849222447,2.6531095778301195,-0.4440455396656624,6.630765358765293,7.966430744055497
2.976,-0.6614322956048453,7.599554158602473,0.8142012560248966,2.133260513071406,2.854641925575409,-2.7423476459022966,7.429639787860818,6.658138123687007
2.98,-1.049359141442186,5.731579312719359,-1.5872978369534922,-0.20837747978597332,2.0743739584822203,-4.519086944293223,7.256691293812434,4.033172002057533
2.984,-0.7755546632990908,3.740165630099703,-3.426886127125755,-1.8741539280106652,1.081307811310987,-5.129928083420165,6.593304698582634,1.0266026126429573
2.988,0.14709944883609793,2.2904457065116404,-3.91734016492153,-2.2431372977289934,0.5651713330473687,-4.551181996212816,5.871845933452467,-1.5070028629833931
2.992,1.4319355706167092,1.6960007132387842,-2.9986955832604627,-1.3795347672417198,0.8086453169454586,-3.3079437112330616,5.249083486916055,-3.109771119201688
2.996,2.6749752901192916,1.8486038508851994,-1.335744266996274,0.11592127617872139,1.6017314158418055,-2.1227079018593935,4.559399200671405,-3.8552633079396808
