Timestamp,O1,Oz,O2,PO3,PO4,TP7,TP8,Fz
0.0,-1.6271428648906294e-12,-2.3447910280083306e-13,-2.5224267119483557e-12,-1.7053025658242404e-13,2.3447910280083306e-13,-9.947598300641403e-13,-3.055333763768431e-12,-1.9895196601282805e-12
0.004,-11.12327082571231,-27.299606181050045,-17.586984579466055,-7.595522098837094,-21.39985413476409,-12.956929395895813,-9.926830351813038,-13.84779266907185
0.008,-19.15751209163181,-47.43721675327898,-30.437854216412155,-12.822254484013243,-36.652883025729835,-22.2138520575362,-17.18213931233994,-24.19777375896004
0.012,-22.376568796765447,-56.33972842013192,-35.850473579742506,-14.423407361935723,-42.3755569711265,-25.711752199216193,-20.163187845237218,-28.982604662350553
0.016,-21.071804889466698,-54.55507385439215,-34.166725788907044,-12.770452550869166,-39.289076336209476,-23.822895159544586,-18.90041130807377,-28.302389431902697
0.02,-17.189044471075327,-46.53522750649894,-28.315454370667076,-9.538466960381399,-31.518946953418563,-18.905828749606627,-14.885439358756713,-24.136189254708498
0.024,-13.182451044559421,-38.11915971104858,-22.16650527703038,-6.734035538913744,-24.27829112032262,-13.930736768715207,-10.280571844379736,-19.230322774559696
0.028,-10.782915766198329,-33.65323965799465,-18.61654096640457,-5.653200366031761,-21.26149488074214,-10.97836583258993,-6.931908125356202,-15.789516511911643
0.032,-10.346067673550124,-34.263007834655255,-18.414331820617896,-6.33761136382401,-23.13524170268815,-10.42530901221042,-5.678743398799298,-14.642681098077844
0.036000000000000004,-11.067549143108032,-38.03911980980183,-20.25646462368713,-7.784311195830014,-27.80117174648323,-11.183835788117008,-6.238059464640415,-15.241317930887334
0.04,-11.815460659789913,-41.780532730435695,-21.945364086648517,-8.712883334386241,-32.06311265271399,-11.707155323767239,-7.618249361015813,-16.337500254145482
0.044,-11.95516751558069,-43.06233824213449,-21.81141790135348,-8.35959354317206,-33.55600127903259,-11.063128382274598,-8.740438341198441,-16.830802489856197
0.048,-11.68017023455424,-41.46757827697769,-19.603238460223437,-6.865727354996515,-31.862391023480658,-9.443702796533003,-8.936856813586516,-16.29978426113037
0.052000000000000005,-11.708323899075737,-38.45278493347063,-16.443151390403763,-5.085420843086602,-28.343689500155985,-7.8827454556432315,-8.127617956413118,-14.999039712851427
0.056,-12.640075788764705,-36.176275852319264,-14.022233726975337,-4.001016159473721,-25.018681769580944,-7.468010464172849,-6.688315182474632,-13.45937936494596
0.06,-14.451116089103792,-36.14123067404351,-13.58654241457829,-4.13246666584039,-23.294541738887773,-8.588509176842834,-5.15911374813728,-12.02241502851291
0.064,-16.416538308679954,-38.40826762591587,-15.261852696360478,-5.246342256715415,-23.25277905919793,-10.657393757974688,-3.9506978150241068,-10.598392599982574
0.068,-17.506588958618046,-41.74541573240744,-18.053991628417254,-6.4995454090325,-23.81567710387531,-12.431195314746304,-3.1680098407178434,-8.766083561419677
0.07200000000000001,-17.003138029667547,-44.484704648506806,-20.449770279296374,-6.902779397356966,-23.563352782915633,-12.691371430472756,-2.6104337429258777,-6.113640755836215
0.076,-14.93395918082016,-45.479532459683945,-21.22512703641397,-5.82410051634438,-21.631798530321866,-10.877797280912588,-1.9285816225467158,-2.5831998354826595
0.08,-12.063862446033681,-44.6152777305694,-20.025052447452893,-3.278976744290297,-18.175694169971386,-7.329873791060152,-0.8269525223131495,1.395425233580056
0.084,-9.476609997201876,-42.643437446024016,-17.436434572604682,0.09949117100566696,-14.195366628904903,-3.0619233936653387,0.7566700675764508,5.050511772724221
0.088,-8.00695467792071,-40.59330334951747,-14.621490545422251,3.3422104149214036,-10.96232894627554,0.7435981338042978,2.555560979967673,7.593612893302179
0.092,-7.8548897345975845,-39.20155847269466,-12.76277339035476,5.521679134455972,-9.431898010978173,3.225762794787414,4.023060826117266,8.54421203479518
0.096,-8.568447684477846,-38.67236333954466,-12.595926018662308,6.069751155786243,-9.935241512339644,4.09384143850221,4.536000042607441,7.904164941611896
0.1,-9.35017179165731,-38.801775447665214,-14.200767793956729,4.937891082426084,-12.201373230021556,3.605380506345277,3.6820473410260277,6.139206656797882
0.10400000000000001,-9.48159428513037,-39.22732725431502,-17.0382430575891,2.582781085481109,-15.535356957016859,2.364784430501828,1.5102466326961945,4.0118655100177065
0.108,-8.641384601718876,-39.601489202881055,-20.173982405099053,-0.2061618273719219,-19.023011252857167,1.0764590771506803,-1.3983599165200786,2.3390440042561593
0.112,-7.005376547416681,-39.64096112669149,-22.606575195737424,-2.5895053224884066,-21.729461911173583,0.3252723604574541,-4.129729708124131,1.7360937736686992
0.116,-5.142032691571856,-39.1346315686214,-23.613645127625592,-3.9860963113293337,-22.927686379654933,0.40850756221234263,-5.847374638684919,2.408773488949471
0.12,-3.785230646364397,-38.00717451845965,-23.027056635948743,-4.29474616341443,-22.36355938877362,1.2423409306108155,-6.2054724079307135,4.073957117062193
0.124,-3.554401839116604,-36.380157662622295,-21.280382090239065,-3.897257333037473,-20.399491475532447,2.397486274173737,-5.505981893613317,6.078573306182108
0.128,-4.7073753719100715,-34.583266012399676,-19.199807617253676,-3.4316837782888143,-17.93202907051322,3.2755856632578713,-4.499532951475068,7.696989081924187
0.132,-7.001306149899801,-33.05445617466593,-17.622383482247347,-3.4328934357988743,-16.058340995875778,3.3760190222294355,-3.93893113094677,8.470123683749797
0.136,-9.733043930623019,-32.14370955594303,-17.00213876615478,-4.028617403747461,-15.597262809388095,2.538460584130007,-4.15187117912884,8.409410373655128
0.14,-11.968004928652828,-31.917529425256863,-17.210046112089348,-4.8691726792186145,-16.702862090567795,1.0422483099661335,-4.895920214863864,7.955625224209562
0.14400000000000002,-12.871751658760118,-32.03879047658059,-17.603347084245726,-5.313808121626671,-18.752403124680097,-0.5071323584846041,-5.567674471489667,7.720354805751612
0.148,-12.02566686710701,-31.851222429610925,-17.36861158079578,-4.782394492798616,-20.621297805852112,-1.4608825162187813,-5.627752335510209,8.152984297705508
0.152,-9.588548073514556,-30.672606141620246,-15.973174452593426,-3.076091823825166,-21.234365816821157,-1.4246566141534984,-4.956437386152494,9.321853613449441
0.156,-6.223156012353112,-28.146058089863196,-13.471400658375401,-0.4812252225381428,-20.101712830858897,-0.4170332890232231,-3.891331998674744,10.932273013678774
0.16,-2.8125176470831654,-24.45729275367066,-10.496033674676617,2.3883455269238425,-17.548854589250205,1.195557856152007,-2.933553805653446,12.557247824604659
0.164,-0.09834713908364279,-20.26074421468471,-7.915876678153726,4.909127947316065,-14.489929183657386,2.9437176105024676,-2.333633495031407,13.928230221625647
0.168,1.5501992203713542,-16.395269439949228,-6.373975422738294,6.706159265222567,-11.923681553147052,4.4934042148596305,-1.88159352736308,15.062265431804434
0.17200000000000001,2.1338882453357435,-13.583669669605424,-6.015317419883832,7.6938959789337815,-10.501040822594772,5.702976839016472,-1.122481225223737,16.08928588676997
0.176,1.7672083563337289,-12.305522274615946,-6.583134728371963,7.8735060725675154,-10.433812364446057,6.459147147855553,0.10207983499066842,16.883736719564887
0.18,0.3578450847965229,-12.857595102363376,-7.800287117397204,7.052274293366285,-11.743412937457473,6.439322720051351,1.1572805747576567,16.79136287471058
0.184,-2.449796311371763,-15.392535195367554,-9.701303447039525,4.772302789781332,-14.541350570753407,5.059074484895461,0.6014428186445571,14.746203782629948
0.188,-6.987977877087136,-19.839909746619803,-12.652235371201883,0.5634717927210957,-19.071520598481953,1.7238332654468138,-3.1794111271959267,9.826788291997026
0.192,-13.106930076611043,-25.738774918770357,-17.00560250679357,-5.601501632524702,-25.435007896866246,-3.7231768234295686,-10.962243017618334,1.9816682466003215
0.196,-19.853450947915704,-32.11078220384532,-22.584527690602634,-12.928947150679829,-33.15424939803769,-10.61796176631983,-21.85557563056299,-7.514806312478257
0.2,-25.579160329344802,-37.55417080606924,-28.373862415230388,-19.794434112679724,-40.91183096253451,-17.436043962655894,-33.204878726390355,-16.22044864193125
0.20400000000000001,-28.502053154232023,-40.577740604672705,-32.67385467317156,-24.18778783113068,-46.707585626405205,-22.215587274212908,-41.426535684185524,-21.325283605847055
0.20800000000000002,-27.49064815288974,-40.120204796417916,-33.75585744894649,-24.472039338902025,-48.509160895348785,-23.297412793782936,-43.45178406347267,-20.777319864184523
0.212,-22.686324211966713,-36.05312938802427,-30.741802902842952,-20.123028106573678,-45.16288620249559,-20.051870759270653,-38.1111531992001,-14.212329852058584
0.216,-15.586680947784343,-29.379060752645504,-24.212562341502014,-12.06214129905964,-37.08808767206005,-13.220250599606668,-26.740448742597245,-3.2097195526587683
0.22,-8.467876433787328,-21.956893242486544,-16.150516362130652,-2.382608128530162,-26.3364941424769,-4.669628445207898,-12.661298985809015,9.291223372750189
0.224,-3.375793509966396,-15.776914112347296,-9.130792429313107,6.447504868707377,-15.861507408602263,3.3434378215252707,0.2181352077821046,20.147748051580844
0.228,-1.2095979380991633,-12.146862327504216,-5.163576462767686,12.53154111138468,-8.344244861282911,9.041727015020655,8.986698221576603,27.184224017495577
0.232,-1.4041028841594372,-11.211880987298539,-4.802280725029327,15.185876545595654,-5.15235696668784,11.717477669908256,12.738098882280497,29.832865486204366
0.23600000000000002,-2.3672233356501415,-12.026447536252084,-6.982985205291653,15.00442823277475,-5.912617288940083,11.801853126540035,12.552005009205203,29.000830420803513
0.24,-2.457880828268536,-13.171935103534253,-9.713961949110233,13.342845495279713,-8.923301192522176,10.439393612264137,10.563661195201835,26.31987097937118
0.244,-0.9653401276058062,-13.583784422297903,-11.224619797129394,11.528908465950057,-12.154827408122753,8.826902440232384,8.696456342410688,23.230823096586562
0.248,1.46631868423772,-13.1169438941942,-10.917025714491219,10.225301242504987,-14.26778143212965,7.673830931463229,7.753938151635836,20.40115633522955
0.252,3.2318165701745425,-12.513422952899555,-9.580381754640431,9.267912072818323,-15.094822865039575,7.034946509465538,7.319152987583987,17.741271534643783
0.256,2.753572805622806,-12.812030244768511,-8.777600868823127,8.016240565815497,-15.38846774560334,6.521400407451328,6.389067575828012,14.887396742637787
0.26,-0.5451976894930173,-14.609670143107437,-9.822452225323518,5.937051947250739,-16.094146807267176,5.694300081151233,4.264862776022309,11.77213783279571
0.264,-5.82168360869133,-17.60519097219774,-12.954201757290583,3.061628315846084,-17.621283224161868,4.394394995189554,1.1353679914336325,8.901721725179549
0.268,-11.192804720366418,-20.689448828195562,-17.181037271660646,0.047398298637014946,-19.546287445499956,2.8475774623795154,-1.9771729546735521,7.182251817506231
0.272,-14.703543275670498,-22.524804705586273,-20.85395384826124,-2.1857239340038106,-20.887470613084787,1.5388535451850132,-3.8286116688563627,7.4257152005030065
0.276,-15.334933990322114,-22.285918231205883,-22.5938791657772,-3.0109082205074387,-20.751163826498725,0.9631297560075289,-3.708773871205782,9.843185241859786
0.28,-13.500299595462167,-20.165835406973383,-22.03374550626848,-2.5016326525793,-18.962048459352204,1.3883133792324287,-1.8790189303542366,13.822891810682238
0.28400000000000003,-10.767167639176431,-17.33804504876632,-19.94527380002762,-1.4301711933437993,-16.27112993382133,2.7392698905334143,0.5598729825304503,18.111638711178507
0.28800000000000003,-8.958475496580846,-15.359132397370587,-17.70043400886598,-0.8299404281634715,-13.986484503876314,4.643829700655807,2.2760953296042103,21.317311136039443
0.292,-9.143855229041325,-15.317727199925091,-16.421155279729746,-1.3708142573389104,-13.230092195855654,6.593426186090982,2.422145044848664,22.468541604710328
0.296,-11.115884357900942,-17.21946537563366,-16.35409165215885,-2.9350017899597916,-14.274400254417724,8.121570585583907,1.0483316661965816,21.35178532573783
0.3,-13.647346799164879,-20.006274257320726,-16.860929166656025,-4.677400967752902,-16.392395551897053,8.916634963829827,-1.016923975671567,18.47423871557031
0.304,-15.331750705980538,-22.189319131745442,-16.969982740583415,-5.546610090665109,-18.299308704086755,8.846631499629634,-2.707581500270443,14.72304201445971
0.308,-15.463622882403758,-22.70219897625192,-16.08502679738145,-4.950544042754432,-18.89530744153293,7.9513937308386975,-3.3276837199695706,10.964650959407445
0.312,-14.422401984779958,-21.462590147370644,-14.378567809699096,-3.1596033878318446,-17.850796528910106,6.424144390528561,-2.8747632330795856,7.790808994206374
0.316,-13.352953288914279,-19.33202541053941,-12.632390936267754,-1.1939705520236004,-15.70605880045661,4.579958689372054,-1.9216445509647162,5.483374025302622
0.32,-13.381577455256615,-17.55459090980619,-11.677883072802771,-0.2546045891201585,-13.484721636583128,2.797119381696559,-1.1815354827744322,4.1145216370241045
0.324,-14.864681641790073,-17.021069389442502,-11.837710511474915,-1.0238306931638643,-12.083982174548161,1.411162712053219,-1.0532312118783427,3.641092907209927
0.328,-17.140136663883347,-17.791437026532186,-12.753350030611404,-3.2609229387647733,-11.829269753797664,0.6026157102355647,-1.4322733150771327,3.9082320224830402
0.332,-18.928887522015145,-19.121959237727765,-13.677091605130403,-5.931480798539783,-12.424111613620052,0.33777047355256506,-1.86447422165765,4.596418291312003
0.336,-19.111589449690563,-19.94364213561291,-13.999704602614086,-7.782227575041384,-13.26323396482275,0.39791726246399683,-1.902522198418927,5.214795319301645
0.34,-17.416603895513454,-19.52342101276043,-13.680029607215516,-8.04379566742726,-13.913715198694735,0.48677799125543064,-1.4266267264138746,5.212546232357859
0.34400000000000003,-14.609935343505049,-17.91044144939775,-13.281514051798094,-6.848440499462029,-14.43759174712957,0.3633313790006909,-0.7338822585866449,4.201236586007323
0.34800000000000003,-12.057968883876786,-15.884215327658413,-13.5754720729493,-5.110364256780126,-15.328238798205758,-0.04563621796406192,-0.3361204363058121,2.2072898959811553
0.352,-10.93871733372791,-14.44375113765879,-14.978117014806095,-3.958841786945216,-17.11081582803903,-0.6160929337307879,-0.6144887974778204,-0.21157252530394466
0.356,-11.603211064329239,-14.183020768038755,-17.21597330438772,-4.08478567645817,-19.896435797732703,-1.099905418292118,-1.5677188225575938,-2.1271824240808943
0.36,-13.468452397601562,-14.973055835668278,-19.472462696932602,-5.402245125875293,-23.22352796739332,-1.283322057276211,-2.8308586625038767,-2.6630559181054885
0.364,-15.464055614243623,-16.12129086101853,-20.91353843480955,-7.199717533395011,-26.281529782116323,-1.1373446060534316,-3.935687640601752,-1.4784284599868314
0.368,-16.722693478385132,-16.861278441898918,-21.23171830479216,-8.646582497694748,-28.352474031959648,-0.8714863843137106,-4.619405552066014,0.9683388878381223
0.372,-17.04780686193408,-16.81189254944063,-20.82103368747153,-9.29728193288495,-29.155360318323343,-0.8411720405152932,-4.975819542079201,3.572715488803001
0.376,-16.897140265377573,-16.121217659455358,-20.455825417338698,-9.281005810943004,-28.87495474057614,-1.3583475318140068,-5.347975280038057,5.107420999658765
0.38,-16.94291148491186,-15.257844989395112,-20.70954259848414,-9.099499526333563,-27.91154075994162,-2.512959904808388,-6.0326930516376365,4.8482436999487835
0.384,-17.533628448462316,-14.624918594344877,-21.511538681837386,-9.210967437097615,-26.55707846006789,-4.0999889101881335,-7.017658501794957,2.9612822061381174
0.388,-18.422807533446186,-14.267381191600606,-22.149119233197,-9.705550252297595,-24.83728962513046,-5.694736039498771,-7.935958783025365,0.4312681061885999
0.392,-18.94346368285967,-13.863900650188452,-21.72772352472598,-10.294735203283675,-22.620960406279796,-6.829582025520187,-8.280375933624853,-1.4446573313804016
0.396,-18.493643595449296,-13.00382371041226,-19.800644909908208,-10.602689179684868,-19.90242562436114,-7.19234601564687,-7.755853001784157,-1.7495293594502126
0.4,-17.017015838271732,-11.587427102322868,-16.789477287169966,-10.553093089492773,-17.06725762326413,-6.759553140715536,-6.561126906468534,-0.47495059311872634
0.404,-15.150972653289458,-10.052023937477783,-13.894139059269005,-10.546032888772114,-14.893730370482148,-5.799003296315179,-5.400108491871322,1.4167969405215208
0.40800000000000003,-13.918026519614356,-9.224414944418765,-12.495753445877787,-11.25830293380643,-14.214665629248096,-4.740088765754753,-5.166105379688551,2.466662976984283
0.41200000000000003,-14.128320455374325,-9.839025324527519,-13.379227923011523,-13.165500342239783,-15.401997359363214,-3.974469638158964,-6.4516395947554495,1.4987696390463228
0.41600000000000004,-15.853661129877256,-12.011217496408761,-16.235741734127576,-16.094880031409907,-18.006039199730104,-3.6825458429309217,-9.174125818998327,-1.7087585571726498
0.42,-18.31317813010465,-15.0315057991785,-19.768146993440073,-19.14147284760495,-20.838340556321665,-3.7746768291866895,-12.54272429689788,-6.220532561041535
0.424,-20.278941389683492,-17.650042865864663,-22.353638717922408,-21.068338396693484,-22.51135796338749,-3.9754607473001338,-15.411674375315364,-10.340899891655095
0.428,-20.735110571560433,-18.68385274030763,-22.876581528875427,-20.969246772814053,-22.145538601508477,-3.9819317353643733,-16.834116140316834,-12.400672729337172
0.432,-19.41059870696728,-17.597731263314593,-21.25835589830668,-18.80103152276397,-19.825814778067915,-3.6135855152846963,-16.521365552607524,-11.532449991239574
0.436,-16.91068395744452,-14.745998937741215,-18.412953306116236,-15.463211755299927,-16.553484112176566,-2.885970820887355,-14.967772661389862,-8.062514001551381
0.44,-14.388834159885327,-11.174079658706892,-15.710703147117895,-12.352937904972855,-13.742126345656219,-1.9879842440083304,-13.182906108145701,-3.3373721734346717
0.444,-12.958955069644828,-8.104061685176458,-14.271039546203834,-10.624226758145864,-12.53113849866626,-1.1904439826361588,-12.196018840833126,0.901801668543603
0.448,-13.182551050861223,-6.385159039580021,-14.472705860354889,-10.573666573838635,-13.275210927674022,-0.7373607986051822,-12.593262616648662,3.2834551013276982
0.452,-14.862462747167687,-6.168902146370831,-15.88582450154997,-11.494284204830553,-15.441356643519448,-0.7546431133670706,-14.30968471426289,3.3532608348452966
0.456,-17.181928194551848,-6.92565763904597,-17.57996712951754,-12.06200679192087,-17.91332250879852,-1.198526430365746,-16.749773605198335,1.6727248976235032
0.46,-19.104207243679856,-7.791742889987848,-18.616804538289802,-11.059624598159857,-19.5447921280281,-1.8738482942777397,-19.13855593023205,-0.5503889315076833
0.464,-19.80916412697367,-8.028535922701465,-18.444464462296715,-8.044679787391443,-19.65413098569681,-2.5128265710493984,-20.88795726482832,-2.0856391647117976
0.468,-18.94899388968768,-7.335420848730038,-17.02539293841881,-3.5940558830311065,-18.226132879072832,-2.8670960502948484,-21.777412414615995,-2.2191466848244144
0.47200000000000003,-16.66108548185406,-5.879424202870213,-14.701537005415792,0.9913526559148432,-15.769303668182928,-2.773324698178109,-21.873426376366837,-0.9516389242366214
0.47600000000000003,-13.42175884961292,-4.100263724551377,-11.966769727813839,4.325144722638187,-12.98396079338502,-2.197809750267036,-21.317126153610605,1.171366657262364
0.48,-9.884461923932772,-2.489417123986322,-9.328287831298844,5.543189125759301,-10.48121865615822,-1.2567126134436308,-20.165546100034014,3.4317284281187908
0.484,-6.772113526907482,-1.4546574949410624,-7.27540482083491,4.5823746127108755,-8.662513033040238,-0.2081050503478119,-18.41587792590974,5.279376864441836
0.488,-4.80354764484462,-1.2891718698778618,-6.2836551882620295,2.041725668868902,-7.7422568949007875,0.6035758992360125,-16.184399176128256,6.47382850416321
0.492,-4.54761835218673,-2.141935544138679,-6.711552778289402,-1.198745732131199,-7.77362530031543,0.8486341870045901,-13.862056741074973,7.012524829352934
0.496,-6.200837241302368,-3.9391086730027522,-8.586880742687821,-4.3462757718975675,-8.609771298260455,0.33349836129560995,-12.095060279053037,6.9534234589439095
0.5,-9.405072260141687,-6.322535798608245,-11.43830603619448,-6.875578298836873,-9.869397523752408,-0.9061633159121889,-11.541332509558096,6.283143143907229
0.504,-13.234930091613307,-8.658853784974447,-14.310758139151813,-8.477108310315472,-10.966589747711762,-2.593662751702435,-12.497231466020462,4.941053725789239
0.508,-16.43974578554616,-10.186903763495557,-16.04621080846119,-8.897658537286514,-11.26058171056656,-4.283534659770327,-14.612415250940852,2.9962444538745725
0.512,-17.893584750252515,-10.282405577821283,-15.750369616455071,-7.863486454602495,-10.299826450296074,-5.501768584380354,-16.899414536524866,0.8358952505440937
0.516,-17.08713919636323,-8.740188570890986,-13.22342976542728,-5.190293813335462,-8.051834146040589,-5.908475802263526,-18.112251008247313,-0.8107309521868294
0.52,-14.411889402035202,-5.952625461603711,-9.14020188496858,-1.0200616862206362,-5.007307580853143,-5.4228998039368355,-17.349036863552247,-1.0997028051219064
0.524,-11.036508565018885,-2.8348772027360445,-4.834305838984243,4.011119405614926,-2.0471001513752025,-4.255834137198593,-14.560110567778821,0.5251836361107163
0.528,-8.412053402299783,-0.48765933011429996,-1.7584906049012865,8.833397412715103,-0.10622971010351367,-2.8301248141078013,-10.673366163714501,3.9672644668613417
0.532,-7.604477592679418,0.27491145470651956,-0.8731287858470642,12.277580035834346,0.219482970607908,-1.6096089135843057,-7.23173273886938,8.384193869920637
0.536,-8.773023992883896,-0.6847603089987986,-2.247273441357459,13.560358222402556,-1.053790786940235,-0.9107871125686244,-5.680144743696333,12.476530189587189
0.54,-11.100730442195545,-2.762016580617408,-5.07620481725378,12.644704121140133,-3.3108428375336643,-0.7920835651707692,-6.65591472996153,15.043693916814
0.544,-13.2105507347751,-4.904456683630846,-8.08022454394516,10.274354409321974,-5.615632139419083,-1.065649420468021,-9.654140388644667,15.537342569325165
0.548,-13.857420683393306,-6.1203492028572875,-10.075119189802464,7.639589852891403,-7.113655253092791,-1.4251586096167783,-13.243867336436583,14.324031036575535
0.552,-12.552333401724436,-5.927874516335997,-10.413951261849158,5.834075960944627,-7.345098054677859,-1.6175248949961745,-15.719744257470694,12.509678037523583
0.556,-9.785640578456523,-4.511823674908455,-9.116538316942007,5.387364165363974,-6.331344253831091,-1.5705258585544877,-15.873183277103866,11.399326144609006
0.56,-6.738269652460036,-2.5525269052052026,-6.705763860760835,6.10639321450833,-4.452777632227894,-1.421160840180419,-13.50772621311352,11.86012725829391
0.5640000000000001,-4.663338778893798,-0.8492375693686434,-3.898426590308672,7.279088873014631,-2.2184315652569975,-1.4311531587836064,-9.45746847820484,13.908662588975382
0.5680000000000001,-4.2578120654366325,0.06400921782150348,-1.3168320440226857,8.11310716246127,-0.04489653391856052,-1.8296887995981628,-5.1276579768317845,16.73899142506263
0.5720000000000001,-5.346430851858648,0.12294955789063966,0.6544355785351468,8.158606281111862,1.85822310474226,-2.6643917967755577,-1.8179889524929358,19.172171136706375
0.5760000000000001,-7.0164041446659144,-0.3099473886480908,1.8747881404006175,7.499066465280529,3.480335913422824,-3.735180260408223,-0.17067053349728312,20.276513045447953
0.58,-8.134062846233654,-0.7148671594525391,2.358236609091219,6.611558356646168,4.891569197171407,-4.65623056709541,-0.0037818566460217085,19.811635404789925
0.584,-7.968592933394328,-0.7495269561782951,2.177876392260996,5.999316612413701,6.092822826502468,-5.0440900325516225,-0.5773238407882983,18.245041875474428
0.588,-6.593203045909271,-0.4625002738189732,1.4184726322510968,5.823568617406065,6.925780614116357,-4.733249322612676,-1.1011810549477312,16.370517292366472
0.592,-4.825871496004128,-0.2469741430982384,0.2019320299728159,5.7827830783693,7.122938280607315,-3.8791197971216924,-1.1666719528228575,14.80483835720862
0.596,-3.7544154825785077,-0.5689162042388134,-1.2645629532669136,5.308743111173861,6.477168405212923,-2.883103025001727,-0.8747271571507919,13.671699267171705
0.6,-4.108783483517426,-1.6554115439121442,-2.692072222746189,3.956970488270297,5.017661165117628,-2.175278550806694,-0.6373062921338314,12.647089610557778
0.604,-5.802769433117107,-3.301077290806858,-3.7598820835838778,1.7730307481705925,3.102793594322679,-1.9579868884038154,-0.808190951119369,11.318983855856487
0.608,-7.933629468046076,-4.92669511156042,-4.209564622217787,-0.6172981270535978,1.3410289798678923,-2.0527489966783667,-1.3969040515945819,9.60629666069432
0.612,-9.256544524810348,-5.856573612442841,-3.9252654563776472,-2.2765236600254903,0.35708098060930693,-1.9577514262535807,-2.0373237067279173,7.929508843078953
0.616,-8.846955815115837,-5.646663599427866,-2.952803613530286,-2.431693750971287,0.5131516394408546,-1.10799369956993,-2.2115187829404186,7.008620025364271
0.62,-6.638075175195903,-4.348734833585869,-1.4990541578547913,-0.9342571160999245,1.6757408255490276,0.7689677359638291,-1.5941957126372008,7.376844816667216
0.624,-3.55408547608886,-2.5651737317982297,0.09569403728330461,1.5526862038617038,3.1761101009919,3.379584960439403,-0.28820145675303444,8.916987107048005
0.628,-1.0787129488855491,-1.210832505178863,1.4273941116253819,3.8027695145440643,4.0518508098668775,5.871136250291432,1.2090228672268966,10.763418796350823
0.632,-0.47568881442894373,-1.079385456564248,2.1537549580815583,4.611599126765565,3.507645463468833,7.164358017838945,2.300084970056317,11.684980543028491
0.636,-2.0622988338468096,-2.420532591615963,2.136606681825873,3.4321939572037756,1.379675548944089,6.472969803167624,2.6689250869434966,10.769205319103015
0.64,-4.973222501182199,-4.784016212566879,1.5218633741913372,0.6997197193098916,-1.678753103166386,3.752579094757429,2.4934571637131,7.999817719780382
0.644,-7.590467729903878,-7.234309821029457,0.6987346129164109,-2.353235688758536,-4.436170670719054,-0.18536910603472023,2.341153728437349,4.350288023485967
0.648,-8.438175590920594,-8.844501333903516,0.12198136497694456,-4.3269456250535665,-5.670428636796874,-3.995919908807321,2.787494233109344,1.2983278065460873
0.652,-7.059373579093036,-9.201562308737657,0.07889479049598691,-4.407953987939031,-4.810461462915288,-6.416958702669741,3.988863245565457,0.01066934817194376
0.656,-4.360705083439704,-8.635060506848824,0.5223518828408249,-2.8336052849827666,-2.280754918019724,-6.882718798224743,5.479850010343187,0.6602334010003403
0.66,-2.181568015204361,-8.033101138440177,1.071083315186776,-0.794583499566917,0.6545070705083305,-5.799967744872225,6.349558365942395,2.2908912089010727
0.664,-2.2586034085100373,-8.314222092897033,1.2114580000321902,0.2171416631002927,2.5095617221972315,-4.3120911945460465,5.735857639168727,3.324887344963752
0.668,-5.142931899073947,-9.847322841475714,0.6074540770398866,-0.7203980913951988,2.3446165496345293,-3.6628251238784344,3.3596377779382687,2.435959405248102
0.672,-9.690408238474546,-12.133715503610143,-0.6372813756210052,-3.332624584107927,0.28819044238072866,-4.482577378752264,-0.2081340249684871,-0.6901077816022037
0.676,-13.48129632396774,-13.960646644702571,-1.9411334131685625,-6.145247354279556,-2.4873707510284717,-6.391987892074273,-3.7200835965517554,-5.147104036575179
0.68,-14.025470040732777,-14.012305086473326,-2.49834657188977,-7.165899616989807,-4.362776684402183,-8.171894769777163,-5.82052099016107,-9.286509055977081
0.684,-10.141592725732089,-11.62535267918017,-1.718714954307301,-4.92500097603761,-4.133234403508137,-8.438017685796506,-5.726413523202745,-11.611528155155217
0.6880000000000001,-2.7411044892009673,-7.267934694608833,0.37109485642364426,0.6665273546404911,-1.6746356182375948,-6.456707181558464,-3.654772196076637,-11.570655427377105
0.6920000000000001,5.454176680052288,-2.4396550348159662,3.022896296834892,8.11449113111551,1.9646652877526107,-2.6392553328067065,-0.74302545878899,-9.79490661569805
0.6960000000000001,11.165206537715505,0.9917258906741061,5.04370643415308,14.933503407136644,5.098960964733349,1.5781546661167831,1.505651278618482,-7.670290584819757
0.7000000000000001,12.1347110303498,1.6576818538492912,5.311094999445695,18.742797226399404,6.249787573048263,4.430014176557997,1.9543571084781428,-6.524750978073169
0.704,8.181525204112475,-0.6884267075869475,3.2965703975120917,18.31695833876132,4.858162685368825,4.723876215464773,0.365479596696495,-6.920952810017865
0.708,1.1907752313808988,-5.106113262534448,-0.6612483563417664,14.076490427298653,1.5054936041308178,2.458563896132538,-2.5190993783559454,-8.447300549049123
0.712,-5.918117649222726,-9.968826393465921,-5.466135356371611,7.801953662849923,-2.438726725109457,-1.1806986365742305,-5.387764936140595,-10.091421837117839
0.716,-10.65704216732296,-13.732014685562481,-9.685264134191677,1.7595661781735101,-5.505227737731988,-4.452298760985175,-7.0206729394265945,-10.925099751693146
0.72,-12.063051078036384,-15.576423405802252,-12.098362282449125,-2.2917633903731076,-6.782037756720218,-5.9717845193788825,-6.85668239135411,-10.667842507875239
0.724,-10.881174648692463,-15.615116546255171,-12.125342440577983,-3.7231314247298126,-6.213472571733396,-5.40267261362064,-5.186231975399615,-9.80236880649494
0.728,-8.835922958135024,-14.624941763219589,-9.98412606604814,-3.049317012350153,-4.455563054857013,-3.5528317796078017,-2.9098845849929953,-9.203913353294336
0.732,-7.482752452048468,-13.502031101651319,-6.537270333853576,-1.4171431680291366,-2.4186903458545856,-1.8312801469750164,-1.0281944133085936,-9.533534529731348
0.736,-7.353380044255929,-12.779303903955682,-2.929596967581626,0.07233212602530159,-0.778233480378022,-1.398038307838699,-0.15529812730750336,-10.794854834964227
0.74,-7.861971251817257,-12.473141526151371,-0.20269825952867326,0.8182654058970407,0.26984885808346526,-2.5093531499982245,-0.2973916896429629,-12.333332784254297
0.744,-7.933686519016397,-12.277568986979597,0.9892183289447121,0.7724537030816192,0.9365528547745612,-4.432757068388432,-0.9809481921070331,-13.261380001756113
0.748,-6.867218885349343,-11.907359298193306,0.50540118879644,0.17945300256114916,1.569965724757811,-5.950587258959979,-1.6144975724790536,-13.024946252422865
0.752,-4.8544828013184755,-11.335493576263406,-1.315944678617642,-0.7413968229550711,2.3856004515422486,-6.129454426461214,-1.858305793819628,-11.754917077892665
0.756,-2.856223653592891,-10.770403961615987,-3.80394650646469,-1.9338058743623927,3.3534835317843825,-4.893791004825494,-1.7924905990671807,-10.191262204274809
0.76,-1.9562880554126032,-10.444206515969205,-6.190443897874463,-3.406470928207664,4.245899597242021,-3.052766173385361,-1.8272453167580274,-9.240243575164966
0.764,-2.648712916592037,-10.38224680731767,-7.849823501504948,-5.013674962070491,4.784649940333484,-1.78274735930208,-2.4133852849806225,-9.447511552277332
0.768,-4.521601268390818,-10.323646160279562,-8.468192242256272,-6.324639413765771,4.780837016005662,-1.892850469997486,-3.718259037856249,-10.696094916058954
0.772,-6.5121118091302685,-9.845883939577682,-8.102765541070324,-6.727365244185982,4.1915581325851,-3.3123990798133174,-5.464455863921704,-12.294429746781308
0.776,-7.5325164019911615,-8.595337762554415,-7.0840419349583135,-5.726199638249911,3.1150951807941447,-5.107947812927568,-7.0101485586164625,-13.374516442504998
0.78,-7.061384452380278,-6.492027930966429,-5.81685560475967,-3.267448034437014,1.7511443160542433,-6.024699162187846,-7.634400196785237,-13.364252625215467
0.784,-5.3445074965099035,-3.780030202819751,-4.5799612504098945,0.12064818721980153,0.3661266335962141,-5.220960235055667,-6.883593248382232,-12.266578820925224
0.788,-3.1420983271099017,-0.9173322332582803,-3.4330196038520047,3.4780470492539113,-0.7457647680569277,-2.7506151713843563,-4.802037050729644,-10.603975368972085
0.792,-1.2241331111569353,1.6177102125924856,-2.266535105005886,5.7983837893112335,-1.3143501702748166,0.48852502298774425,-1.9283707497420544,-9.090562095692189
0.796,0.03420614484951656,3.4962114227116445,-0.9381206151593684,6.456118150153355,-1.15181251701428,3.2937928149291342,0.9517771056536333,-8.233003020625496
0.8,0.7017516727209046,4.584547306130621,0.5757243852508362,5.4386000148996665,-0.23248120665780014,4.8351620308151295,3.1600883498975776,-8.09619408256628
0.804,1.0281443532749934,4.895513625722565,2.106448042200531,3.281477375411299,1.2534723767740115,5.060233061160704,4.408423123435785,-8.349766895050903
0.808,1.114823161394356,4.5170982171722205,3.3518601292606345,0.7619686613126806,2.929115475604277,4.601775296011837,4.866539707508343,-8.532711505737247
0.812,0.7758443276397875,3.5829695553028538,4.021683083473913,-1.4771654470823794,4.355878578603219,4.273901062787692,4.991999258737177,-8.357834698921078
0.8160000000000001,-0.29249852963958234,2.3125891075734657,3.995860334281726,-3.1644999764581065,5.224749071661169,4.508160285934463,5.22896482497635,-7.868909178373237
0.8200000000000001,-2.159814639436631,1.0448697451462907,3.3913492786498147,-4.3923037136336305,5.515636587950764,5.103526262327086,5.751062511557357,-7.36605630715877
0.8240000000000001,-4.421221508978682,0.18727539787918346,2.5024700507710134,-5.412883185860862,5.531435383482405,5.433468075542288,6.40640107860574,-7.17253824398769
0.8280000000000001,-6.252604188197153,0.07963461513167164,1.6650539267705537,-6.372936720430543,5.778439650089982,4.971378438342006,6.887922603862854,-7.3949960421081675
0.8320000000000001,-6.754322493191468,0.844886127298242,1.132244857180499,-7.144139179206736,6.739155452380029,3.7708155043693528,7.017930087146201,-7.814466582430999
0.836,-5.414468917162652,2.3098359891893594,1.0193516370518267,-7.360930016680721,8.626408518223531,2.5492076056122945,6.933524430559899,-8.002850494813375
0.84,-2.4454184465865794,4.008538398605602,1.2702918158113192,-6.677319633979456,11.183656292029184,2.264475006300496,6.992635082501035,-7.6346932781440024
0.844,1.2107236273108768,5.278638022127225,1.626270731592534,-5.090391424960771,13.63110198733369,3.4220594480797697,7.426951888490976,-6.828041191727724
0.848,4.207957950446744,5.403034421430444,1.5880271327940818,-3.148841141717657,14.802321938465312,5.548245644279872,7.942812812148375,-6.313580045226043
0.852,5.305417620599034,3.7762917927298414,0.45038710701483,-1.8802508305078405,13.487165805551044,7.205601933712268,7.581744824456319,-7.280647387774838
0.856,3.853964616173794,0.09881208991869528,-2.5000249494081643,-2.393782453831797,8.917913812914676,6.626416126684763,5.038380556765311,-10.898106507194202
0.86,0.06625953865138534,-5.4481767637735965,-7.637733864925387,-5.3134516657981,1.2152815768524352,2.6772164761194617,-0.6418724508830644,-17.69962216730092
0.864,-5.014470423365105,-12.08248392416423,-14.604738775535779,-10.301938206452768,-8.38748186621878,-4.372335164625714,-9.306856574610213,-27.111058862201546
0.868,-9.830890575569612,-18.448876950844458,-22.10042897685757,-15.9578083373117,-17.708163287397028,-12.728911115735947,-19.328956045973804,-37.37392259861993
0.872,-12.791622388985646,-22.86913249683773,-28.07546639160477,-20.211433757706672,-24.20479292844884,-19.717433602055067,-27.929229040105575,-45.97656945230189
0.876,-12.783573915080051,-23.823473112004542,-30.381397223307296,-21.11499197936927,-25.827746666016743,-22.91021801652454,-32.161905903851704,-50.47034894160601
0.88,-9.583311517309063,-20.557599902362067,-27.678206651641105,-17.71398516189929,-21.83852361352801,-21.19284035381094,-30.150342718329775,-49.35986928473261
0.884,-3.9926946402120764,-13.536948846497463,-20.168151891725106,-10.566313206471772,-13.22341872941495,-15.23133618842336,-21.96278245021788,-42.67319195703405
0.888,2.40319088453814,-4.479291066739525,-9.749414000755888,-1.6153302667068719,-2.459822419936403,-7.123257789532236,-9.674986557358164,-31.94930612192283
0.892,7.810957502234314,4.158817446274316,0.5858213635785487,6.578465238651983,7.342989454729904,0.5756914269522726,3.441783660192442,-19.63579421320822
0.896,10.939612296890157,10.115828958593848,7.935258066086348,11.919860409801043,13.63095204014539,5.9539578284365,14.245623132141537,-8.15860717330294
0.9,11.531770819852944,12.255502554936163,10.69070594363745,13.651111026784491,15.384328005037405,8.436114143265307,20.920724311298578,0.9112418494959602
0.904,10.445535587257002,11.031555065428766,9.159303874418484,12.589043672895688,13.433478775859239,8.761192498360039,23.464814112415176,7.219781643575194
0.908,9.177794243945257,8.203388242931636,5.287485015385684,10.586597040874317,9.95699820544247,8.333454933428078,23.297446851522068,11.401622985311867
0.912,9.034039068606486,5.911843488524604,1.6257334319382877,9.500358274093522,7.394592841517988,8.347495398431843,22.27003200624807,14.439748920939437
0.916,10.383377390657188,5.588024976770978,0.08648817523122831,10.224267525227512,7.308704515837291,9.165875861232331,21.65491821407136,16.999386461936353
0.92,12.415684903239237,7.249489472380332,1.1222496331262848,12.29045562159434,9.727810748024426,10.24437107952703,21.62717704936025,19.09038850206413
0.924,13.59091967920882,9.576391419341203,3.737343656804417,14.25170617808233,13.286470794625886,10.594939470274056,21.46062895298218,20.203918585903576
0.928,12.55849267400478,10.720153830900426,6.251555087920363,14.602799311770735,16.038499763701882,9.47515300070768,20.221303447248847,19.787645824542597
0.932,9.032237797797134,9.390197354614772,7.325509351679297,12.70058419830476,16.491705112467784,6.8883785984652555,17.476317248333373,17.73104808480812
0.936,4.135850840996399,5.644614392681801,6.685252878666515,9.178819112675834,14.357111421980978,3.6316569092725404,13.614139211757061,14.561100106959412
0.9400000000000001,-0.06176661669225636,0.9075526796175619,5.147550697923731,5.602509902236869,10.619417900416156,0.8718494259823767,9.614246858124442,11.221009757154604
0.9440000000000001,-1.6131334578950365,-2.783851974757185,3.997691736422735,3.5647157630359203,6.935704593307541,-0.48577120182231315,6.452573887386556,8.569994347444648
0.9480000000000001,0.22252962972236823,-3.8684112263204997,4.165258998153178,3.761364698852767,4.73838345013386,-0.2677630458796174,4.564116631162168,6.92667100595815
0.9520000000000001,4.483094434365787,-2.083586712667758,5.69951285627728,5.576011535909775,4.531352284327809,0.9082168904869204,3.692568302005931,5.933787765153628
0.9560000000000001,8.929870256503438,1.4529540062953377,7.847308071370572,7.425628550043565,5.752088030037629,2.0085994889476457,3.1856348865215356,4.82260157339638
0.96,11.174413122746952,4.895374180004638,9.59648643076307,7.649941877904272,7.189552126206878,2.165889506935714,2.495776504915055,2.911747457282816
0.964,9.91033692786687,6.6697255115057565,10.311724720005817,5.445137735931682,7.686190186252012,1.1416066039008004,1.548854711177741,0.04459994633993869
0.968,5.593119622350333,6.249709897153034,10.051331058751202,1.3161406870184527,6.718339809810885,-0.5743577156209542,0.7422671016928879,-3.2933650286532132
0.972,0.20561223295747366,4.302488143125586,9.395558940463633,-3.1886392450397283,4.559197046111116,-2.063228875332214,0.5925370410392641,-6.225242056205571
0.976,-3.7506343615567093,2.192597318916902,8.969249868487793,-6.282169176684785,2.01401070985246,-2.4781374969350285,1.303366069282566,-7.927557507507808
0.98,-4.49136822351992,1.1696337684722562,9.012036178226477,-6.827118614970496,-0.06651185285234318,-1.4662140501148766,2.562233270247812,-8.004023321012134
0.984,-1.7708846475202553,1.7243502175393841,9.29336872342202,-4.827872231091209,-1.1842820613808502,0.6979924339150783,3.707665479697903,-6.60067778505194
0.988,3.1020972019043196,3.4363191502889574,9.394312364027277,-1.301602609338186,-1.3079205898528734,3.3104673359730494,4.1563658893792335,-4.240256450489105
0.992,8.000397065350143,5.328619441889386,9.117441615741459,2.3338334989879375,-0.7079196183767253,5.624205823113576,3.7995655770707963,-1.5268870418844354
0.996,11.018545088490844,6.467154695548199,8.713565941638855,4.977957135467172,0.32457436983092514,7.190075708564723,3.1068509525412837,1.08340424560371
1.0,11.263310821723483,6.410861852746892,8.719623978312042,6.264156010182871,1.6428310656100518,7.968982550782775,2.836641644476915,3.3151957032760206
1.004,9.058030815997707,5.293701416248691,9.520448924943421,6.514220081436733,3.2009074051134947,8.190097439021168,3.5240684125103092,4.939233944878349
1.008,5.545117977983554,3.560744908370131,10.946726944612958,6.337435632376569,4.867934023298597,8.084038213819985,5.071118335669471,5.633238318505123
1.012,1.9945642964211183,1.6038254444189528,12.228264044354876,6.172518274244645,6.2835525470906415,7.683018599088531,6.713386222749087,5.0040744920881455
1.016,-0.7667246523696423,-0.42858612368544646,12.396273009489008,6.068357662152251,6.919847632539968,6.81442411128206,7.392080371641258,2.7942269978211263
1.02,-2.54822518205473,-2.5628460858272195,10.884289969258155,5.791561090863627,6.327168692906965,5.290375116664004,6.3152849404246325,-0.8461032019888481
1.024,-3.614011286918256,-4.764465763282125,7.950303596763902,5.123683716759703,4.424912876984898,3.1516686937472653,3.3940127876109463,-5.223090459331347
1.028,-4.320769972168376,-6.755452204142125,4.6316487878316694,4.116618654184771,1.6421388964230825,0.7785180814911257,-0.6945171064498141,-9.247907191209212
1.032,-4.83441548374774,-8.06125234782442,2.22463180949138,3.1154630782911354,-1.2201630841001028,-1.220308530255874,-4.851705248566477,-11.853972606478504
1.036,-5.050747219334674,-8.2536196903789,1.606014411828152,2.559494708419093,-3.329097483628771,-2.277642604422397,-8.077055262430509,-12.464550482920489
1.04,-4.71118983082731,-7.2281409703089095,2.8044833053718197,2.714006770212876,-4.181860318023659,-2.1477544138150138,-9.866234788033216,-11.254404326825071
1.044,-3.599397864427084,-5.318784165749252,5.067626430378059,3.5161037030221785,-3.7886845445837016,-1.0427727038948253,-10.304076219342996,-9.062128273661209
1.048,-1.676875625935518,-3.1596929909901004,7.357778719531547,4.6369293789494215,-2.592192997048912,0.45716173245305747,-9.848889911404523,-6.986674726707403
1.052,0.8806623707274734,-1.3821046476410812,8.932994856892734,5.692034140082583,-1.199117996461493,1.6669550497591974,-8.995451639497329,-5.886913455739338
1.056,3.727482078224963,-0.3194284836736323,9.656572251382853,6.451370791452547,-0.07888132864384056,2.08957064713852,-8.031900512944164,-6.040967461876198
1.06,6.430364487305425,0.09561578199995946,9.873187993355426,6.906946060126851,0.598983104645193,1.590279307180094,-7.010693699297673,-7.126933066599108
1.064,8.543064583671624,0.19413993801030927,9.987569350983325,7.166071118483618,0.9280603089063186,0.37536678748983743,-5.901271492321483,-8.515243279293873
1.068,9.667678759399863,0.30506352698929096,10.072400825525877,7.271050079067011,1.0957330742405853,-1.1852700273847288,-4.7643079615662245,-9.685287678039993
1.072,9.523272207137431,0.5419655806504675,9.800753899766285,7.095517735783211,1.2254777033154127,-2.7698590080424808,-3.8070341142426587,-10.515344695906808
1.076,8.036480471278178,0.7922525565046499,8.764602313406083,6.418254819663797,1.3526893239784954,-4.225588962834189,-3.2820675669170223,-11.289868740705737
1.08,5.408294075988632,0.8800828853488696,6.922329414909113,5.120530994085886,1.5081576704469555,-5.551427759400953,-3.3090854922520956,-12.442885689744832
1.084,2.1070701201289523,0.7676193488945344,4.837198641744854,3.36491642453036,1.8203391264617395,-6.78095480783955,-3.770754811026066,-14.208073424898378
1.088,-1.2521089198132254,0.6163898091579183,3.480598980559922,1.5987095823247337,2.5016969781993836,-7.875713679743207,-4.373078830693747,-16.398683910090362
1.092,-4.112968242502591,0.6448550787336078,3.6613123967468937,0.33161385478755,3.682663438949092,-8.708469711917012,-4.8383131747827015,-18.457916535926522
1.096,-6.163179265532704,0.901473224533679,5.45026453689283,-0.19209695841259578,5.213650170816733,-9.14215531227822,-5.102659584059972,-19.74287394025106
1.1,-7.415477757687331,1.1169157117493342,7.979275546262086,-0.2258302845193585,6.575509340450187,-9.153267477366729,-5.373640886864276,-19.87513605373839
1.104,-8.160287364439522,0.7689884294005127,9.787503940682361,-0.49455281143508056,7.0022458904574165,-8.912416497749089,-6.008786812800512,-18.96097751977843
1.108,-8.795335854192212,-0.6344577784529184,9.559315292183602,-1.8669083566865776,5.799170375288281,-8.7420918714168,-7.282002210535175,-17.545271331051946
1.112,-9.603643625391006,-3.207812941767323,6.840238079025545,-4.869977519013301,2.7077554874533365,-8.96338351010416,-9.180937360203194,-16.325613525321124
1.116,-10.594765033354216,-6.48259012960123,2.324561858487439,-9.304043738132469,-1.8782389004268962,-9.709752141840202,-11.365966849885458,-15.7805902329218
1.12,-11.469728431798117,-9.497345338691213,-2.460962421849086,-14.178268558512725,-6.9915565146045795,-10.805442116685994,-13.306310287855684,-15.915398710462734
1.124,-11.708727784939526,-11.16090625286529,-5.90197379450971,-18.023166552537198,-11.445532480771597,-11.796742909270419,-14.508011519052458,-16.267888448798416
1.1280000000000001,-10.76324648639007,-10.715099466009868,-7.038166277469275,-19.463337430771993,-14.284054298307888,-12.140830164147697,-14.707494843741188,-16.1738138310876
1.1320000000000001,-8.294477355431834,-8.071573769687504,-5.927760011005425,-17.80452014170136,-15.12656625812682,-11.467295450627486,-13.93728184918076,-15.155510188400921
1.1360000000000001,-4.380479637105397,-3.8544639137164696,-3.4724467058345834,-13.370069506920457,-14.246763497544524,-9.793950198400854,-12.454093979289958,-13.232903973372109
1.1400000000000001,0.38587901683207626,0.8557999652651627,-0.8551443447328229,-7.433203374947834,-12.36763270787386,-7.5770664765877145,-10.590077641351957,-10.973067120675932
1.1440000000000001,4.9896377268404954,4.947423037841746,1.0630337444499505,-1.7642137443021464,-10.292756973308245,-5.551151811250018,-8.6218461200986,-9.24560669169931
1.1480000000000001,8.25807267836454,7.657121866073319,2.0653631189275057,2.004475832097119,-8.56161627048851,-4.4287821625413635,-6.711064415274494,-8.801136979537901
1.1520000000000001,9.260813012623538,8.76782789627654,2.513974074945609,2.956895331902735,-7.265877255750177,-4.577137621667072,-4.894218574795671,-9.871729454349659
1.156,7.702776377107311,8.588273822082352,3.023280967468226,1.192038232702318,-6.068799513006848,-5.82176303932509,-3.10020030332376,-12.005950425325778
1.16,4.1230133426259705,7.755153769977111,4.094020730542734,-2.2708066132960356,-4.402882968594103,-7.488797133482485,-1.1876549082756553,-14.231244929180797
1.164,-0.22391853109798632,6.971352630611406,5.910335158844516,-5.913892096051823,-1.7445767997204387,-8.67922644821101,0.995823731095018,-15.474973353062477
1.168,-3.8460639443340323,6.745201671000034,8.333910735606578,-8.313294096072088,2.1192584643824786,-8.665231458938118,3.5119275365172635,-15.049995815688419
1.172,-5.643004938398924,7.2092919270475475,11.011144548477077,-8.660197312954802,6.91652269825593,-7.221030107350803,6.2182274046525965,-12.967173891558385
1.176,-5.3725399529501825,8.08546710292418,13.488572757645354,-6.9973542603740615,11.88170617066547,-4.722818954121246,8.709535286233624,-9.914033730293564
1.18,-3.7212093024763533,8.802790467476331,15.287753887598125,-4.092110870409588,15.937689828065961,-1.9597316795428346,10.386935869669992,-6.907624547530926
1.184,-1.9093433890937883,8.739477448693773,15.971276357762408,-1.0249577599217954,18.035783249387663,0.250310301037441,10.676869024087747,-4.812830791462989
1.188,-1.0431459147851685,7.493277599451382,15.245892233092892,1.2884818671802085,17.53696386822545,1.4343054320728201,9.311420846437933,-3.973487988141631
1.192,-1.5472257373613845,5.081343580037894,13.115927410117543,2.435478019717503,14.493384746993339,1.640192208980475,6.5249327465899345,-4.128614162070214
1.196,-2.978464577351369,1.9804227090530941,10.005995388211915,2.570107762003852,9.696793271297135,1.3255166158767173,3.0507176773716655,-4.635451633671524
1.2,-4.3206393788036355,-1.034315811867976,6.722330795187062,2.205617204217526,4.420880503072967,1.0326883841801724,-0.12915659784091327,-4.853411810975743
1.204,-4.572368247566774,-3.1789229174717075,4.205934091156751,1.8928969746287443,-0.04301665750044226,1.0599302799264796,-2.183720299019254,-4.46235420947877
1.208,-3.2903490275914162,-3.9676421234655255,3.145962937374153,1.9652580035174694,-2.872317471888515,1.3223874940805578,-2.7741993210768223,-3.558613782751623
1.212,-0.7810037570642265,-3.3865332526989658,3.6457705348552056,2.472318035138424,-3.9863109310053186,1.480509136217799,-2.144254677299315,-2.495564574597261
1.216,2.1464880333337266,-1.8277024554492334,5.159380840927999,3.302527312932638,-3.9416478872811735,1.258107384319005,-0.9050172882488989,-1.585393444792322
1.22,4.676461579533054,0.14818744832032138,6.749114666722489,4.3602203546992975,-3.530528542748776,0.7349044193605647,0.35311834592405145,-0.8662693248765665
1.224,6.418641349950946,2.0811800329967625,7.56940608682599,5.652328755402493,-3.283872905525606,0.39963903575509807,1.3934963472897373,-0.08757807213770752
1.228,7.50653385138062,3.7532280497223414,7.303435647594962,7.211759501629163,-3.1696793447223,0.8967793503296349,2.4113891762195774,1.0844548256082942
1.232,8.331901282502066,5.139298827432957,6.3006469851883224,8.927413511608332,-2.6671666457146594,2.604050737470098,3.8226637466686473,2.7772835314557933
1.236,9.153570562478,6.255564282797669,5.357963433547675,10.440212020254684,-1.153441252373535,5.306798939748846,5.9011433999373715,4.733509187993017
1.24,9.868310206380308,7.030249784554255,5.277481698208575,11.223893648705726,1.6329817464161063,8.193772659209761,8.50471853035134,6.374738810459375
1.244,10.102408389063186,7.316436529559004,6.458889911513698,10.844095403441425,5.337150288750339,10.2149344379422,11.071128231908519,7.093975537769726
1.248,9.550981694996231,7.034980992453631,8.730190752701358,9.245843161196557,9.089419358000164,10.627489204258296,12.89170567618232,6.617646917410099
1.252,8.314019722783707,6.330467888393594,11.477545411547197,6.879185272391206,11.906327246011028,9.41928949136281,13.498596652860723,5.221072615188355
1.256,6.958779278616233,5.605321887478324,13.971777055770922,4.548657742846915,13.166552767939297,7.346298624356289,12.928693924588043,3.6706873143435965
1.26,6.2158673894829874,5.3621568463808185,15.686896522771253,3.0341951363941546,12.880755994391789,5.545003203087803,11.715705149052727,2.9125159067034216
1.264,6.503069572946545,5.935582845731847,16.450750992554415,2.700884406958161,11.62109634805253,4.9280061102295205,10.610208932072938,3.655665004666372
1.268,7.569941988083016,7.2528916706809525,16.372028354016656,3.3152918477305144,10.1502109149291,5.687226397404632,10.17521231580174,6.040915676557745
1.272,8.500856677234763,8.779731410883695,15.649062002250435,4.17008675645025,8.976278815638802,7.188847408682186,10.484359661520031,9.540984097517349
1.276,8.176528098952147,9.756424248473303,14.438001531901532,4.481065116601861,8.121210146533517,8.338997567848708,11.09241245085693,13.14046934912681
1.28,5.922895139199884,9.593312165652438,12.858823073250097,3.812045869844112,7.2143336650217,8.214391790481354,11.28337239007771,15.70790421968332
1.284,1.9772057456631167,8.207199273464289,11.08870844610545,2.288586686207002,5.826884420676592,6.605347873250749,10.445547113744551,16.394528555619097
1.288,-2.4969875061065356,6.10536246760718,9.424641138771713,0.5025334766945364,3.8186471650556175,4.1619950069970475,8.380061315632616,14.914949980755715
1.292,-5.891296405430684,4.155681374156028,8.215049205819774,-0.8278984570326668,1.4702904859576744,2.061410124728924,5.393174408506991,11.619090669895169
1.296,-6.898998141806985,3.170356366604203,7.6830096639624035,-1.2419223382424798,-0.6598697031871854,1.383861039922314,2.1537579559903945,7.354416038579115
1.3,-5.142479340706472,3.517131293195682,7.749544152626982,-0.7513299998206795,-2.0611868872662362,2.537136620008505,-0.5890499216427859,3.18924668176056
1.304,-1.3642440407206404,4.975237076473364,8.018956013923985,0.21651246335242558,-2.553868253756911,5.034072164830505,-2.2800784093548327,0.0901065768162792
1.308,2.8858789837060943,6.872275926297031,7.9538396086262235,1.0673801321943235,-2.3757962237321095,7.740618002891106,-2.709234309798258,-1.3587572300594521
1.312,5.912372695205091,8.410956310166032,7.174820764820631,1.328828138411209,-2.025674700548587,9.452860614968978,-2.002436292755616,-1.1021492397267534
1.316,6.580448085042027,9.026799618996684,5.719077866114163,0.8326260244447659,-1.9587323861299142,9.495845926596571,-0.5010474805687053,0.41305696919213664
1.32,4.739425842210338,8.580094365587371,4.065711795004346,-0.2864571101599216,-2.3406150199462674,8.025067964314898,1.3877404539893505,2.434220090102881
1.324,1.187907871892027,7.3159956561629,2.8934716499263375,-1.7302385853272613,-2.9897358495557627,5.89238520225449,3.300978179910871,4.194531494382996
1.328,-2.7456577611640314,5.662101395099274,2.6903615619952608,-3.1986276647368412,-3.530139868434982,4.1608943785338575,4.963344322752185,5.192457969122607
1.332,-5.799536358116182,3.98475608772901,3.426343452754795,-4.494289000393362,-3.644000493344073,3.5385490126410106,6.175567762272742,5.340542704462113
1.336,-7.278538035301441,2.4518396033904817,4.502813370938967,-5.533363536753468,-3.2431083446761018,4.028787711453325,6.7903541363229625,4.92279529048474
1.34,-7.253700592920767,1.055087685204885,5.039268612066059,-6.293960015236877,-2.4563131108725047,4.965951997616687,6.722108042769776,4.391254669460091
1.344,-6.405297939099097,-0.24341717831589516,4.360169656758166,-6.748232263916192,-1.4516505281982346,5.407990207964271,6.000049364468875,4.115666087338109
1.348,-5.576169087501125,-1.3445480616984764,2.416918406063748,-6.803085647376719,-0.24248931874487623,4.669981837342747,4.822792317035848,4.218531395492418
1.352,-5.275674028508044,-1.9442529528420105,-0.09269265033361052,-6.284522408422845,1.3685507667157808,2.7043311753423405,3.5590645097058538,4.5627709431798165
1.356,-5.3970811093452715,-1.6171601862677372,-1.9921274531144713,-4.979378955201198,3.654945190692488,0.12976528113899866,2.6562014438651715,4.885928921321547
1.36,-5.295748108937801,-0.032505792799640165,-2.167838887504612,-2.735783975682065,6.697124469429477,-2.1011603584348224,2.4605235601119295,4.982537939863613
1.364,-4.205610221922056,2.8018050012097544,-0.1127758640053047,0.39287039280605285,10.15668013874765,-3.224299908906081,3.014703285281752,4.809321265873447
1.368,-1.7680558773143886,6.396586874025636,3.7916694027734694,4.029793434631873,13.26081801547727,-3.082385604097668,3.9703699407772004,4.458504965596051
1.372,1.6064281684521022,9.832036605803804,8.390644513096527,7.457181892081925,15.042638548391206,-2.216221782330058,4.676962398108825,4.024058724145885
1.3760000000000001,4.768577350278891,12.037723358565927,12.219247584235655,9.765808342661014,14.749891743999694,-1.5705832359182967,4.441806433164263,3.4671409408418756
1.3800000000000001,6.3274393855548094,12.221727340219797,14.10154710773103,10.181239129924144,12.228273997728284,-1.953702118886254,2.8883594649516966,2.608107930053494
1.3840000000000001,5.375511858321345,10.259347465428274,13.615033072815544,8.440000983870652,8.070702050874655,-3.5472305384529146,0.21941092604884327,1.2630458695229376
1.3880000000000001,2.0430740338155604,6.83035971758683,11.20953217426103,5.009110456033928,3.4229524238274296,-5.739732842186708,-2.785292819606679,-0.555011896542958
1.3920000000000001,-2.4440373848452577,3.192170437466056,7.942640909133577,0.9818490276122487,-0.480455462666435,-7.394399757732547,-5.074554232373532,-2.51216477157162
1.3960000000000001,-6.281889466078717,0.6600214569192584,4.986985382127744,-2.3584718422324364,-2.8150593632957577,-7.4232246418351515,-5.815399484519759,-4.021217856431864
1.4000000000000001,-7.961836284900382,0.006988305198054157,3.13329164894321,-4.138874709236845,-3.4684896697999648,-5.376836935959836,-4.826533049304564,-4.503366869793442
1.4040000000000001,-7.033185890297459,1.0943949696286,2.5208981329942644,-4.330117928514826,-2.9909365152261174,-1.7255542029678086,-2.712144586821694,-3.7018215719168914
1.408,-4.337109084718064,2.9319546765286093,2.6904693821369134,-3.7599998735573514,-2.2430548465160887,2.3255568142062577,-0.5950936679718847,-1.873578517561994
1.412,-1.565736507946517,4.173173743994237,2.918865698340915,-3.657850126684292,-1.9225252325629336,5.389871769907268,0.4420016292182176,0.2646685781787732
1.416,-0.3549234949067479,3.8305052553844616,2.6612986390745177,-4.9426216043910225,-2.20267932326761,6.539348532708241,-0.0785893582220134,1.8298321064231255
1.42,-1.4058514021338855,1.8220193421226405,1.8584481569117657,-7.660829370747274,-2.682288699363051,5.70981004525753,-1.7630605124265066,2.1604644155497477
1.424,-4.108463205659359,-0.9415729956876993,0.9749792484845576,-10.89907426424961,-2.638966061325325,3.6621518198525984,-3.536794069994114,1.0943161075347252
1.428,-6.884627855742552,-3.012502602974492,0.7378855505998125,-13.25426796609456,-1.4538954886928588,1.528247903172895,-4.213215281192142,-1.0080695268659465
1.432,-8.051569873448543,-3.178465256373153,1.7096214016974827,-13.610005518863996,1.0229791421339565,0.21310568834236565,-3.1282820996940712,-3.4771451452374693
1.436,-6.718872360139455,-1.131048569570233,3.9333093581805265,-11.770766776878808,4.372621425398339,-0.01938011847472687,-0.5003085820886217,-5.642870214399549
1.44,-3.2379795948127645,2.3300314146208683,6.830463235413365,-8.586656346162162,7.802618064956432,0.43536021373716727,2.6833588121078593,-7.055939985799193
1.444,1.027955096680621,5.679888428284967,9.415046683701242,-5.49243068153591,10.524441791474617,0.8648522470691224,5.1858511209687235,-7.532737367477242
1.448,4.440605033738568,7.415380867897813,10.714581415277728,-3.7438915537656166,12.083213629904247,0.7152201167445706,6.146394096670983,-7.06838671467359
1.452,5.905811269635671,6.770267615058662,10.183057109212205,-3.790843510845693,12.465000584409147,-0.08433445904370562,5.477139210824216,-5.725039828227149
1.456,5.354064188914823,4.052046357533079,7.917631241470678,-5.125369685059367,11.970496312524304,-1.124076495962719,3.8430609859066793,-3.592029605935552
1.46,3.645894063122988,0.43034762527941184,4.5832062815223225,-6.66974293937748,10.952593592488103,-1.8053480578926604,2.259455191400488,-0.8392180325442551
1.464,2.007920606164719,-2.6792117248089484,1.089217926855921,-7.443267447600826,9.587810266591852,-1.7319553556194838,1.5382400190505379,2.200574337151048
1.468,1.3336055562746223,-4.306699697680466,-1.8272925842967238,-7.107672811457974,7.802175234255467,-0.9614343523432456,1.8784985427536443,5.033686021983522
1.472,1.7175079726866187,-4.3466183582619164,-3.8959686068911425,-6.091927752370811,5.3831693699968355,0.022485076834336315,2.811282630519184,7.151064789963883
1.476,2.4482541470945884,-3.5150825585165055,-5.350492036780602,-5.267358940955777,2.18985771391639,0.5752810513393163,3.481200800417549,8.24694798914266
1.48,2.4246702670853684,-2.9235673488933402,-6.71375859151507,-5.413051805802131,-1.6783147753833925,0.22834167872195366,3.102167684550735,8.378830332536495
1.484,0.7719280596519975,-3.498248486519776,-8.445650845003113,-6.78879175105844,-5.831765951940978,-1.0815026947483029,1.3737828928167208,7.9649416945437945
1.488,-2.6722065854217534,-5.544335938411121,-10.64133577758831,-9.05161464259724,-9.67803021641474,-3.007814105308251,-1.3346558653382852,7.587145343571205
1.492,-7.210012740527205,-8.630821594578693,-12.923109432002537,-11.507318858310484,-12.580563782084377,-4.977219728276689,-4.0788053636278665,7.697925357117836
1.496,-11.506042021251345,-11.788838933603586,-14.563054321292817,-13.475961535761414,-13.99313353960104,-6.427081556196997,-5.654755004843522,8.405523308655027
1.5,-14.092744372359686,-13.912902054454038,-14.788903731071192,-14.546193848362773,-13.543391299616562,-6.9829272160686475,-5.021293240438423,9.454599381135072
1.504,-13.956492163775184,-14.192995881677026,-13.139837302113072,-14.618395866114028,-11.09483393763129,-6.537023183244561,-1.7173650423835984,10.382881506294288
1.508,-10.990473861590644,-12.44558358538356,-9.7394850651011,-13.81456102204784,-6.840449935412872,-5.253565722263644,3.8240175529628546,10.714382261905653
1.512,-6.139458858349151,-9.24488170139996,-5.384995415094834,-12.396689087328639,-1.422953975982442,-3.5485409247268067,10.186624238309694,10.05309867058836
1.516,-1.1399294902312436,-5.782468825185468,-1.3749926403297286,-10.760990513460492,4.036394409992574,-2.055143192163319,15.2141678127857,8.056159458087208
1.52,2.0693609429282143,-3.494735023616934,0.8778387486733796,-9.47645522974863,8.100498305821809,-1.5274234784051126,16.602009219948034,4.372710209832714
1.524,2.0762376071858215,-3.5421075684888605,0.3365576947571416,-9.23396166888294,9.413979519564503,-2.6407422768034094,12.722299328108507,-1.3105207206628995
1.528,-1.3989940746415743,-6.317045262112938,-3.239541328401561,-10.60690097279316,7.230785962471278,-5.704593051948844,3.397826144867532,-9.039722310241265
1.532,-7.298805599803529,-11.195006414701107,-9.103721370289,-13.689167079874059,1.8448366865805736,-10.397204287801824,-9.716270874529123,-18.26367215884905
1.536,-13.547601881053389,-16.64784093173884,-15.647805828274738,-17.809027161819557,-5.308511447024306,-15.679879131397085,-23.39919853944917,-27.62106287860417
1.54,-17.795080043597697,-20.74085486925695,-20.862356072892624,-21.56504995676794,-12.023733153933968,-20.004230609599333,-33.79530043915433,-35.07881180439027
1.544,-18.291829645373046,-21.848127239442405,-22.99196178120296,-23.27296189611023,-16.0765388081797,-21.807101670716595,-37.716051230855115,-38.500371594535785
1.548,-14.553287557475485,-19.316737441111638,-21.171125799155234,-21.6901936788878,-16.083000507260763,-20.116244694033846,-33.81647699776952,-36.469597220964936
1.552,-7.549340942222887,-13.794720925852804,-15.80014905894553,-16.68011956539336,-12.101727053765291,-15.00175364339507,-23.14313831397313,-28.994186507849605
1.556,0.671218755518785,-7.033289107009524,-8.458280146169736,-9.428365337575741,-5.667777105321907,-7.635204804931993,-8.774233134615237,-17.692570945449628
1.56,7.736254978402198,-1.2432972705457175,-1.371791274688384,-2.0625105381355144,0.7700296743615791,0.109973009046751,5.31222321679477,-5.301914436646912
1.564,11.756180399575985,1.7340165097918163,3.388317668120451,3.1800896119350206,4.785976631756186,6.351411865132578,15.676605982564114,5.310512019376189
1.568,11.896167228696902,1.0915226768729682,4.6648037314306485,4.859105201446214,4.9006030982717075,9.87770988516262,20.56165495356133,12.189140741745128
1.572,8.543170977277782,-2.7127212116731503,2.6266872810460553,2.8877506655283103,1.1186421580852306,10.513019317706965,20.29220156411467,14.909959163264732
1.576,3.0642048574839436,-8.211396365455613,-1.3357423056735893,-1.509402000821554,-5.114500211454882,9.019619913435346,16.828863139740854,14.499487173969824
1.58,-2.6889121493793624,-13.534626933680368,-5.212465952317947,-6.3858925166330875,-11.502910449406434,6.624058229893168,12.741306504685333,12.740674766958957
1.584,-6.945963867070855,-17.099384689385595,-7.219324035501351,-9.896963511483776,-15.776183817369203,4.4196422147143295,10.08701473584663,11.247534575244558
1.588,-8.508037003938623,-18.112290823119118,-6.515263915809564,-10.963762375141776,-16.49764966860951,2.9480606694903777,9.68552702992584,10.78482926617378
1.592,-7.060981052500738,-16.73758631972384,-3.497754891645359,-9.528980821545076,-13.516842156612768,2.1328758779011014,11.035289831416655,11.126278078374469
1.596,-3.22110649837634,-13.883862157725568,0.47537796441028,-6.350380454195525,-7.896594916721401,1.555548551640789,12.83551653525509,11.46187823594604
1.6,1.7077140501861334,-10.750176015112974,3.785440177020396,-2.515957731843522,-1.3949789042766487,0.8825820404279581,13.783675023786666,11.056668361095516
1.604,6.216613146031486,-8.325781730204838,5.33559850641482,1.042889087225698,4.261259723600482,0.16707153965183386,13.246118656203175,9.75882210849251
1.608,9.168988843140639,-7.04357572739403,5.033223919316003,3.8274994860538305,7.994761285652376,-0.1555800059577126,11.495830644217243,8.074334868731551
1.612,10.2376433111867,-6.720654067666499,3.732132516067001,5.774164556602711,9.633956968730843,0.4368103613234757,9.446991414100314,6.800282059534596
1.616,10.004904475536103,-6.767455303153533,2.686883686242319,7.069136638727262,9.750661039871176,2.1546143293899336,8.077835975294844,6.466455663311546
1.62,9.626138300322609,-6.573260956042725,2.793191269405087,7.911570796651197,9.178287147961242,4.64305428737478,7.846354778321585,6.936425353180619
1.624,10.181202598902846,-5.858830265637877,4.055935716170145,8.370546022975772,8.498799777592323,7.048675985517668,8.419283369583901,7.426907646089642
1.6280000000000001,12.044039371518608,-4.824808843871413,5.574936851494783,8.388995771805886,7.766905857212132,8.408885918031325,8.855213244056168,6.948813447445424
1.6320000000000001,14.619084069017111,-4.025956709869504,6.050326109694611,7.891874626864356,6.593407671869345,8.161071402322891,8.130264076778747,4.927796048182673
1.6360000000000001,16.620619718309086,-4.014449041591232,4.553421942346194,6.9232653412773715,4.537078817858967,6.483174379501247,5.73074490235873,1.6559944337386991
1.6400000000000001,16.78122372078776,-4.955944441858698,1.118844647437184,5.719598194232605,1.5413319076304894,4.259846541462556,2.003539362141344,-1.6915209591106637
1.6440000000000001,14.59884968833151,-6.448525851346696,-3.1968368166230405,4.658309791070059,-1.8750509649569294,2.656174960880148,-1.9395052314520567,-3.5371366350058118
1.6480000000000001,10.683369572664322,-7.685003172162435,-6.845061155983817,4.094177775039415,-4.823572036239572,2.4981989136368443,-4.744856156147246,-2.6707086795615935
1.6520000000000001,6.461672546978408,-7.910939325302428,-8.611939251789625,4.148612458056006,-6.546242997599183,3.7891719204114804,-5.487357730115731,1.0746387238084472
1.6560000000000001,3.4072211742312604,-6.90127110408986,-8.262189691169397,4.576191461004957,-6.888007969445671,5.642799745243369,-4.12984658637642,6.606113457385351
1.6600000000000001,2.24152027849393,-5.17112682682728,-6.637446792479933,4.804810726503019,-6.437821501223102,6.695199099753921,-1.5271719777764883,11.957264027918749
1.6640000000000001,2.5919950819210444,-3.7398374362228664,-5.120693049175316,4.180280346048868,-6.189377632783485,5.80630107913863,1.038923129070325,15.121642872755405
1.668,3.334837449002305,-3.5279156799980314,-4.7630085962391835,2.3315670565006537,-6.873793594352999,2.6933479554384636,2.5457073640311503,14.964595532125205
1.672,3.400837850144324,-4.742107729986975,-5.6156664267783984,-0.5364805750732113,-8.389299792433244,-1.848963498141671,2.747850104624103,11.759524962315666
1.676,2.548523356661251,-6.618481463353792,-6.672353240916625,-3.5902849054703223,-9.707733706779994,-6.27953009386275,2.244221566657009,7.061550427494588
1.68,1.5907001145266362,-7.7310241513315905,-6.479925942296525,-5.65444767362164,-9.380616724412512,-9.031769677015838,2.0615184162186506,2.963790143136216
1.684,1.906733348636311,-6.735436649128644,-4.055819579417822,-5.736665827044413,-6.3877138530861295,-9.255179632601596,3.006587177766698,1.0968382622151394
1.688,4.518784574617356,-3.150912655818891,0.43505104915228454,-3.5405822477760833,-0.8436194076989771,-7.1951921946437665,5.170216221869052,1.8633888027383576
1.692,9.280033004450857,2.252521038004523,5.644831429704424,0.2979471205402189,5.860190002914128,-4.017483119599275,7.859627520672648,4.291042084655473
1.696,14.734164791546045,7.745840519106983,9.727722697663623,4.444024102456746,11.63903806510544,-1.18466823122416,10.00853287768474,6.5809134991480365
1.7,18.791988844215027,11.487140989331838,11.347249802540322,7.488059438185577,14.724333127389254,0.2768793850183182,10.803218221971346,7.065644929961689
1.704,19.835647314832215,12.457389604051906,10.416050328777311,8.633679744508001,14.530100043578274,0.23573813064336102,10.14306745157877,5.0629248975429135
1.708,17.62604723904339,10.977701136783839,8.133774213469668,8.086434919361466,11.887465448042274,-0.5822556611223606,8.672361056380048,1.189609233720291
1.712,13.47040634487245,8.50053401354874,6.276548656752976,6.907791140022044,8.499951513449629,-1.0846174794302614,7.357294631146256,-3.020660604627009
1.716,9.52735863321335,6.789421913613094,6.143367407341435,6.391556662845152,5.939685358032504,-0.4635751792797892,6.86997548022472,-5.975615393355131
1.72,7.651576057585671,6.956342755286909,7.775945490191692,7.301710433858604,4.777630876466984,1.3643067865612104,7.155665383517983,-6.868569664112211
1.724,8.428128891519988,8.900920613199993,9.916376510827256,9.398174123601347,4.364111899158687,3.7471841722875956,7.453411405442053,-6.048492751762693
1.728,10.940604708746694,11.459774220527056,10.735648598140244,11.53843873432459,3.3813500799560448,5.6944927546343695,6.7666204581319285,-4.722105526167772
1.732,13.370949378887278,13.138093662565545,8.900882054172582,12.307292400041487,0.7999366720701904,6.420736291666711,4.49642018687568,-4.191040329770766
1.736,14.039196451160873,12.976913264715641,4.366949100970647,10.816788167956616,-3.3608304858875107,5.718784531549325,0.8511583489176102,-5.079461983789541
1.74,12.289644147676938,11.065308470266038,-1.5451776558423354,7.225623563263644,-7.9300531656819455,4.002236917994212,-3.202521092586575,-6.983622910442739
1.744,8.758535800505035,8.434091517949202,-6.8022387983311186,2.6998607198950237,-11.19219306092566,2.0292553382744876,-6.414207138407874,-8.724105347982317
1.748,4.919904226583455,6.429584690183118,-9.668095942169225,-1.165680478613945,-11.835044713257258,0.49851001104325565,-7.89071095433674,-9.037630946700059
1.752,2.230651423511257,5.944871493402237,-9.514970283820327,-3.1420709407534906,-9.682080663162573,-0.246507725519026,-7.5466890570809015,-7.308251430400038
1.756,1.4030035806353407,6.966926609488543,-7.016709461475569,-2.925725897027835,-5.776787248312674,-0.2723491935171807,-6.115853912342277,-3.922999516778266
1.76,2.184932262612042,8.677100775970787,-3.6731625405423016,-1.17963608079158,-1.7899622657707592,0.10096937239726023,-4.734780604659675,-0.06700940893432894
1.764,3.682703150172639,9.998768693969636,-0.9722391457354784,0.9167917022402596,0.8814170399957248,0.519534772689918,-4.335624220213749,2.8985223923328682
1.768,4.9695341638060615,10.248814490385293,0.32725037645915656,2.329123920354865,1.80129534553876,0.7402610076174442,-5.163429108876473,4.119758806622855
1.772,5.581243505624444,9.49733334202685,0.41337003432329233,2.651373643997581,1.5765511675564188,0.6325103117195496,-6.679485238766602,3.612522430999894
1.776,5.633149018772283,8.456130193088338,0.10568266848545826,2.1731956761835587,1.3523162072244337,0.11004153621788415,-7.881096565369882,2.1376242180628315
1.78,5.573495352500112,7.999430388527955,0.24308667960045272,1.5526737332134761,2.055664210607282,-0.8950189439534951,-7.856288485792033,0.6987562180789761
1.784,5.810415916420931,8.63543977746102,1.1676331765118833,1.350342851755713,3.8574102430549195,-2.36662790844227,-6.276589504783489,-0.03251548353181888
1.788,6.456725346685825,10.238908341935565,2.5888888179257665,1.7284138439231391,6.152615432217539,-4.092674074892753,-3.5832656891704464,-0.03272911458633443
1.792,7.318427058086835,12.158868835033168,3.841679171512084,2.466252894206771,7.99927850895999,-5.616394937884202,-0.7865208487981552,0.17254869852863064
1.796,8.085277746168464,13.607231196734375,4.342128748826397,3.2335857958182626,8.706230007755623,-6.350737239424669,1.007019520621025,-0.0884791251105137
1.8,8.533436393379137,14.06557947064689,3.939265154846045,3.889831494312565,8.19599401245999,-5.843096391737948,1.0991171071512462,-1.1800821674551136
1.804,8.582929004452298,13.474368185263845,2.967795497634541,4.591701320523407,6.947096411812442,-4.046673287635009,-0.4997772545574666,-2.910888567555916
1.808,8.220877126316875,12.140547138767207,2.013646796240884,5.648530184783305,5.607527479037557,-1.4239647832827584,-3.102789564711253,-4.627365602309492
1.812,7.391907886563482,10.448595365100896,1.5369463116782052,7.227419031592149,4.540262309040106,1.2248745323780443,-5.678458992775129,-5.579980041851263
1.816,5.976005987113218,8.588606332223058,1.5949030116275038,9.125374649582154,3.6034418894799614,3.1363572841742404,-7.324660835259322,-5.346027881624057
1.82,3.9003594952594796,6.485886014105729,1.8186534960219518,10.77796775326635,2.288429135721745,3.9653647992914776,-7.669590344126315,-4.069582056009935
1.824,1.3177692495689568,3.969540615852371,1.6475004817127412,11.526770380098403,0.12259554908057224,3.960303044069199,-6.9923671099508695,-2.380449506544366
1.828,-1.2978060141429575,1.0551087413635987,0.6804716641057951,10.992121018024875,-2.92635612813437,3.8039330359896564,-6.027183332391462,-1.0510267045531339
1.832,-3.244597313464646,-1.860754683734764,-1.0521903184611707,9.328590641290504,-6.294887833751877,4.2038665163499465,-5.5479930826290484,-0.5824952518448847
1.836,-3.8613449055260185,-4.042822411068511,-3.0399301773257577,7.207209471506512,-9.00424871483703,5.458356673648877,-5.940785979598311,-0.9485274272368853
1.84,-2.8421080628641953,-4.71364989236953,-4.493293041010201,5.511953686415977,-10.081752240522954,7.248663086858986,-6.988961163209461,-1.6445487747418297
1.844,-0.4227057566403135,-3.4545668095108373,-4.687342541935538,4.906725798660104,-8.996392061227027,8.78517379683527,-7.976668593135702,-2.014739536186541
1.848,2.6824301739283323,-0.48907998458277824,-3.28383572636176,5.5055611491975744,-5.8949971602864935,9.232556477010814,-8.062000055469468,-1.6765310221549774
1.852,5.561852723673677,3.305149786186603,-0.4984783064019691,6.806154306375237,-1.5568694043551474,8.174562660633317,-6.734997119175678,-0.8054015212162405
1.856,7.464698582646893,6.702782911305022,2.9684398976018027,7.91876398113568,2.8979945482464675,5.854404600725737,-4.1234827211323175,-0.10568972787004105
1.86,8.084482964808998,8.640788979285219,6.205605105506443,7.986350409735121,6.4122730415798905,3.0627124361311724,-0.9712148654818809,-0.4364531047218776
1.864,7.660091802520956,8.684606600304267,8.440360982217356,6.588079708159879,8.328596872149737,0.7509930872226612,1.6902436760927393,-2.2817764801532503
1.868,6.860442704968245,7.226323051872173,9.311455585200449,3.940167473191879,8.55040561106255,-0.42454545839244084,3.0110859697396233,-5.35957899916461
1.872,6.495342766346529,5.279663515796675,8.933874779936335,0.7896332069145666,7.46910898592412,-0.3890373018380455,2.679457516352056,-8.61596640075592
1.8760000000000001,7.173826663714229,3.9724161119100065,7.759068948371168,-1.9319906900300676,5.728115018590268,0.3707495991074419,1.0010369352978676,-10.65362711001694
1.8800000000000001,9.03292371361939,3.967680433851128,6.298904377595418,-3.53320652821882,3.9279060870690943,1.0965601086810985,-1.3226905861696046,-10.41506758253518
1.8840000000000001,11.631112837980758,5.10859521933945,4.859080473788872,-3.8603307038307255,2.390996145100001,1.1524459135598923,-3.573715067278448,-7.769361871241694
1.8880000000000001,14.100106731577256,6.511650224727157,3.4497081607878575,-3.3012946837537185,1.1098820674161374,0.32893537113703775,-5.321254948598249,-3.6614877170194298
1.8920000000000001,15.488007542387843,7.0416918669137605,1.8925443480203792,-2.5262516985089345,-0.14187646517509123,-1.0877800076229653,-6.50973838612836,0.2744003293020789
1.8960000000000001,15.18127726960244,5.947325345409682,0.05369577151972105,-2.0972666258693193,-1.5906532514405995,-2.489371216007938,-7.325036853994402,2.4728799205884804
1.9000000000000001,13.240989247589464,3.324731418924774,-1.9552617598835424,-2.1501119150134116,-3.2571700274778426,-3.239679200956329,-7.952643282120523,2.1980133235708355
1.9040000000000001,10.448062355317491,0.1320909397559351,-3.7485967420940725,-2.34404954254572,-4.889588098942975,-2.9496135571312747,-8.414455774616842,-0.10606670436824217
1.9080000000000001,7.9750313687149905,-2.2816216385628048,-4.859999928677893,-2.130450529100631,-6.091096837697869,-1.6298268619785483,-8.601062015489315,-3.0783596019837915
1.9120000000000001,6.813409430031672,-2.9063699630774975,-5.059912675649668,-1.1938528013778844,-6.578020710933378,0.31861297404212285,-8.450960785677829,-5.180497217711304
1.9160000000000001,7.230273695849549,-1.652777121422484,-4.58870763931425,0.20368375130370053,-6.397677715060681,2.2555574923494133,-8.118032942362367,-5.503719672230551
1.92,8.55277811011647,0.5402537882248913,-4.138716770068356,1.2041166683519438,-5.963875503039249,3.5211959872469962,-7.9754791699429655,-4.208349191316165
1.924,9.458358784817287,2.172068417970953,-4.524161203084847,0.7359843026459405,-5.837069010068157,3.651990630197182,-8.408711056309777,-2.3549576230715057
1.928,8.672993501213085,1.9982128656345388,-6.186990977300506,-1.866004728610252,-6.345914313654493,2.5388358943519016,-9.505178895481176,-1.2264472835378375
1.932,5.70762668416948,-0.2599720325303845,-8.837043497210416,-6.363829676620114,-7.2927220717700685,0.46022335183721896,-10.857155856260233,-1.5591903810493954
1.936,1.2334852034986081,-3.69169323489602,-11.4347581449207,-11.540121622805891,-7.9250837122178766,-2.011548887349389,-11.634363085687806,-3.120159374160358
1.94,-3.1589628876437783,-6.617331919751843,-12.601125037954858,-15.655849541521466,-7.255435655964435,-4.202580838331093,-10.942526404991403,-4.86008535675942
1.944,-5.728582303323018,-7.444575808166314,-11.285925138838174,-17.251460817815424,-4.591945314429152,-5.5715986101981905,-8.296053370075333,-5.541016530813057
1.948,-5.495005961983708,-5.506823085317932,-7.354734390514308,-15.884049229443827,0.0006028340616364147,-5.8985269321993865,-3.956437700990751,-4.462802540969035
1.952,-2.7808837097771133,-1.4540923531294625,-1.7904893761759388,-12.401784395919105,5.567310390574866,-5.345612487134258,1.0615100656146637,-1.8681176762553662
1.956,0.926618993697705,3.0176339029105144,3.6305430154226257,-8.582500179241388,10.573094883628016,-4.3687001470037465,5.3476645636247575,1.1903934810353256
1.96,3.7220825147261456,5.952855565129653,7.0581503250277,-6.30309084711454,13.527233670343481,-3.5124626067175573,7.653455213367026,3.4269437177089443
1.964,4.238753474641639,6.038174025620987,7.343688087089137,-6.660425626507041,13.621396284214931,-3.182378792467239,7.384996122359519,3.991632836579498
1.968,2.3022030744698703,3.1842732504008944,4.510014557743465,-9.485749865884555,11.069302329166543,-3.495117798799757,4.806292403313961,2.8529426215740816
1.972,-1.0811992926725678,-1.496795281809143,-0.3175200775315634,-13.50191760517874,6.965420577580529,-4.262457126276461,0.8678768980892824,0.7172459438638201
1.976,-4.363999977661533,-6.25826159084011,-5.453385186154936,-17.010976431209567,2.7577414520407704,-5.109803659240264,-3.229106730485366,-1.426334104246167
1.98,-6.347169790121221,-9.512374452442629,-9.379162954505015,-18.737837285076917,-0.3877041232961709,-5.661424705511324,-6.513198689970098,-2.8411290805735785
1.984,-6.793553082365795,-10.450823703554837,-11.301805758738823,-18.379652499492686,-2.0088948069237014,-5.687860356590219,-8.540195904543452,-3.340829620243077
1.988,-6.422745088848668,-9.233488790292885,-11.318317878987434,-16.607723150789784,-2.380991894688359,-5.155350584377972,-9.424368921472645,-3.2283078055176206
1.992,-6.354678279069763,-6.754154574509659,-10.191885160470173,-14.603388260631526,-2.218658488943368,-4.19239252399812,-9.654855339362594,-2.981548513122448
1.996,-7.366605301983664,-4.159324781823783,-8.8936744057502,-13.41937887742835,-2.2296173410193307,-3.019262709857422,-9.80996800404106,-2.9193700567773657
2.0,-9.407004281348943,-2.377374886548998,-8.168941108483113,-13.510325877105272,-2.76696308641653,-1.8738856601619043,-10.301227491202791,-3.052945717148163
2.004,-11.637597844867539,-1.841143510891334,-8.306513618113863,-14.639800388972327,-3.729357478524105,-0.9563645864303338,-11.235614138143767,-3.171310014351078
2.008,-12.946495380819762,-2.4514025244964794,-9.147382974377475,-16.128982528206848,-4.693231353896778,-0.3883200882665777,-12.414010508911769,-3.0596582793950016
2.012,-12.60848119593529,-3.7359850876290084,-10.262801325713777,-17.25230277049165,-5.176541564830537,-0.17035280597914793,-13.450352673750508,-2.687485548502164
2.016,-10.683290401773878,-5.079115102113496,-11.157270683190458,-17.54018455647364,-4.8673949272532235,-0.14835807071362184,-13.954925529312085,-2.2464809358803253
2.02,-7.931734234820617,-5.935900256563951,-11.422427941955563,-16.86489297390175,-3.7238272985597165,-0.027496686030980544,-13.714188781857729,-2.038560848757485
2.024,-5.336267176892443,-5.980493291434293,-10.829144138959458,-15.354700534622815,-1.9407288872242603,0.5423431733117163,-12.804206750202189,-2.313598767931783
2.028,-3.538108183079099,-5.179905443845801,-9.381135887399402,-13.26493550080746,0.15673105190140468,1.805235319582439,-11.586543338723379,-3.1615958057057494
2.032,-2.548729576141679,-3.802837415419467,-7.35712841008297,-10.923231660448923,2.2068451859241076,3.715025192059007,-10.573636762709452,-4.516984623999781
2.036,-1.8852084488884313,-2.339525332875657,-5.297234428371296,-8.745097304243334,3.8709528546841447,5.841097859345736,-10.192510283808648,-6.225164083376085
2.04,-1.0390819568775587,-1.3584419140248074,-3.8996393420478586,-7.255210673294417,4.854157393440309,7.4461937230101185,-10.550543336898993,-8.104349808355598
2.044,0.04673894530466716,-1.3191296047372427,-3.796607130598649,-7.006364980290867,4.932788082307658,7.751594068317656,-11.333853005444738,-9.95276283373566
2.048,0.8365620856305975,-2.3873919369875534,-5.261892261059045,-8.354633617186813,4.021041574664989,6.303816392624816,-11.906713618901508,-11.50491333640679
2.052,0.48134769576383873,-4.360979903094647,-8.001012578671792,-11.21145496687086,2.2344526980527566,3.2534717340984045,-11.599515855915824,-12.426003587468129
2.056,-1.605326329127939,-6.720914614746048,-11.151939017466304,-14.906903492064277,-0.07368982530864132,-0.6048357463565992,-10.05097171546549,-12.385457726426512
2.06,-5.216347531015986,-8.790305379299316,-13.54511218725326,-18.292855903387427,-2.346056595449244,-4.093961856438552,-7.419174734462224,-11.199940491103206
2.064,-9.21605884447758,-9.941245613232315,-14.145439429261685,-20.097201666389942,-3.9450695413183143,-6.127568323266236,-4.34635203443769,-8.970457455945695
2.068,-11.947172703619513,-9.772849486637664,-12.484351342935394,-19.402937536631114,-4.338650351307828,-6.1902798998085276,-1.6841431588851439,-6.1188899599649575
2.072,-12.001683596750878,-8.212436969209058,-8.876550425632466,-16.04040697028632,-3.2933540704159356,-4.5812906406490015,-0.10955369962769534,-3.2787219996893753
2.076,-8.966915359141606,-5.533246024105317,-4.321091803140234,-10.713188733826168,-1.0060095509761955,-2.295275027937394,0.15225176973913523,-1.0930569294003472
2.08,-3.745195819671821,-2.3030307858732204,-0.12355124023737662,-4.792523716521114,1.8929447333322749,-0.5891999781079448,-0.6446743509179189,-0.00921569967667657
2.084,1.7597087878995263,0.7227750328615744,2.5941705684453673,0.14349663567279825,4.498004413353412,-0.42994787867990286,-1.9796832794397818,-0.16826511440471847
2.088,5.485411176813799,2.781901673012594,3.2806138902290014,2.8543331767171205,5.931734353582115,-2.0730164184874162,-3.3667059377826183,-1.4117724899906563
2.092,6.193124938180569,3.3343094857396482,2.08932260425281,2.8666884467460076,5.693054388139025,-4.965193874677673,-4.5610117615295085,-3.377119033050396
2.096,4.087259425711957,2.2804720135832044,-0.24633071217847924,0.6344331334674284,3.919514532546877,-8.004025466371349,-5.557746840468682,-5.615593104939149
2.1,0.7299832920744076,0.06664995289496378,-2.7186298443728956,-2.639435633180447,1.4220369571972,-10.009625186343794,-6.420312552224563,-7.6817550949349185
2.104,-1.740730632672435,-2.424973554275895,-4.41315485595854,-5.468263935334797,-0.5938547662153812,-10.200694018254278,-7.105028402585856,-9.203598662927075
2.108,-1.702755163971621,-4.200354765705301,-4.7945087253975815,-6.6555130980879795,-1.0302454031035975,-8.466973345203447,-7.425170804444368,-9.949746821752623
2.112,1.0944358894462893,-4.586949499127055,-3.8294424182910607,-5.764129924054235,0.5865817045363091,-5.33608283392512,-7.185800337119892,-9.89318004984483
2.116,5.360032081073426,-3.564410484113602,-1.9338649770948866,-3.2796593600989428,3.8347147627435745,-1.6885194526649303,-6.3748994803825205,-9.232906646868285
2.12,8.90537566119546,-1.79175746437423,0.22012186796042865,-0.3680471269543526,7.545455359469634,1.623204528889714,-5.244088621973441,-8.327763710386034
2.124,9.789901961830507,-0.27727425477857226,1.9754382563981097,1.6888807240794481,10.3451598948794,4.080059787302396,-4.181513432352476,-7.533688093240864
2.128,7.374657636754102,0.16679810666479966,2.9482211148215085,2.126335624696213,11.341581246311694,5.60964817536354,-3.435874331452885,-7.004403484999878
2.132,2.709828226431558,-0.6309635998272614,3.1643258621734525,1.0847627904467187,10.582538168707375,6.487010954463225,-2.8923413195681213,-6.577066365123279
2.136,-1.9890873105070515,-2.12537098841184,3.0084371889148906,-0.4766637044390656,9.014602943564856,7.0999744988701,-2.101100160438671,-5.854338265363221
2.14,-4.4805648625972045,-3.394936655912996,3.001015224069645,-1.3100160530073368,7.937075074905905,7.69641380751087,-0.5848319082199525,-4.468433776205279
2.144,-3.6429420887623807,-3.698406485607791,3.5151088963798216,-0.5780526051444346,8.248695425011332,8.239459442803117,1.76192980142981,-2.3793368929393495
2.148,-0.022035419336132733,-2.9116443816075335,4.578385429308231,1.6424488654056937,9.915334010963946,8.428616044071632,4.452657992639709,-0.02149253099874482
2.152,4.525380301209571,-1.5750973676416566,5.876660374190433,4.361298722375379,11.980676705976956,7.873428070642822,6.580316415762501,1.8433578363077006
2.156,7.8820222369021895,-0.5073845094829057,6.969495281875005,6.208409008377597,13.136002403915544,6.325667094405443,7.333311932104241,2.5209990283117722
2.16,8.818439917806831,-0.23031291610889326,7.588420677078942,6.2058034838144955,12.514532761812898,3.853933271631146,6.532681483590254,1.804631131466524
2.164,7.588469721219029,-0.6025606526810869,7.81479353003885,4.329969679025987,10.22472857672524,0.8669746139020853,4.803668095756181,0.1476592285477949
2.168,5.635593731586369,-0.9260506872300835,7.997603253294491,1.515620307001024,7.27198201778582,-2.0410732704059833,3.200020335074078,-1.5670965734116036
2.172,4.6064676860819285,-0.4996033384275289,8.41903852512528,-0.9284755199375851,4.87065318476688,-4.364805378249143,2.4318663000683483,-2.583100961560229
2.176,5.271117443124723,0.7365178612000256,8.927581928051643,-2.1483598575061187,3.5687622625261746,-5.942307459770664,2.1699741089907514,-2.833241677491541
2.18,6.991670521389926,1.9067482642238458,8.804394379242158,-2.324402452922934,2.7460266420505013,-7.047674031232268,0.92791353400691,-3.1377177613574774
2.184,8.089947243913738,1.5366124431656258,7.04416208470736,-2.6023254199195005,0.8646694171894991,-8.25251003310963,-3.258873005643955,-4.846305268189911
2.188,6.9093067182281995,-1.5883944337401825,2.9892433286351325,-4.3675004925187295,-3.5870416795489324,-10.088503559671583,-11.618170397369198,-9.045641789669377
2.192,2.9146734166942183,-7.549476081724507,-3.0574885871042112,-8.29111440045953,-11.009480403513745,-12.678619409713567,-23.566674747767586,-15.757070384602981
2.196,-2.8308954404700186,-14.933115520588125,-9.611751393980622,-13.711952069868147,-20.10326254608771,-15.538329456880772,-36.43602064695269,-23.596474476369558
2.2,-8.09806093961264,-21.256380337439083,-14.417524796561224,-18.752423236407143,-28.195968312916477,-17.677138502127974,-46.29347637195906,-30.150370954507274
2.204,-10.61894637814588,-24.031719163718005,-15.387775315872911,-21.166984442421004,-32.39723369479553,-17.990600456676802,-49.55240781748154,-32.9441325045685
2.208,-9.278850707563496,-21.92371869052424,-11.606056558829554,-19.474458203576038,-30.98138980654273,-15.774189283902336,-44.592919404898,-30.534357648142894
2.212,-4.6882321096516675,-15.392001184158024,-3.8693531322997736,-13.740539440481271,-24.263458552630617,-11.107654385638686,-32.56052267517701,-23.174457688979857
2.216,1.1599848154456782,-6.480550830530423,5.540783285342528,-5.5753405468194845,-14.492941413409259,-4.9288219771818245,-16.91927250899239,-12.717454387993673
2.22,5.92123150093695,2.1208194291344062,13.806397887107737,2.6429094032624008,-4.814514024314554,1.2598304446528878,-1.9851727630112297,-1.8202335171340511
2.224,8.03185080339173,8.238013295884533,18.76494091583113,8.882376334426745,2.134816409182468,5.94992430749044,8.82008861101393,7.13534548475749
2.228,7.346878674919298,11.01707008298845,19.750603374327383,12.306123901548688,5.260194760694647,8.184890479742789,14.142775837625129,12.866188665304024
2.232,4.966153669061844,10.998401283695422,17.675787293894743,13.414349875791979,5.173051018166657,7.864986438370101,14.791654721837192,15.385866376245142
2.236,2.437344761943809,9.538508959357387,14.372381588484515,13.477384415020136,3.5042496595005375,5.681139004497119,12.843219110972624,15.581273268188788
2.24,0.8653728548115716,7.9761938807346,11.585938898618043,13.650713727727155,1.839016671646231,2.740995589756529,10.348979940752233,14.48933927200433
2.244,0.4370018408438626,7.013670065255116,10.171799070932003,14.307573309818837,0.9057420394762756,0.07477408457163781,8.37500597682015,12.720225354832898
2.248,0.5826382989902665,6.602181784830762,9.8903363279129,14.963008003684289,0.4343716736871186,-1.7341293522497372,6.823220094311676,10.336953312217238
2.2520000000000002,0.5609369378957325,6.268527298376364,9.821476380417112,14.757776730545597,-0.35770857861022964,-2.655258046982812,4.983465244987613,7.173561972174371
2.2560000000000002,0.04979008084576009,5.605676204822711,9.087361477340053,13.157308734530247,-2.038358376483501,-3.0463979228774676,2.3600863203522664,3.318607363569914
2.2600000000000002,-0.6483948595888158,4.588578013071043,7.412472767406033,10.403708558936472,-4.500469014594666,-3.3444849141143536,-0.7832887780378606,-0.5897746459100439
2.2640000000000002,-0.8737209756028328,3.566786508281666,5.233140786216158,7.46371512515076,-7.028055215538336,-3.7845401747002274,-3.4657230378380532,-3.4727699178530322
2.2680000000000002,-0.13258495597481712,3.006242879180858,3.358475069126005,5.520888712335168,-8.788064935843368,-4.2833698122609025,-4.542787869147492,-4.273037215720008
2.2720000000000002,1.5097772708445802,3.188009928480186,2.445248787456455,5.344802194277044,-9.38549717872855,-4.516463532479948,-3.3895482588648833,-2.503892065676834
2.2760000000000002,3.4352363381634756,4.0673948131550075,2.635922894672679,6.912247691323383,-9.10103704765473,-4.11609278866763,-0.2901674274492907,1.4306757575330085
2.2800000000000002,4.864836704791358,5.3433790484320225,3.5502015214991043,9.474219595019044,-8.675330404782443,-2.870542174609022,3.673362107432575,6.334995204713456
2.2840000000000003,5.350662093086073,6.646943777746788,4.585595558640868,11.987477626471646,-8.81044812245251,-0.8403315248012753,7.127124796918681,10.683340157419739
2.2880000000000003,5.0397280468773955,7.707685480527168,5.292081065394388,13.633004313223362,-9.727259393231733,1.6450223060569389,8.996459638488808,13.208086406377353
2.2920000000000003,4.539156551618683,8.398078245464681,5.571287596927595,14.135775694540765,-11.067256713790764,4.0958869976923955,8.884650064890932,13.339256033541188
2.2960000000000003,4.4794304127754785,8.68090208829302,5.605529853434188,13.759121824375345,-12.164909766406906,6.0151181214030895,7.094967849925469,11.324157448742458
2.3000000000000003,5.065219250548207,8.549828394128339,5.613634998255007,13.035427172258617,-12.481323429688583,7.040067217322646,4.3738333240128,8.01916734622926
2.3040000000000003,5.9326387637504645,8.048281733558717,5.639582486098856,12.448130356611696,-11.898448716895125,7.042113829452386,1.578032440221689,4.508981651829664
2.308,6.407352471933585,7.348598880969885,5.530053043689604,12.249577197569483,-10.693733926608372,6.163996983304896,-0.5797609283592862,1.7337147326812854
2.312,5.975179381854982,6.793569149369343,5.091973136655939,12.459288501602288,-9.265762422966205,4.787025584906055,-1.6563004394902587,0.24518320982965935
2.316,4.655939400264839,6.81907879013734,4.29949337474552,12.972247191150748,-7.834751294987427,3.4173519791046063,-1.5139597040330115,0.13061156524817896
2.32,3.0311010555375564,7.755442436174386,3.3885897061099866,13.661119466691588,-6.34252590441964,2.520841553534027,-0.32403990480314593,1.0735235294949075
2.324,1.8982607444346755,9.602828749892717,2.743416131654403,14.402272205508964,-4.624319595839338,2.357726539537338,1.4558404070158892,2.497438576817343
2.328,1.7702553585409224,11.929601067696993,2.6482945918677756,15.04196397521697,-2.706616392084277,2.8842037958450635,3.170482585368724,3.7470251137839248
2.332,2.5422831803890986,13.984950651365558,3.0649393273003596,15.377058563238567,-0.9974003025430913,3.7722458173073217,4.163224271030943,4.275586059799738
2.336,3.542669558559322,14.99752654996648,3.6020408028074513,15.208037912834502,-0.18762774872596477,4.559128644318816,4.044241942108133,3.8042935984592092
2.34,3.9263632713637886,14.50704581934358,3.7067717677070617,14.429782616318755,-0.8976480566811755,4.866015282855583,2.879879792694222,2.3968628073870137
2.344,3.1646175168653663,12.55231168664133,2.96258552726235,13.094671147548297,-3.290099296432345,4.576409662094565,1.1776218923507449,0.4119221718729533
2.348,1.3371853034949934,9.62420406135664,1.324621360415138,11.392540454028182,-6.895515976361317,3.880489953023051,-0.3676476575543912,-1.6520724129111746
2.352,-0.9610483462692319,6.409254539618808,-0.8476553168991909,9.533005461650218,-10.78494036260641,3.1448108983758223,-1.2567548600533733,-3.366397586385596
2.356,-3.004081893615483,3.4882072820145416,-2.970293828951625,7.625463960229044,-13.993076617088327,2.6807438394845344,-1.4661105288936565,-4.533557295474001
2.36,-4.369362742660629,1.147518296331916,-4.5276425260816255,5.644800771201307,-15.956347009882688,2.534760097675896,-1.4450638624417298,-5.208548747412399
2.364,-5.156628576311656,-0.620467214405303,-5.311585032120862,3.5178451313974195,-16.713510469553825,2.4316831316448733,-1.8044045817780319,-5.583788856416128
2.368,-5.866827611314344,-1.9652886563403138,-5.469509483875888,1.2769624726114939,-16.75902820347738,1.914854599811453,-2.866180390745276,-5.8204954240955145
2.372,-7.061840194083637,-3.016945315025392,-5.37618697275786,-0.8587530940532615,-16.68083478923639,0.6141590581180414,-4.379645214635072,-5.94119008138882
2.376,-8.989922396173503,-3.7996090233431197,-5.406642060976123,-2.5365115941616567,-16.793405935927634,-1.5050057797496115,-5.5997759975398385,-5.85546431008415
2.38,-11.409270870183626,-4.258021026692004,-5.733264061948473,-3.4462606571004106,-16.972151720228997,-4.056959478458629,-5.706051104956723,-5.495207336752353
2.384,-13.713242610300291,-4.357662244607676,-6.243361464447412,-3.512150005975315,-16.76517550937099,-6.373591447467907,-4.325046880429018,-4.950919936078897
2.388,-15.249950229092429,-4.154179098575687,-6.599797298912119,-2.9603650321869157,-15.67852401587286,-7.801392568670145,-1.8372779412800035,-4.489982909580368
2.392,-15.634991598617887,-3.7751877607503666,-6.401641940392112,-2.1956533191211234,-13.460455418257668,-7.996730151990672,0.7429660055110237,-4.416801437904928
2.396,-14.887891143192174,-3.327414509624034,-5.358428130953643,-1.5453582138267121,-10.229706868555667,-7.062071562158314,2.273724666056869,-4.8575440695469165
2.4,-13.340927562678923,-2.8069743766536313,-3.4209610155060544,-1.0379514026459304,-6.419076062848393,-5.4558853294798215,2.088479311068902,-5.614427875142567
2.404,-11.426522861390595,-2.0975814892003193,-0.8379660275859662,-0.38442763172841055,-2.6150027495305492,-3.743191305106899,0.3330009944165604,-6.228012066830502
2.408,-9.485459178578365,-1.0692751871914936,1.8740995814281654,0.7984201087683012,0.6017315469879652,-2.336970359365114,-2.158103415643155,-6.247586486165315
2.412,-7.686435199407051,0.28408389443478654,4.052919273144058,2.6522438920442992,2.7517702796632317,-1.3728642283103127,-4.360459493496384,-5.555398621073456
2.416,-6.085822479998102,1.7533148159961343,5.075637065260325,4.845761707255381,3.4938447863801,-0.7662356901364458,-5.6361828970974575,-4.53043592828488
2.42,-4.7699844577823605,2.921083628911945,4.5476444799575315,6.600886651773419,2.6391460536479805,-0.40077728227694864,-6.056194888481938,-3.922201948807862
2.424,-3.946025225906864,3.2911747953701456,2.438314882820877,7.010097000980245,0.1842630562957286,-0.3154825771352474,-6.283549302007506,-4.474556526949241
2.428,-3.9147090558829096,2.4942878984237113,-0.8854055969809991,5.494363578607567,-3.6316949273932586,-0.7383351112638725,-7.0899690717060615,-6.477383037729636
2.432,-4.929012547311278,0.4698262814305413,-4.76655991990665,2.1428114563414677,-8.316381546039699,-1.934851075661455,-8.8192624540754,-9.513085341341036
2.436,-7.0090174637541836,-2.452329212465504,-8.47606467157502,-2.2560545558822813,-13.201412460837615,-3.976350966435797,-11.133865819533689,-12.570632520581889
2.44,-9.84617096541878,-5.618285963656487,-11.443326934997872,-6.53552078434306,-17.59385993352613,-6.582724021327199,-13.176189034983183,-14.485538132157995
2.444,-12.815602647555174,-8.22135339971129,-13.380287712237369,-9.636545690306658,-20.922277404540548,-9.15157313441068,-14.018773952104148,-14.469762111889189
2.448,-15.126388059968638,-9.534544299525676,-14.263434380037411,-11.02163071392084,-22.819882499648692,-10.983486689457251,-13.140791197039555,-12.464152666067577
2.452,-16.081746488903146,-9.14912118438482,-14.208524326174167,-10.830804887063529,-23.127712977410035,-11.602344398327466,-10.664441213700421,-9.134766901512936
2.456,-15.326305811420038,-7.125005383508302,-13.320524311881325,-9.705907381623298,-21.83816463699846,-10.984333276845877,-7.241096185893296,-5.527610962811414
2.46,-13.000152109445018,-4.002137715295985,-11.614092895991169,-8.414764120568876,-19.05390650209079,-9.565040156962603,-3.697553091471061,-2.5993725604128537
2.464,-9.748555051802192,-0.6677354208436199,-9.062312718066993,-7.5018161998447725,-15.011999007719908,-8.020080684107098,-0.6744956351569154,-0.8845099097551232
2.468,-6.522204487098611,1.9264581737706301,-5.7254224982474184,-7.102895059825138,-10.12921978263077,-6.924909679404377,1.5561810397168063,-0.4384002485373406
2.472,-4.2339988556244315,3.0918863287473215,-1.8796300631137113,-6.994111065649576,-5.017759973623013,-6.482062856135527,3.0366923769691203,-1.0266563775882824
2.476,-3.39609811257003,2.655964115711185,1.9648734308936824,-6.799285397973047,-0.3928122746675453,-6.469707214310947,3.9344051580554256,-2.3943733208615408
2.48,-3.881885500539202,1.0417632949235522,5.204749689228073,-6.210730314775347,3.1376860910612465,-6.424502194899487,4.391057724689377,-4.401014074882077
2.484,-4.957199235204341,-0.9016632008946153,7.356375336744497,-5.128700651160315,5.2884994209365885,-5.948215455342583,4.495527388372751,-6.9559960469943665
2.488,-5.611398894388474,-2.259477156740677,8.241277217685266,-3.683078154807667,6.199316594577906,-4.967235090633352,4.3517507087453975,-9.840407325644703
2.492,-5.042107886835824,-2.4431819161038044,8.046908211456667,-2.1556560516757917,6.340813462341401,-3.785028037259247,4.14741120992951,-12.573926052702397
2.496,-3.0726373736019057,-1.4310743009585396,7.233741218738416,-0.8611967856046596,6.252900390338942,-2.893838791933824,4.132999529271762,-14.483375459606789
2.5,-0.2881835717827923,0.24957150907824577,6.314478624205037,-0.050379205556438045,6.233849067443341,-2.665664496440712,4.490631887273254,-14.976300225242428
2.504,2.2049336495153753,1.7909858461094454,5.620356586073596,0.15062002650193484,6.157291101635355,-3.103198676037664,5.182288529582351,-13.875104644326125
2.508,3.290987347639573,2.48764420448987,5.162456762851348,-0.23994922266226304,5.52833237383956,-3.8069311832600405,5.906994778018383,-11.611136311018534
2.512,2.364463866226437,2.0227062584319215,4.625373280970059,-1.0882685156165293,3.7478657218329405,-4.191070141443186,6.223619967674244,-9.125311346248512
2.516,-0.3940768163262638,0.5378588398769424,3.511247445402149,-2.1989045687512094,0.45737880972071654,-3.8252915734414543,5.78024177257204,-7.487315329507459
2.52,-4.120713902596889,-1.5179546421488863,1.38741752362697,-3.3756700791956398,-4.206207667723249,-2.7048799529501295,4.531251538937906,-7.406757578887431
2.524,-7.681866000909724,-3.6514888749095893,-1.8535727443798007,-4.470122165416715,-9.574739382556114,-1.2872811691047847,2.801967886001659,-8.880850097871786
2.528,-10.153498058571568,-5.531310507592046,-5.813082727663509,-5.381903633648882,-14.634098356999552,-0.2539581597126007,1.152958304842588,-11.157928612910137
2.532,-11.130263586671461,-7.049033198097289,-9.606298970633901,-6.026134495713105,-18.359425933150998,-0.13296884912697626,0.11412967544992902,-13.058713359769145
2.536,-10.73382743432013,-8.230266386006003,-12.119299113244674,-6.295366130878471,-20.051918136210176,-0.9901123551937476,-0.07109497658986541,-13.50865699173952
2.54,-9.37189851346275,-9.100595122971962,-12.446024391700869,-6.060601701838104,-19.550139969535202,-2.370620431902588,0.4449116328678868,-12.032292474568289
2.544,-7.438564411604936,-9.613523983192772,-10.335937724688097,-5.235123578840866,-17.24564787319481,-3.5266493105420245,1.2074231673825366,-8.976392306322676
2.548,-5.159242403631049,-9.68282110044528,-6.426117748544291,-3.8836280036161535,-13.906109770233712,-3.8163294347038215,1.69068699201287,-5.36454995131994
2.552,-2.6441374150279877,-9.291701619128721,-2.110099466980877,-2.3026195161263896,-10.397879969504453,-3.055241614309085,1.547765172823161,-2.4509257478571183
2.556,-0.03046905853170423,-8.555615705020632,1.0030619323401466,-0.9699690362901219,-7.380139317344432,-1.5978261553902193,0.7687963783780212,-1.1683640474835162
2.56,2.42669027181125,-7.668207772592406,1.8400143485609788,-0.3485571786431243,-5.070026524182466,-0.102660532067679,-0.315360946225407,-1.7156966527940565
2.564,4.415316539345419,-6.7672147768097,0.4433941725804287,-0.625479541323972,-3.1862184283733423,0.8822573625880796,-1.1723170330015993,-3.4670767014798654
2.568,5.747318823935882,-5.811983006672872,-1.9530345823238893,-1.5386028010220012,-1.1101249323967526,1.2650394225951018,-1.2964412339593063,-5.248901557550657
2.572,6.520212765456707,-4.591461923494901,-3.4852929550086427,-2.430438918442701,1.760808929298551,1.4741194707293737,-0.4483593164825974,-5.871197934596856
2.576,7.090919537799071,-2.885603052973144,-2.623294856383854,-2.556702631125601,5.620339603055843,2.193020919990398,1.1884749164790902,-4.67439930725105
2.58,7.821262925374334,-0.6955779122103594,0.9516918873145581,-1.5218312094590498,10.01032791774062,3.9087013171941694,3.0025918510270495,-1.849659118689191
2.584,8.775460214702637,1.6254344331477095,6.054769742162893,0.423863360398403,13.88440452742895,6.546619282062559,4.1417846922428,1.6228154117074745
2.588,9.571051410834656,3.4632016494912614,10.514494972481666,2.42285190550004,16.0086190622083,9.422780949047873,3.8526411197944737,4.411795854210256
2.592,9.522853074102862,4.230740680775698,12.274117638293747,3.409040816586905,15.534585100224167,11.556252022962875,1.858348278875304,5.455442849438422
2.596,8.042593541190755,3.703323948402806,10.502979660217573,2.685398859603172,12.469987377344257,12.177468573313414,-1.4001472592711444,4.473924827962486
2.6,5.071129772166044,2.1866350280051563,6.087820862554727,0.3577989099869803,7.765949681817711,11.148115328691228,-4.81790858038849,2.120386138870291
2.604,1.2674347067787033,0.39286090429411313,1.1942461463474094,-2.646692773255595,2.926319541940408,9.049165771728894,-7.013987065879226,-0.31527139569669943
2.608,-2.2001539769443132,-0.9206524366626212,-1.8835166900624922,-5.0286642494840486,-0.6840017319836473,6.885239386083822,-6.924661332942916,-1.517255419658532
2.612,-4.1762537320940885,-1.354230902043585,-1.9584439280864006,-5.803726403869172,-2.4810432193447065,5.578734376377266,-4.331630787922331,-0.7672120340053139
2.616,-4.085076436552322,-1.0686109093321106,0.4303932380757365,-4.848834148198277,-2.903117323103449,5.526626156740448,-0.0471125598726827,1.7193668287932748
2.62,-2.235321274862745,-0.6616118197984306,3.374526552117481,-2.991926524896584,-3.1033298505976745,6.459994442455248,4.38158884111487,4.920715243851025
2.624,0.31187702489682856,-0.7932736193970991,4.725389454950245,-1.5695909325138222,-4.2400558011276175,7.669137046638883,7.353430852352463,7.547380974433403
2.628,2.256212412934783,-1.7740704916596441,3.34929327244522,-1.6779563799007384,-6.749275231378743,8.427850248618839,7.955912820686583,8.705339723386604
2.632,2.6848020594803446,-3.359172116087472,-0.2179546183494332,-3.5345194982822044,-10.01567230591569,8.373673423474699,6.392383280486609,8.344413064204662
2.636,1.4862753560763888,-4.875593724853799,-4.096397628229135,-6.319087030942995,-12.642821120710636,7.638204851481537,3.8464782292040303,7.248688617515828
2.64,-0.6440725616581298,-5.6077778697340435,-6.1762401233192845,-8.588481053893021,-13.191099824247225,6.672612453090901,1.8416739939819,6.568684030469205
2.644,-2.5781179463435517,-5.200211362321629,-5.344876765727234,-9.035059045938704,-10.966456869397236,5.922019125654744,1.440169941542849,7.154905009158663
2.648,-3.3116169087900857,-3.8425887286445697,-2.113582349293262,-7.178937021138632,-6.423445000669997,5.556112000677618,2.705452963064677,9.053093123718323
2.652,-2.4315942827196775,-2.153646463258888,1.6955295573680518,-3.6201212499591913,-0.9727284689706495,5.407819704310876,4.712138751610859,11.431499475761601
2.656,-0.2736691121626009,-0.8374189124714917,4.018080641254334,0.28639377973178703,3.7131543878305195,5.142751168213989,6.100287185489816,12.990310760554662
2.66,2.257957249455414,-0.3240043675296338,3.718575986195999,3.1264859997108827,6.504499327727166,4.509157868155194,5.86369138972222,12.637312783605722
2.664,4.104373624177741,-0.5924864221017048,1.1863899279405945,4.110142790491635,7.2908245059263646,3.4971623192759416,3.925480715167098,10.064454320229562
2.668,4.510383641705392,-1.247701918258055,-1.9717964782471458,3.384019809338401,6.890741431862139,2.322263930670874,1.1769463531869724,5.924546801317375
2.672,3.3320989484753634,-1.7822007226667895,-3.942719675113244,1.8251397197457273,6.47208960228045,1.2598392968393501,-1.0344599744420766,1.5174188872282777
2.676,1.0810620872269703,-1.8470744402499992,-3.788428485658444,0.4761374533898093,6.843746256193682,0.45597368203612754,-1.6687094319448674,-1.83612462312011
2.68,-1.3052978593262705,-1.3894554058577104,-1.9750798969060535,-0.040591318849154234,8.010521829722085,-0.1443389705624627,-0.5789361912451063,-3.391008215679054
2.684,-2.86770314970017,-0.6127113378060778,-0.0654769316372823,0.19622663841286592,9.222879553107363,-0.7071375770676962,1.4039770027077527,-3.2394936931983143
2.688,-3.0313624515688202,0.19191269950358336,0.23419096278750917,0.5684548830145935,9.48320882334245,-1.3294275637989426,2.943575357548246,-2.1114243843562592
2.692,-1.8401647534831553,0.8175882204702223,-1.905556957997602,0.388951834703696,8.183038503780917,-1.896606370222965,2.952084700624731,-0.8624833960008937
2.696,0.09851074896316214,1.228510549277332,-5.944945349524307,-0.612003526884382,5.494900983578208,-2.0890404499296524,1.1979972814587185,0.030789197315547634
2.7,1.910888456286495,1.5183328545257155,-10.288117036808366,-2.0915046125376846,2.295426730638309,-1.5496488700349875,-1.565762953482305,0.6766291940114262
2.704,2.8739235216267733,1.791967743191225,-13.19994268774644,-3.2914933505573156,-0.32647894287331525,-0.10681276375565063,-4.013893772864698,1.5695080246848256
2.708,2.758088392648194,2.066706322427358,-13.773367091818479,-3.487875536717128,-1.6771361379933207,2.0896904601739017,-4.952102173473552,3.143273807038784
2.712,1.8945566859913492,2.235747208025293,-12.397836483801031,-2.4291741019771598,-1.835619599916026,4.607065905807643,-3.9213244564770093,5.372779582024629
2.716,0.9436800778669436,2.124650121199743,-10.460719589854621,-0.4883987374509342,-1.56574767829448,6.925191800087257,-1.3669085182163077,7.703959523949051
2.72,0.49762983548497974,1.6030469032721646,-9.482317504957882,1.5594194359361309,-1.8206894951460693,8.684289291822544,1.6949608302094994,9.384013643987434
2.724,0.7383374033045809,0.6878297315630981,-10.189146060280851,2.9893353558234477,-3.123492714035904,9.842359441238626,4.288211806720916,9.983311341558704
2.728,1.3557265228134954,-0.4105761120002219,-12.066814498742245,3.539107962719541,-5.182827329482523,10.646826871475522,5.989894769552324,9.755857566442861
2.732,1.7675940370881995,-1.3350783491904652,-13.66911232163421,3.522410848790744,-6.9930354464507865,11.43413406948252,7.039164365582096,9.564753452509375
2.736,1.5095335178066343,-1.7024744429458032,-13.492640610124479,3.5817053525782194,-7.362667896540958,12.379567212472303,8.008606839369094,10.363661226150285
2.74,0.5643534975736477,-1.2561784610798767,-10.90863127760822,4.243029186843571,-5.583063754287041,13.352918623340774,9.276488586269299,12.52265698043876
2.744,-0.5913292768951912,0.01364037090340875,-6.601077732892999,5.544003870916097,-1.857472483822539,13.964436469658624,10.655659833318875,15.412976975510942
2.748,-1.2439621729054036,1.8557278023732597,-2.236488882989905,6.9793319848126565,2.7651260645356164,13.77799445641568,11.45537716803079,17.564886054377354
2.7520000000000002,-0.851981293301117,3.852540561148513,0.47001689963060755,7.803191304642942,6.922750194912641,12.583034702821983,10.959608393337533,17.392468528032268
2.7560000000000002,0.642835079036594,5.596291374236275,0.7570721384360457,7.505509290159443,9.635884607614987,10.573241158767228,9.010173925439041,14.110423189494151
2.7600000000000002,2.7747306647670307,6.850575088760825,-0.7145945736921169,6.148307440260158,10.755621917909515,8.310308626610773,6.289072618253192,8.31213091179498
2.7640000000000002,4.8030508010188235,7.61048736755759,-2.2159004611184496,4.344362011677593,10.916545675598087,6.483398356223244,4.072261335053141,1.8340838340688395
2.7680000000000002,6.095186088826947,8.0402824206422,-1.9362638399856955,2.888897314232077,11.042198805328178,5.589283091427732,3.552895246019075,-3.071904849289203
2.7720000000000002,6.40577813230998,8.328308756152316,0.9538982974827301,2.266854331358733,11.718970597431278,5.703363116229433,5.125112012518816,-4.83032174584579
2.7760000000000002,5.917213335056952,8.567232824155136,5.781335202288583,2.356819778391351,12.833488210240116,6.460981620387875,8.080486863264918,-3.3116005405341062
2.7800000000000002,5.067033318047005,8.744758884055067,10.709670720371687,2.5425640081484016,13.704337082252959,7.268131050208538,10.956091744372472,0.15963780949533302
2.7840000000000003,4.266783381839412,8.831126039811771,13.744907429343623,2.154525819491804,13.609273555686515,7.624386447915766,12.362563870657745,3.5543624438397163
2.7880000000000003,3.696442596964532,8.893441132017205,13.81646240970107,0.9620939895360787,12.34315752403987,7.374368346145292,11.796585633151038,5.208916340374866
2.7920000000000003,3.2633001133586093,9.104864909692605,11.288368758686149,-0.6257353237712517,10.405132220109788,6.749158673047727,9.932690572203555,4.612868783017738
2.7960000000000003,2.7082961526400315,9.60603070634726,7.61859130575635,-1.805971533772289,8.674673156306012,6.186244749138041,8.186205705646389,2.4971070656682994
2.8000000000000003,1.764342762802267,10.29059088792338,4.388828123410899,-1.9328103009573416,7.770039030774845,6.0448428093540185,7.799525730131248,0.23601958250565414
2.8040000000000003,0.2612698941948861,10.676163621930511,2.3239810941995978,-1.0244610148909645,7.517369968515448,6.391225159395217,9.015531519970047,-1.0144059635084055
2.8080000000000003,-1.8322244684029085,10.038924881364894,0.9558896928312093,0.14730768480310452,6.960490046271369,6.991764427857158,10.896309337083046,-0.8821288238083653
2.8120000000000003,-4.383810299021818,7.810868238550148,-0.857208991432203,0.4917694058858526,4.97597938955079,7.512993522096615,11.946269014347976,0.26094200875199824
2.816,-7.078495604315471,4.042715315847397,-3.8999656160910465,-0.6865508347904914,1.1418111599803087,7.776170242783342,11.15217540608078,1.8235391718120404
2.82,-9.41308673440255,-0.36006147859837423,-7.760399279632328,-3.13408616211248,-3.7032110709582957,7.883614174899893,8.773425278198573,3.5708599068748885
2.824,-10.775808969713477,-3.876815595936259,-10.810765001999734,-5.646044782325024,-7.65707129862623,8.108509230628838,6.313525928544148,5.782683746448645
2.828,-10.677744240969597,-5.066984124223,-11.116177976396697,-6.699736058296485,-8.706966917347646,8.59754213311288,5.5975785587740265,8.82696905085586
2.832,-9.065230089856678,-3.398943932099335,-7.761801490445275,-5.3887394041471826,-5.941616555183597,9.086278672782512,7.466508347633729,12.449176307981354
2.836,-6.5302063951705005,0.27437990233301424,-1.757484511041441,-2.0990240164708744,-0.2956972956592807,8.853223572122253,10.923341992639266,15.34636356811156
2.84,-4.218450374319844,3.950170969146411,4.143539953688814,1.5244603508082442,5.691395046866042,7.018327809929052,13.367904485361366,15.459003515811494
2.844,-3.3942361411782045,5.388655540406031,6.747343908571551,3.372409526564338,9.071133780937622,3.061557005652915,11.924509842454114,10.980932631247832
2.848,-4.794145448774136,3.291227505982957,4.167320424081091,2.043079321094531,8.030441326663759,-2.71717036007162,5.178597794917705,1.5858592502215192
2.852,-8.115374637201393,-1.8992982430527983,-2.9804613964509685,-2.269488207431759,2.9291063424794266,-9.088821267956503,-5.669935150797148,-10.869871827827044
2.856,-11.959281894783075,-8.046153416267277,-11.648792436496358,-7.6878901787069,-3.7608226482088196,-14.269780379696936,-16.96309170133361,-22.700316630125855
2.86,-14.353411615656437,-12.266265734592704,-17.756604367810446,-11.45823331756353,-8.632003960351899,-16.64110415887092,-24.09867134820357,-29.762960952210427
2.864,-13.655595132881786,-12.331294119774357,-18.19424626086534,-11.264795716235955,-9.022717706432996,-15.467815198003207,-23.67237337789992,-29.23386928630692
2.868,-9.388633281180512,-7.785530635467952,-12.351257155088408,-6.370642134714217,-4.297406633094712,-11.243348462397119,-15.125620547815966,-20.894544395758665
2.872,-2.5511990958650914,-0.19010467989683932,-2.365328771745266,2.0109019967490083,3.92946308484858,-5.468609075463823,-1.0271222154178994,-7.250108206399653
2.876,4.7847668991778916,7.630105713513194,8.00053323469001,11.278602862172733,12.687655809149426,0.022278663565737933,14.140367861121739,7.580640011402079
2.88,10.416459355060335,12.941332480955257,15.202828725311349,18.631787118869234,19.124944022344614,3.8467753020977518,26.023330172557888,19.633893090211977
2.884,13.008616026539272,14.335710916349516,17.465088073998793,22.25902435909429,21.737716925183015,5.565659171199025,32.19413811067386,26.638891650250656
2.888,12.642226577756794,12.244428092047631,15.291803395200855,21.965796299660937,20.774076405906484,5.6661307971475425,32.83803555023793,28.625440119017465
2.892,10.631946936228134,8.510022754295795,10.817387302723938,18.993061851858556,17.719071095045003,5.101864385643751,30.106044755801893,27.410180221253885
2.896,8.742895846907743,5.317807365201764,6.489318041575309,15.217670851108885,14.283176915643104,4.685322653854193,26.63609436439972,25.360935949824224
2.9,8.274037081217266,4.11087361002912,3.8996795615147937,12.228253402982515,11.549732115432608,4.692358548326762,24.150754517288817,24.17832094724429
2.904,9.484833419185586,5.02923471873787,3.353142476917453,10.740440594795269,9.717820340216118,4.8810543523823124,22.86978529951856,24.296253555428002
2.908,11.610174720595413,7.079864071417131,4.22782815539347,10.552259766692401,8.441667589066784,4.842397265713925,21.90813663403719,25.069808761962495
2.912,13.413286565342617,8.845135132700477,5.713589960302876,10.952438404833298,7.4071028681405044,4.422213417756431,20.256713487954748,25.484660633423683
2.916,13.915616085464796,9.273142483690249,7.371623169632031,11.261658261205389,6.691214133836711,3.916679113306463,17.639763761642012,24.874958817679683
2.92,12.876005069749612,8.11515740948288,9.185466302303356,11.16973642789896,6.662482930205402,3.896564086111317,14.717986961666675,23.229959002474338
2.924,10.807198640019246,5.8541865135414355,11.194326238700755,10.730871117220609,7.539584878628571,4.770666035094835,12.586328706684071,20.997065343848867
2.928,8.593640554566518,3.2839931280730306,13.100936546691607,10.119428946697642,8.992113324743306,6.384200856347627,11.972612770554893,18.62783187825928
2.932,6.972175748696699,1.0382640249039718,14.212140099475949,9.360806633686432,10.114695351403096,7.93645207821391,12.701045426407028,16.224278004778736
2.936,6.22011122000659,-0.6336148285613101,13.831102804139746,8.266735176104568,9.87198965298076,8.320063197682217,13.78509228111621,13.53964971090626
2.94,6.194651402013308,-1.7733877738710604,11.832577927271629,6.622720289853035,7.755338246323759,6.736179431612441,14.077870858472142,10.312766364932434
2.944,6.6305745272782755,-2.457214519182334,8.978371598225413,4.482550890188351,4.213644313205394,3.235332208281303,13.033026890324392,6.665263765609616
2.948,7.46278131703524,-2.5929285876662926,6.705086407394939,2.3630459518991507,0.5653592860862992,-1.147719844206709,11.082698136031583,3.264066287031601
2.952,8.919399195034579,-1.9380317441727328,6.431980675679827,1.153934638721069,-1.6154406645862438,-4.789553426548211,9.390578563100853,1.095349893940945
2.956,11.317466363918356,-0.31542528412946824,8.769673109578488,1.7448862917459782,-1.3110009490514913,-6.2383253931431035,9.13433838162184,0.9549867592384791
2.96,14.68893684724029,2.1237483980901306,13.093385311959898,4.54171762899751,1.3772837218122445,-4.948378645842358,10.75831981866563,2.9518554044865266
2.964,18.500882803251933,4.798850780623141,17.759691741633823,9.142476708441862,5.234853058192396,-1.5984507753177906,13.652614107996289,6.329864725967719
2.968,21.69497265098599,6.865695115840193,20.867104535557978,14.378625063665314,8.508119911795276,2.2023754326317997,16.44184845835253,9.74380161141761
2.972,23.076182200187947,7.564966727793236,21.13994768113845,18.736115966574175,9.716405739827637,4.698750213891802,17.690150597434197,11.871420164390283
2.976,21.878700914611585,6.582520180526182,18.484480766712213,20.987271205839992,8.28392392232118,4.857852547900716,16.60968437805054,12.032814279633774
2.98,18.193814572476747,4.217932227011586,13.943466269380108,20.721668150154397,4.680805849003708,2.86928870199049,13.376756920065496,10.487010195065476
2.984,13.019770734122892,1.2601019296229947,9.107063517561933,18.519010756046676,0.049042705990803626,0.013766700552769628,8.920996501739415,8.264117348059049
2.988,7.906527319606434,-1.350419575406928,5.341338284284621,15.685044058390446,-4.417296384832331,-2.0305965209716472,4.36895735411425,6.62122352967919
2.992,4.341284317648639,-2.9067479008623325,3.241489040838034,13.660664631808816,-7.983504344866848,-2.072749367172633,0.5022836752778463,6.408737724346307
2.996,3.1716701390225364,-3.178720651892899,2.5469113175560993,13.387924752173863,-10.526710172983904,-0.01950037579462971,-2.4601063180345184,7.6714193029594275
3.0,4.3601100648221776,-2.4135777302615122,2.4855009281412737,14.94094115516108,-12.312120336910562,3.112559375247905,-4.685736018080641,9.679673716797666
3.004,7.132890878538729,-1.1386417639547464,2.298810834425524,17.568155458417714,-13.601168985001244,5.7675974452026875,-6.3564143472499826,11.340898535788817
