Timestamp,O1,Oz,O2,PO3,PO4,TP7,TP8,Fz
0.0,2.2737367544323206e-13,2.3305801732931286e-12,-5.684341886080802e-14,-9.094947017729282e-13,2.2737367544323206e-13,-4.092726157978177e-12,9.492850949754938e-12,2.8990143619012088e-12
0.004,17.763915082377025,6.93516336057985,-22.471571096993728,-9.204587092204292,-18.629143173485204,20.913970545512598,-16.14790863800164,4.686996508526192
0.008,30.37180714686724,11.606740455241265,-39.0366707697645,-16.54380383706558,-32.32856154564871,36.06775829680089,-28.14214353178994,8.221437819477899
0.012,34.972631747411015,12.664708245690974,-46.424249656902305,-20.899624917708366,-38.34778616523832,42.27929234300427,-33.51575334990275,9.970270483132367
0.016,32.1762401868325,10.179033730312653,-45.27597366987675,-22.253871615551134,-37.18504671921548,40.217957103041954,-32.37271456003691,10.07328289943706
0.02,25.506522923577336,5.528884043471805,-39.405983825738645,-21.47075103804133,-32.01556406153438,33.75378722549624,-27.055034262770903,9.3133196816936
0.024,19.484191181447045,0.7411992337596871,-33.568695710030795,-19.706743192630768,-26.875560644143775,27.800277427310675,-20.844753431501488,8.680899883925008
0.028,17.36984008460138,-2.3996150195685004,-31.024226017622198,-17.825003886007494,-24.633086567975,25.844811639237832,-16.398357218472086,8.875974629680911
0.032,19.744885805515878,-3.05647491463003,-32.255576671191875,-16.16261218171445,-25.849237582106923,28.483525410041693,-14.731958816414476,10.008100800158786
0.036000000000000004,24.6001814895302,-1.5577072115212047,-35.41897531148902,-14.715234858325857,-29.039706585321227,33.64561958879608,-15.194591134347604,11.638604411860172
0.04,28.756670019949752,0.9329437586376343,-37.997096698708845,-13.484313156844962,-31.976322592426385,38.19343664875419,-16.258381696287586,13.114397018803459
0.044,29.747532383590737,3.0867558149348895,-38.519799452855295,-12.668269748054911,-33.1450445599537,39.86685667393783,-16.581918164561102,13.978418901458127
0.048,27.108466602710564,4.056510204554769,-37.289739086561326,-12.529395894391712,-32.48878171357683,38.448254831505096,-15.715049914309816,14.217114180905952
0.052000000000000005,22.463476039618058,3.8067754316033415,-35.8283912051636,-13.064226712618392,-31.13029185415897,35.60711308836488,-14.13615105334992,14.224194962659027
0.056,18.489337805941773,3.011314852322016,-35.601843457835,-13.79054813993153,-30.428685582098353,33.684990749277176,-12.7535697701,14.5276075146881
0.06,17.40249930350933,2.6039910274869555,-36.91435202622091,-13.879354613593648,-31.03361775206602,34.21938360759731,-12.252514424081312,15.446585275219803
0.064,19.81625962179953,3.249093925763276,-38.69049864579506,-12.614549843600713,-32.525501119785616,37.08047334658869,-12.696403097253892,16.8762942926831
0.068,24.53127500696644,4.999628919325431,-39.20187720767518,-9.888579283538974,-33.78282944350258,40.65212577548374,-13.562022718481558,18.315113362451626
0.07200000000000001,29.29023811559415,7.298120555056329,-37.230151446370996,-6.405191968788785,-33.77975004621848,42.865843740674904,-14.129304165932808,19.108374932422777
0.076,31.993101208226165,9.285510392236944,-32.917326095606256,-3.42879801820942,-32.28734684221129,42.422311825637166,-13.964838708085153,18.757827692544055
0.08,31.673461671091843,10.226209627686558,-27.744270062427233,-2.17783423635035,-30.029209059113725,39.464130116481385,-13.177380796005991,17.128423621728984
0.084,28.762097256098002,9.835734378491225,-23.694159551895495,-3.214308797359223,-28.234801309135833,35.364301918523154,-12.337503132978611,14.459066439316643
0.088,24.598381886972902,8.364241294485396,-22.132541140557294,-6.183503413779903,-27.90362201805152,31.837704629509915,-12.134956558596002,11.208570757010307
0.092,20.587938509548508,6.429381775312834,-23.120529764963436,-10.049715069714722,-29.264780741834954,29.986216516485797,-13.016817913272064,7.850587966346694
0.096,17.5422089227269,4.7204557064948744,-25.54858509975915,-13.667625928638842,-31.739395306035618,29.848168991334205,-15.009982837675466,4.740469308407256
0.1,15.50465579287743,3.7152128127376898,-27.89596060665744,-16.320279324601103,-34.348458980818265,30.6147440157348,-17.756863161248305,2.093410091170341
0.10400000000000001,14.020566996664968,3.5152061090770417,-29.116493725197728,-17.936270347662628,-36.27375193850375,31.26848251419699,-20.70227395816238,0.029994597093036646
0.108,12.578571586009275,3.8447014222892335,-29.10331337009407,-18.908003980764505,-37.216568321594195,31.189921192937504,-23.289671089703347,-1.3794384624315796
0.112,10.927744155336654,4.186652072146842,-28.56927992552042,-19.7212009040841,-37.42304883084029,30.38614221426525,-25.1172194702894,-2.12890823398115
0.116,9.130143542448423,3.9956388429863523,-28.525649851867115,-20.676131817503745,-37.44179928168177,29.295930356012718,-26.04404379803546,-2.3246567756996797
0.12,7.386522532742845,2.9080819301347844,-29.681605337355705,-21.837246111503816,-37.77030154151575,28.36765315782327,-26.207581488507373,-2.1938845376416225
0.124,5.829044516615738,0.8867562186730993,-32.10090746736719,-23.16527353240457,-38.59230674615387,27.723133506926445,-25.957765235967997,-2.008995713685721
0.128,4.469395339355572,-1.735117633924574,-35.21322621353434,-24.628745016285023,-39.69185203245681,27.12354063514084,-25.702791497839343,-1.9375181265966432
0.132,3.3440719622106485,-4.326639819044118,-38.126180556582995,-26.17182850533402,-40.573309990171936,26.242443568317753,-25.729432853125388,-1.9017695286032676
0.136,2.708731381847656,-6.1464645130407405,-40.05934478771459,-27.5804316707856,-40.72782724632481,25.027733915631586,-26.085968093661734,-1.5656100082683508
0.14,3.0647740475002934,-6.601737335381756,-40.650388226141814,-28.38162147885157,-39.88957763692187,23.8589186853103,-26.55680256537903,-0.5022094614965908
0.14400000000000002,4.9214829017655575,-5.49169985590666,-40.038718289442954,-27.94548734600511,-38.171447807006246,23.367287522760307,-26.770255252847903,1.5145381132687135
0.148,8.400823226784667,-3.1238689964211517,-38.71831718476193,-25.79685622870886,-36.00912166151298,24.02665495966278,-26.374593076083443,4.259294168696584
0.152,12.963783233292304,-0.22331151199824717,-37.290916553860086,-21.978869049454545,-33.958228174553454,25.806402833048878,-25.207177873673288,7.018841848689959
0.156,17.486131493081132,2.342125337381816,-36.24950144284156,-17.2195205988304,-32.44785558568191,28.137779246695743,-23.374787542517936,8.836808368228503
0.16,20.69510916606282,3.908189905159304,-35.80450657171849,-12.715208245682874,-31.567397928111745,30.207561478449975,-21.166357878103724,8.942500080698949
0.164,21.746125768367165,4.266721869820799,-35.802438701339725,-9.605812503519815,-30.989224437670998,31.385422234359908,-18.854814380236235,7.139317087234247
0.168,20.606839117452182,3.689556549739052,-35.76175775271861,-8.425006949689362,-30.09465027589178,31.512733208106738,-16.514894655608884,3.9338814875035837
0.17200000000000001,18.0356132299421,2.719873225273574,-35.08878073125351,-8.876905167889106,-28.304754841071315,30.897110282590347,-14.02026803267455,0.3189831674237098
0.176,15.194659278118706,1.8635184015757318,-33.41832027457275,-10.07337220973784,-25.468152824894474,30.05714037440771,-11.247094018426083,-2.679794326137767
0.18,13.080377711831261,1.3413562888092088,-30.86695564456005,-11.074824933258071,-22.05106896824944,29.368499097787776,-8.32342930840423,-4.454427233338038
0.184,12.078764432124217,1.0361347114140358,-28.05108555440546,-11.39831469700232,-18.97699790278523,28.826319075892798,-5.749267871392192,-5.0248142722124385
0.188,11.889355973707325,0.6551073473581255,-25.806059892402004,-11.166140174139628,-17.14820856590535,28.065692221440713,-4.241560097258116,-4.903328003011552
0.192,11.845366181513327,-0.0026067652056553925,-24.767782655755354,-10.844761674077688,-16.924545805023115,26.64180635652906,-4.375405958078659,-4.714785461815325
0.196,11.426080953003861,-0.8454153896865932,-25.07169689295273,-10.796832765133331,-17.8870793893675,24.40528165305932,-6.238439687348432,-4.803079882768088
0.2,10.611102125970547,-1.5045314464574062,-26.314239110517804,-10.963203244653414,-19.035848364703497,21.705574512175076,-9.29305117948013,-5.060298176908816
0.20400000000000001,9.851678777267693,-1.5642887971035293,-27.803501197830883,-10.90739262933863,-19.340213455514913,19.276788677797867,-12.568651969981033,-5.07138857040519
0.20800000000000002,9.694142271154305,-0.8675439445506186,-28.915186087089182,-10.171483973533213,-18.325263071880045,17.872704381345443,-15.081945339295885,-4.45719595296697
0.212,10.337647060557856,0.3162375344463726,-29.364904113061016,-8.685621102624452,-16.361422335186262,17.88183066648844,-16.27529829446553,-3.1781299698157
0.216,11.423524077908837,1.3782310212497464,-29.274652568454485,-6.941549579036575,-14.48576508682811,19.151795750910424,-16.24937534251319,-1.6041126989971985
0.22,12.201644027020166,1.6791407792863424,-28.979145068783282,-5.760025586381744,-13.812756775959485,21.09953330253154,-15.628521177801758,-0.3027861481244827
0.224,11.985468404264793,0.911612098950286,-28.729490237739924,-5.787008646750792,-14.870741768450557,23.01546356536062,-15.159234511296631,0.3131218568879035
0.228,10.611427993704638,-0.7030137552626456,-28.504046530330584,-7.045652825954392,-17.24884594267411,24.377015807802536,-15.273081370877435,0.25715453436265534
0.232,8.633808315555257,-2.49432297464881,-28.06336668218023,-8.850975785399328,-19.775212871314068,25.028092036821704,-15.872559596785663,-0.00488571361609047
0.23600000000000002,7.109319981783301,-3.6623759319768396,-27.184733937427836,-10.15346781824536,-21.134772189891464,25.142870490539053,-16.450774310769702,0.2020960082622878
0.24,7.077719872226908,-3.6639557912698706,-25.871686659713077,-10.099507524377486,-20.568669421524362,25.039619229865366,-16.438255940994623,1.3990932191533716
0.244,9.037427497321687,-2.4351371105955764,-24.397206945256244,-8.480023765045758,-18.27282739072291,25.00193733243941,-15.574330456175062,3.6816531140340203
0.248,12.675051598147093,-0.355738881104287,-23.10314331798145,-5.7846737287388805,-15.26314365025263,25.17979439722535,-14.056085506638055,6.679837951052264
0.252,16.974229448831693,1.9925637085551102,-22.092765118559555,-2.8443467457409497,-12.796532457353237,25.578370003853138,-12.384602176014369,9.742868314140878
0.256,20.651501163955572,4.116592087386948,-21.086784383207828,-0.3286014621761524,-11.703682027983291,26.102125291293987,-11.03856454430695,12.224144664523806
0.26,22.70373173893995,5.782233418797091,-19.601421076920133,1.5700495051260077,-12.022236091657646,26.611267989612315,-10.196216775759922,13.714987439788274
0.264,22.799516047243742,6.997658481960343,-17.382626165502188,3.0726007739278884,-13.109410609487384,26.964449518587116,-9.695639797301396,14.124179590210815
0.268,21.33565222495895,7.858804856834581,-14.763863995496763,4.467854499964119,-14.093278641756626,27.03146147707912,-9.2139011772706,13.614275324228856
0.272,19.15209148111876,8.394741235193237,-12.637894374231678,5.762131945792362,-14.346889701410134,26.68840612081999,-8.529070626975454,12.472312659897852
0.276,17.084447518562456,8.533191465230061,-12.005276064281588,6.577373040960765,-13.724357300898646,25.84714661175076,-7.70038041733585,11.003290865336226
0.28,15.583577226530224,8.187941379176664,-13.347046938551443,6.364214744284709,-12.492987640563115,24.529796025793303,-7.0634331437941,9.477816308313663
0.28400000000000003,14.581671128027665,7.388174949669406,-16.233841854625325,4.76875261151838,-11.090956754203035,22.933812900814928,-7.071224511794753,8.10222917732267
0.28800000000000003,13.614328125801421,6.31751244004397,-19.426743697204074,1.9049819217831327,-9.889009652901109,21.39812735258306,-8.060078400774955,6.9755887599844755
0.292,12.101237639690453,5.206866321977486,-21.454166632315037,-1.6582186384690658,-9.085784724818495,20.24789072856811,-10.06516694558536,6.036337933313007
0.296,9.668940942071004,4.161005524462325,-21.379235579346982,-5.186563722436972,-8.75801454438215,19.620145574689786,-12.784814995305624,5.054669286354169
0.3,6.383848887821614,3.046652752725663,-19.329229849340322,-8.14548837577172,-8.97741395287835,19.39299353824117,-15.693667034913346,3.7278186311061745
0.304,2.810648058115248,1.5569693726837386,-16.485442143442697,-10.405918251781259,-9.874219144449626,19.278514078443322,-18.250559371788768,1.8675473193527523
0.308,-0.15951817427708193,-0.5678173475814674,-14.468464179357284,-12.149535616159596,-11.553099282037579,19.013057604786354,-20.074512733580832,-0.41711216561952824
0.312,-1.6713309323640715,-3.3086488823075797,-14.445440326690346,-13.563645273342786,-13.919120813057361,18.51229383608029,-21.02035840336339,-2.677616288824993
0.316,-1.2883607328581093,-6.278980214068724,-16.48413982078,-14.568695474757078,-16.57790027244573,17.904404170389853,-21.16925838251882,-4.289646067259696
0.32,0.7926133306245902,-8.85857732549107,-19.524784574009573,-14.79352939692194,-18.929242990024477,17.43688957649806,-20.75982852015477,-4.756106502087732
0.324,3.8204268214083186,-10.477034479544045,-21.996398427406234,-13.842291988742431,-20.432271828576063,17.33135198711716,-20.111309228443588,-3.9856093687006933
0.328,6.830937374185396,-10.879478152298589,-22.669883058844107,-11.651349745412517,-20.860137782123843,17.665147161300638,-19.511743524516305,-2.367444126639498
0.332,9.067596499542105,-10.221855542074081,-21.24592509790284,-8.672392632522019,-20.366237702067224,18.3282926464135,-19.08130565559486,-0.5846554024208217
0.336,10.278220702722138,-8.937417038215017,-18.392793006730585,-5.738584902036109,-19.328895518996546,19.081445323877006,-18.69956341535476,0.7315204332599023
0.34,10.735829788593492,-7.4828836146446065,-15.289401778718343,-3.686126714645752,-18.101759977090182,19.68052470285329,-18.05250711524468,1.303602357896807
0.34400000000000003,10.983191752765833,-6.134235122538485,-13.009762295856945,-2.974062698012858,-16.85383268682176,19.99096842778954,-16.82682215846603,1.283122307739859
0.34800000000000003,11.43729338647995,-4.969511069097052,-12.074665473452342,-3.520998557396638,-15.578508603468208,20.016084009281258,-14.947029297765766,1.056342146494444
0.352,12.080367070874672,-4.023289861039871,-12.355221936324597,-4.845348224798727,-14.229568594652392,19.831307805049164,-12.705602195020333,0.9225768281323781
0.356,12.432449769811456,-3.465798378499926,-13.297926305048804,-6.4025594995268875,-12.866874521129148,19.495881840924085,-10.676816986341919,0.8803946834985936
0.36,11.863888439599805,-3.6259518271651814,-14.264316595794071,-7.8730784851971976,-11.688916273994778,19.031293181539695,-9.419120471554379,0.68351368040544
0.364,10.077673465725866,-4.781898449598202,-14.785869973523859,-9.231058692740135,-10.92504429161454,18.48338234373614,-9.132888581266116,0.12629956944601872
0.368,7.40294090009138,-6.88009944766236,-14.632785372783701,-10.591892065337674,-10.66331413813134,17.96736633996943,-9.479921395039582,-0.672844790425188
0.372,4.68017453990592,-9.407295062445883,-13.750647827871944,-11.982279469819787,-10.751774123592782,17.603839959651623,-9.72304739878814,-1.2427287295172391
0.376,2.7767049229130407,-11.57329649087535,-12.236174212710694,-13.262672350970547,-10.902847962080614,17.355634873612416,-9.195768801824443,-1.0789777819163646
0.38,2.0030139116108785,-12.768545659614801,-10.43124254703389,-14.29165108899224,-10.974703259742228,16.883000380883004,-7.8590837517353975,-0.14387826159202177
0.384,1.8180870222483918,-13.021839693740617,-9.05595106495457,-15.211641201260477,-11.249187575628866,15.559724110681827,-6.613458251152451,0.7943926995219499
0.388,1.0423428071608214,-13.136544681903956,-9.143090240725314,-16.584578824793198,-12.452026942548741,12.699082630786506,-7.063316867121102,0.29271923808232714
0.392,-1.496258236355743,-14.335055864394917,-11.654249821582425,-19.179244248029704,-15.404733444898284,7.915852138613218,-10.737387133496213,-3.1211831403272754
0.396,-6.2070007405241086,-17.531929401498246,-16.914804799135936,-23.459833522723898,-20.4677968040736,1.4588586093266258,-18.13419679388494,-10.069399801221152
0.4,-12.300472160781283,-22.632522078952434,-24.185082042046133,-29.063042751587204,-27.097319325961507,-5.66603703949022,-28.112127392049615,-19.687946443841838
0.404,-17.93705486740987,-28.287761401801276,-31.701469927256994,-34.63400803412537,-33.82115982579967,-11.890968333872479,-38.04825523850309,-29.645069955431723
0.40800000000000003,-20.942096226655394,-32.328990530634655,-37.233153969710656,-38.202452161892325,-38.697689984498766,-15.578601576153687,-44.750280737288676,-36.90535727978909
0.41200000000000003,-19.75890469151932,-32.72689984620354,-38.915431757288616,-37.97601832840269,-40.04459190579155,-15.63249892315821,-45.720474052988266,-38.926110768998
0.41600000000000004,-14.1496019905303,-28.59066592224349,-35.97751563396605,-33.17132068170679,-37.103321480176874,-11.935279494106453,-40.18980260792205,-34.714623934566816
0.42,-5.291938201265111,-20.670262530493687,-29.01262322256798,-24.4450975199984,-30.333004929100298,-5.396932613808303,-29.410862478807303,-25.233283812562036
0.424,4.7467403518787705,-11.075259942846174,-19.694999604934992,-13.692694959233108,-21.220266348622317,2.404513747315832,-16.10782193343357,-12.972823791047745
0.428,13.849994415241326,-2.35994290026656,-10.092576063622346,-3.300073677753062,-11.70521475464659,9.796885024381481,-3.364108268587188,-0.9332977007629779
0.432,20.572050264029258,3.550128962953295,-1.926119976761811,4.76434317820258,-3.498984063529747,15.518844036686005,6.505085951487217,8.468658606640474
0.436,24.430641182600084,6.049172334860486,3.8615168891185476,9.556680159450025,2.3905244242112076,18.96162242827745,12.569531341227957,14.074987756074961
0.44,25.739934369571984,5.850821093454101,7.10850926923149,11.220403745090834,5.769202750377872,20.124866695644187,15.203119134384451,16.03314663429046
0.444,25.198110408575303,4.38893233783142,8.115234203365617,10.566065519360336,7.043919000227675,19.40412296395243,15.466740703385767,15.335631828422493
0.448,23.515181487328846,3.021283774202857,7.334482609796396,8.510772588810823,6.898498637806711,17.364688098545003,14.416956388093922,13.202446638952665
0.452,21.2387450320698,2.4721992543538818,5.28848096209822,5.716591314743482,6.052187593611507,14.596707866209726,12.728587828717536,10.64313528949242
0.456,18.777809324968075,2.758881030831162,2.6479452808102906,2.568461557166529,5.145037220987888,11.66224132857269,10.727844493964767,8.324821887686312
0.46,16.476026082529643,3.5039698940306607,0.2673017501247159,-0.6330644806562304,4.684067065040949,9.077741479661654,8.664843913139293,6.649587115452391
0.464,14.61945829268734,4.356052360789818,-1.0153440782576126,-3.5106050980375585,4.963469744402573,7.268055830886624,6.9045134907314605,5.840198325126153
0.468,13.329361840880665,5.207754255383406,-0.7566268952411974,-5.646442661726496,5.964071129926197,6.453855246146986,5.869779343499886,5.905127785335708
0.47200000000000003,12.434714804106079,6.109725738256543,0.7847721065647875,-6.787409650046811,7.321275851551945,6.527785147408849,5.793678425836561,6.528847579089074
0.47600000000000003,11.490417015048024,7.026734278766867,2.6582188402974225,-7.04545419185979,8.426441393292407,7.034711435222789,6.479217964648569,7.045863429017686
0.48,10.005160677259482,7.669522718813596,3.6425707578632682,-6.887470785002279,8.667922392492983,7.3368397285235005,7.299671259974048,6.6400615378120165
0.484,7.792525114805812,7.5885571036586725,2.8847614009753215,-6.862469053048017,7.71780568000645,6.9234851914595765,7.486758679980085,4.7515037726846
0.488,5.204521501557792,6.476572951338426,0.41673064183373754,-7.2158851363661825,5.7218176985626314,5.689315668599875,6.557407492555967,1.471454224879949
0.492,3.035408015077337,4.448028242407531,-2.784534359934696,-7.656488358902948,3.2682232680963352,3.9971522302660105,4.609867039324627,-2.3596080631799623
0.496,2.115420433620784,2.0860897570574934,-5.2913011107052625,-7.4771832660238715,1.118851281701268,2.4857363702660678,2.2837222299376663,-5.481023941901526
0.5,2.8108891746201152,0.1814279700276984,-6.014005764257718,-5.998818321465706,-0.17551159991114673,1.7267904391769662,0.3940889803157006,-6.840719901131138
0.504,4.742082113537208,-0.6912897486915881,-4.851347822997923,-3.089942474176837,-0.5791166552742197,1.925363083827051,-0.5644785402782873,-6.192628475167567
0.508,6.906466590671698,-0.4989662906129979,-2.764358397859496,0.5856435689545378,-0.5995504189594385,2.828692971223518,-0.7041305364821255,-4.300004578676067
0.512,8.164372977581024,0.23569692575711088,-1.1963361913219615,3.796422267229218,-0.9966569055980017,3.8868233862444868,-0.6198555562243655,-2.5819769377450257
0.516,7.8287822081028935,0.7503182571309708,-1.194601157865236,5.341989487110027,-2.333709301883232,4.57074566410688,-0.9482405705023211,-2.359551528907673
0.52,6.012663496136383,0.49042067697530456,-2.7740325944478172,4.686251450517034,-4.633820994185157,4.672632500340114,-1.8868148169974575,-4.105509082110984
0.524,3.5460018114404193,-0.5792955521585554,-4.9475856887011105,2.2509885657495943,-7.34093912110734,4.419646911502014,-3.0153068749173144,-7.1304866937422275
0.528,1.508024935257481,-1.9876597015526158,-6.388407999862011,-0.8011094738674274,-9.597493707528429,4.3230129825069525,-3.5311625805502445,-9.90534331228173
0.532,0.633819468554293,-3.0771885986121106,-6.304237981595634,-3.1753657145051193,-10.67596384271053,4.844877787209043,-2.75201255816728,-10.861327822109388
0.536,0.9388297715120189,-3.421037861102377,-4.985647675038763,-4.111796309094643,-10.341168425178466,6.0837514794397975,-0.591450213476719,-9.233502700799932
0.54,1.77780609575575,-3.0722561862604607,-3.654308828353578,-3.734936434350857,-8.954267644271454,7.675022940234612,2.3050669868796376,-5.474103746935839
0.544,2.2853795016012555,-2.494477764325211,-3.715322612728187,-2.9260853323025913,-7.287905218876858,8.965149507587057,4.843247107059369,-1.0136297310046984
0.548,1.9000750852098918,-2.239797501710541,-5.848793401136618,-2.8051531508041307,-6.153497344045718,9.342636878313897,6.0342510062632755,2.485918173754385
0.552,0.647229961787616,-2.5900174685236834,-9.48328523348232,-4.111945489866457,-6.012048542045704,8.530916811437464,5.515700813285093,3.971235833798687
0.556,-0.9580253498284037,-3.379880897268663,-13.004781390558037,-6.820509549088911,-6.768492138394436,6.687269845170249,3.7225998653862007,3.4688414951064033
0.56,-2.281874415258926,-4.102920908292731,-14.596800915036056,-10.151656681964482,-7.838576416476258,4.281698851213378,1.6249230916082524,1.9570615558579902
0.5640000000000001,-2.9565442200855614,-4.213617954256392,-13.256528472094942,-12.948081843165369,-8.439771986824667,1.8521285779577283,0.18206365371929678,0.7463031476112292
0.5680000000000001,-3.049184328670435,-3.4400495415878822,-9.382333208262253,-14.19272726280417,-7.947708688112584,-0.22718069104325878,-0.1511013695710517,0.7422735893757135
0.5720000000000001,-2.9331180314238736,-1.9245404979316163,-4.581854581414291,-13.412888259353736,-6.142938558062042,-1.8547926731653206,0.41120851236132694,1.9976289975301142
0.5760000000000001,-2.9783351632645463,-0.1252736016469953,-0.8402021642284581,-10.832048465237108,-3.2735173474467274,-3.158604385346962,1.186024657397411,3.7651744346650275
0.58,-3.2876710573418677,1.425897167722951,0.4781455032905342,-7.25928306616197,0.05228651281117891,-4.350593388990092,1.4512413483703313,4.974317530132225
0.584,-3.6414638308128815,2.366463348310731,-0.7833567580454428,-3.8093286974649345,3.060687828648952,-5.5703072360699935,0.8211251309382988,4.8206304951845595
0.588,-3.683951263201834,2.6074861607904722,-3.6604283941610447,-1.5554744027377865,5.018673787575835,-6.81397567869476,-0.6325065617711516,3.130834858649564
0.592,-3.218538171460068,2.266118775193945,-6.700391775844423,-1.2103022343615066,5.411607489364428,-7.980819869151219,-2.527292800736859,0.33636742769772354
0.596,-2.39703634527541,1.5159858373773432,-8.751559985676408,-2.909680915641161,4.061290040115864,-8.973029506494868,-4.462587988282621,-2.8591917189211244
0.6,-1.6839885971044168,0.4517177313970251,-9.469596534833045,-6.165614665087901,1.1564304610170666,-9.768383870451999,-6.256030740786173,-5.868361042621132
0.604,-1.6056758026622902,-0.9414685645994041,-9.329380492446262,-10.031591916414868,-2.8133440108845207,-10.410586282337135,-8.00858930280674,-8.425402654026811
0.608,-2.453136630975223,-2.717443703072604,-9.207188347695023,-13.441218819677829,-7.195921295307471,-10.942156043592831,-9.978959627356971,-10.521819924994247
0.612,-4.151334941433106,-4.877251304779406,-9.826370244627128,-15.618412462805736,-11.352599883572452,-11.35996559733394,-12.37521814874151,-12.181867024861958
0.616,-6.349949055595289,-7.314527515804571,-11.407265656957065,-16.3960953428234,-14.82280044550248,-11.626960025320614,-15.211735251793243,-13.281091922591372
0.62,-8.653154164062244,-9.830223909025904,-13.665048950324035,-16.273612167514898,-17.420597363669458,-11.72506086876092,-18.287030364305224,-13.551267492062266
0.624,-10.822314081885224,-12.191924899669516,-16.091865700540893,-16.168702114697794,-19.22560417534453,-11.697969346141008,-21.271775140148065,-12.767078167847671
0.628,-12.816854187607987,-14.18743962421172,-18.262456628798304,-16.94440666722039,-20.443220974406586,-11.641303923800251,-23.795219670043366,-10.954827979140191
0.632,-14.680303084753632,-15.650199172072007,-19.957295386730834,-18.93532053824356,-21.194109235997303,-11.647494731248571,-25.46918636388409,-8.45161866637602
0.636,-16.370561618254214,-16.455020501820513,-21.08217535593724,-21.7341806187477,-21.352128526530635,-11.737024960009649,-25.87763677820658,-5.753300946456989
0.64,-17.668649242703623,-16.51768069349737,-21.498550188792365,-24.36023275728735,-20.54132339826708,-11.821789277488733,-24.606521288671047,-3.2426553456376723
0.644,-18.24125124519196,-15.819839101248135,-20.976984907481665,-25.74651428171296,-18.342716595111312,-11.735833685941998,-21.403081451546768,-1.0007358068970689
0.648,-17.830371716381933,-14.455818856949463,-19.325128779559236,-25.277154169901905,-14.604004950165688,-11.337809537007388,-16.413850660324215,1.1466437755036054
0.652,-16.440106464265682,-12.657251472804944,-16.579957291777646,-23.074123967743844,-9.662314647539347,-10.628809387273805,-10.346928287066476,3.360213971249948
0.656,-14.379259389822892,-10.746272115055774,-13.109565022241895,-19.884413209340664,-4.332946433088068,-9.80407669285296,-4.410609928916529,5.477379608008505
0.66,-12.11585557393937,-9.022059293753784,-9.50595047838533,-16.638540999992074,0.3725959964033905,-9.184887774390972,0.03376965223367279,6.908918060943506
0.664,-10.020553537407523,-7.627027295669734,-6.327038039422632,-13.96017634640765,3.659368897201716,-9.047092583452809,1.9719455948678615,6.862851576225182
0.668,-8.176786340848139,-6.482075660667192,-3.8313976081482224,-11.914136527946937,5.274886785396916,-9.446617948331209,1.1701509584858059,4.800002735292196
0.672,-6.3955974042917205,-5.350670275446362,-1.874394836429019,-10.123035876547988,5.571832334092051,-10.158735023072722,-1.6898514565516507,0.8527369847997761
0.676,-4.4228354665475536,-4.003208212610616,-0.0634770527915407,-8.160315600436945,5.252454302410229,-10.77328381054349,-5.279262006767112,-4.074300258046151
0.68,-2.2044230164572127,-2.3974910203774016,1.919477733381541,-5.948570719944314,4.92786351625233,-10.899060659221504,-8.183144091174768,-8.634707667566659
0.684,-0.03269675929186633,-0.7629188619849856,4.0079456228727395,-3.91594421992221,4.73992786773772,-10.365321118552515,-9.503522041191673,-11.653841040486611
0.6880000000000001,1.5430893111857813,0.48588920522155377,5.691427654831955,-2.791341530498869,4.292412862729748,-9.312595303292028,-9.19075755379913,-12.681150315103821
0.6920000000000001,2.0017474592556255,0.9744423805512383,6.290745647762492,-3.1479400546855913,2.9650709578614283,-8.121677147046853,-7.930391583275309,-12.156809582122264
0.6960000000000001,1.1459106784813002,0.59569902908936,5.385079167740969,-4.997295517678253,0.4063942484181098,-7.226849928497813,-6.689962894275027,-11.090147517860544
0.7000000000000001,-0.7578569016714027,-0.3949573080624873,3.1325785395163166,-7.694016343513056,-3.105774760932377,-6.900442055935287,-6.180626843122695,-10.430837766622687
0.704,-3.0667339275664744,-1.4762118459597673,0.25695293956550813,-10.235189964209155,-6.688546265292416,-7.105977038546143,-6.533593583910147,-10.502959867234608
0.708,-5.060816971255463,-2.128828607162461,-2.3041369745747033,-11.795559571499382,-9.29314427603731,-7.506696847906937,-7.341156413212616,-10.847318534313729
0.712,-6.282150903453157,-2.128953718914545,-3.8774994412375463,-12.175884835829436,-10.29775240667766,-7.62544159695608,-7.985007142849668,-10.556136400592607
0.716,-6.709560587417059,-1.6835951495194763,-4.377107509137659,-11.900212115603608,-9.888038098221273,-7.070227371053306,-8.032994936500131,-8.883217795206633
0.72,-6.6922525414017855,-1.330686961192498,-4.264207889419822,-11.890385441440344,-8.965361620361023,-5.712016782751903,-7.451151471739081,-5.744729563723354
0.724,-6.681528026826641,-1.6262521008418958,-4.189355968846598,-12.901045180595816,-8.598558911754651,-3.726826652217369,-6.54675618018598,-1.7973632323285642
0.728,-6.932602096860933,-2.7930330980457256,-4.523531291312679,-15.033142114489294,-9.319767709029009,-1.500584390801805,-5.697465473463126,1.950776816054372
0.732,-7.35982743085674,-4.53105251268903,-5.06177058971673,-17.599924985640087,-10.68506076053734,0.5273484559082817,-5.05872772564544,4.741391611846893
0.736,-7.621470497664973,-6.107340519235947,-5.097060086469128,-19.435043881308786,-11.406385503802483,2.0075160796953924,-4.4605475094292615,6.487307796873665
0.74,-7.374125153364616,-6.704579136103291,-3.8171800507688545,-19.48474695164657,-10.035810188541461,2.757958453818219,-3.552724456578062,7.735011734341697
0.744,-6.52337628026396,-5.842988050464385,-0.8166664637331564,-17.374547999298102,-5.85446949519843,2.7688811070953534,-2.11669519102918,9.18581106407106
0.748,-5.31415416497282,-3.6472442425802,3.5946117516791105,-13.634037126690316,0.5489103247922458,2.157156746839064,-0.31609785341288443,11.086858004399346
0.752,-4.215824059648071,-0.812037448125011,8.482545244628966,-9.458884339849703,7.379724499402187,1.0967307148731607,1.2985005985216276,12.895264766209266
0.756,-3.6684163767258724,1.7232282323361687,12.711898444916073,-6.148417251556225,12.406212489253392,-0.22735021541734568,2.0417822649554864,13.460252235837459
0.76,-3.834114381554741,3.2201983405515193,15.472274324962655,-4.508350602488974,14.007945758693268,-1.6349255971725825,1.4822284595650217,11.656996219484881
0.764,-4.509799061853641,3.4692940919703688,16.577136416057954,-4.540824283806273,11.939254080912463,-2.952457316383061,-0.28114179256499483,7.108873284526567
0.768,-5.237229366048155,2.830030488178295,16.398191002034707,-5.552669680737836,7.408470219776518,-4.016589768934182,-2.6223720489469997,0.5619764208457809
0.772,-5.552948007681721,1.9731149935267354,15.520125316945325,-6.589205490699555,2.447856662631011,-4.704429667523982,-4.669740284355612,-6.333011968467758
0.776,-5.23922776112056,1.4780638609577181,14.32875126123406,-6.950476713253238,-1.0887016519746453,-4.982712500353841,-5.732315594117551,-11.7436099635255
0.78,-4.432545612101649,1.5161933388930038,12.804211594109347,-6.5022112527944955,-2.3642771168758827,-4.937197178391102,-5.634475188320607,-14.49320880559867
0.784,-3.5264184405277774,1.8067818489631122,10.613090497845178,-5.646523946312129,-1.8245347140549484,-4.748012180764022,-4.787814989092169,-14.554671191648424
0.788,-2.9389064747809925,1.8506342528417008,7.426449546516892,-5.005198407754904,-0.8013349918650192,-4.611894907792134,-3.957195487231843,-12.936131115966305
0.792,-2.8858980172626616,1.2884720952162638,3.2584073979142545,-5.017141070861271,-0.711701226885566,-4.646682942577854,-3.8418873432989358,-11.046747453192609
0.796,-3.300765594034374,0.15577837908836045,-1.4130053605144894,-5.702775297328458,-2.3128183360064725,-4.828725936366709,-4.705584963510603,-9.915271851946727
0.8,-3.9484073461843536,-1.1342171867153183,-5.815595272829398,-6.712553124280703,-5.395453820513524,-5.0056157688192116,-6.233734147335326,-9.695698857279524
0.804,-4.634424756689555,-2.0559597714164966,-9.263601946685355,-7.605458509255698,-9.025666650788224,-4.974500436857397,-7.698006142965596,-9.708877741338142
0.808,-5.371064266102621,-2.3092360912759773,-11.497417923111527,-8.161651793963813,-12.120491520933797,-4.589459209898791,-8.315212775188456,-8.946791175753503
0.812,-6.398635502999355,-2.024285105676256,-12.768375481099099,-8.528761230339683,-13.988752388593923,-3.8561457956989216,-7.60916587058216,-6.723969114935187
0.8160000000000001,-8.024164761629322,-1.689751067802149,-13.62687954283092,-9.108702729179981,-14.550350781784857,-2.956058446522661,-5.613059110855261,-3.0971970450164577
0.8200000000000001,-10.34465932749606,-1.827905109525716,-14.51244648340412,-10.246660658798191,-14.153782525674615,-2.167557746567695,-2.802625938183894,1.1824636502522594
0.8240000000000001,-13.031604539888463,-2.616112884529855,-15.42771953419367,-11.942177685275112,-13.18377114606102,-1.7171601548599256,0.1539409803295939,5.110034005185241
0.8280000000000001,-15.321916578967489,-3.696364296905699,-15.890043831652747,-13.748967707696295,-11.738810582507142,-1.6339913917212243,2.690013332416868,7.973124825117225
0.8320000000000001,-16.27673886367586,-4.317487984546403,-15.187506437463753,-14.932614680175107,-9.579494482810873,-1.7026175228967304,4.547711174448466,9.679143382168604
0.836,-15.212746637378245,-3.7448797690520905,-12.818276405397341,-14.81410881345522,-6.37525220822792,-1.5597494343451217,5.795287742300729,10.681053199124676
0.84,-12.094987277280438,-1.7097353089844205,-8.84588874529436,-13.096850036211208,-2.0705546055863238,-0.8986689213121508,6.691575796161487,11.580125438170342
0.844,-7.660901055125805,1.378569696305135,-3.978345385132968,-10.005829288568577,2.879182257544471,0.33824736694964486,7.476609366625269,12.669188636767132
0.848,-3.188907044500638,4.588468088491368,0.683197125977415,-6.180756113584124,7.560521890320047,1.8851022946276998,8.218223405221352,13.702885193806452
0.852,0.015449555558120665,6.923832388563966,4.115749917183052,-2.3907369520764234,10.952857349390825,3.2500238906616232,8.810818234834812,14.031687359979685
0.856,1.1934832366554247,7.840325869599894,5.812782234660631,0.764384213975319,12.39574935673349,3.950736717092127,9.101708439698768,13.005528512043384
0.86,0.4840807532185636,7.518965459130442,5.972357734385753,3.023774057244623,11.907024616704888,3.766577319927478,9.05887037068345,10.399719942048677
0.864,-1.1273783805955304,6.748219022041383,5.319568411532771,4.437111067796707,10.161539843601332,2.875399533812015,8.849328087000458,6.6002352248456475
0.868,-2.2641865610066816,6.4714088709844475,4.674335585983613,5.1958848484256634,8.136428171835263,1.777621158432737,8.762804512496302,2.441584763062906
0.872,-1.8111102243919959,7.258743916440807,4.5261302925675295,5.466922537490063,6.627233382627367,1.0365073504557358,9.027304171647529,-1.1915888219592432
0.876,0.5547757315873696,9.002240574105997,4.826775026907967,5.3154185206073805,5.884302144755964,0.9701221128273687,9.613152022255065,-3.768627209593859
0.88,4.212464379573987,10.995273846928967,5.116916406765085,4.738383057516188,5.561911764219957,1.4707829513610022,10.176372834589529,-5.285582846489319
0.884,7.905435862367028,12.339701255346228,4.863858180241948,3.7403870787959477,4.988393528441918,2.064628317382926,10.178906542690243,-6.129840507142546
0.888,10.354024426126443,12.430027279459608,3.810436312614229,2.3850347900065003,3.6009638831922928,2.1876968711799805,9.156036603304756,-6.742048230858529
0.892,10.869808844345755,11.248654241022706,2.1525383816963313,0.7933183675495172,1.313178068900612,1.5303117397753567,7.003971964351251,-7.295749053847317
0.896,9.667701603480111,9.32398545858544,0.43768429449215773,-0.9006643981699085,-1.3923987100458248,0.25435240820905847,4.103254643405251,-7.595864921023832
0.9,7.713789055409052,7.390844549837112,-0.744924798178431,-2.5859426351926516,-3.7003711008259472,-1.0543430384863655,1.19653939379441,-7.2540589105142885
0.904,6.207892432780227,5.981532134637689,-1.114502101218477,-4.177558545314696,-4.900284268305029,-1.676774475529328,-0.9531218862410356,-6.0177015063466115
0.908,5.97228377665283,5.183939524241396,-0.8735763911487311,-5.59272899753114,-4.777625202148101,-1.1422570620602528,-1.9491911569627405,-4.032520075573075
0.912,7.054850525846632,4.690872956665828,-0.5915599226958648,-6.72056442537712,-3.7303429285427114,0.4995555839387862,-1.9654667828302195,-1.8574563517618117
0.916,8.75711802188846,4.095022383861306,-0.8620983461809146,-7.422737088537701,-2.5326150448452154,2.674414180634244,-1.6382829436574298,-0.19702275320514673
0.92,10.06574576210005,3.225968604990726,-1.9039910427204063,-7.559882682062835,-1.8619001602808112,4.5520659833912305,-1.668475005786604,0.5032267636505594
0.924,10.26077433313128,2.322448951643082,-3.3514249922361614,-7.023300441569461,-1.8609725833405264,5.455362009876353,-2.3609870719252513,0.3538260700249225
0.928,9.362487399830115,1.9332196465406923,-4.356597570873987,-5.744992366276733,-1.9896003278184367,5.193435015562727,-3.3636801233184315,0.0223443801911003
0.932,8.17541928218543,2.6044656371195742,-3.967964113885955,-3.682934483683482,-1.2603274243314218,4.133867453477478,-3.7833271802160198,0.4051312478749196
0.936,7.892641140961814,4.5435485585758215,-1.6220935872742075,-0.8264363798010663,1.2363411678732064,2.9831274713758376,-2.6653241753876955,2.121911542098246
0.9400000000000001,9.44397031532003,7.445461575966192,2.507425955424196,2.748055312915824,5.782611154719575,2.4015461175746395,0.42167763248107804,5.105217712945432
0.9440000000000001,12.93355411410846,10.585020428096016,7.464414134982235,6.766248621215652,11.752345500097931,2.664317237249861,5.011476831039545,8.518036157361507
0.9480000000000001,17.469815223720843,13.124678350653141,11.82286615784119,10.674759530696235,17.771276471275485,3.5464073031671433,9.813151349085388,11.073726591204831
0.9520000000000001,21.487494225514638,14.468085641344715,14.246990417747384,13.694930928214376,22.26286704559118,4.478594670643588,13.243548457827956,11.611724916578055
0.9560000000000001,23.425116553865337,14.481839153975557,14.037775876043497,15.052338080743652,24.112760820330948,4.874918004099527,14.15159897524336,9.64601759809733
0.96,22.423105288973375,13.474847665911966,11.430700411826592,14.311859275903998,23.122335969645746,4.44162018770362,12.373627713294354,5.6156534846257955
0.964,18.717516849706954,11.975024032250644,7.486922547343966,11.65265761117621,20.023469998957125,3.31799516951196,8.805782996969128,0.7221727157735813
0.968,13.534888992341848,10.434882585625814,3.6236475486532527,7.897337503922472,16.06147207000822,1.9896842609152827,4.952361148153841,-3.5660435730760582
0.972,8.54194409550837,9.023285165932748,1.0073770362730556,4.222429324486939,12.377857485952063,1.0287348234962792,2.194255358841815,-6.101080728452871
0.976,5.136793112321584,7.6150428403900605,0.08808795746654141,1.6599512906129803,9.522872255903735,0.8160795786566268,1.1563347636226808,-6.456768235408617
0.98,3.905513266837943,5.953535129619695,0.49725743758210683,0.6383180399793673,7.336813564444128,1.38506848407269,1.509879096234954,-4.979347221850503
0.984,4.493442588887092,3.88685821625063,1.3239355818608374,0.8098944721709813,5.220574408111133,2.4525873988504827,2.2700222691198633,-2.505999132246643
0.988,5.911539977446864,1.5335161753559987,1.6235866305396485,1.2791169845160084,2.6142569755680825,3.5973352270780197,2.402179151003338,0.07882025312369478
0.992,7.080528488145774,-0.7193909531930558,0.8994908993697663,1.1290346271671297,-0.5990438576070574,4.464361849421721,1.3910830048398566,2.2131585736372017
0.996,7.333608917298989,-2.3714417305272946,-0.6855769128619613,-0.031711627733329806,-3.970972013424671,4.901175682699886,-0.5279659720265499,3.800673587500796
1.0,6.639611202581364,-3.033524742951613,-2.434526714447202,-1.7993669071595377,-6.682677460863033,4.973463152097565,-2.5503048025500448,5.103286897326598
1.004,5.4878792595386585,-2.5980643547898126,-3.5112751530202786,-3.148285677562626,-7.9343686078352675,4.882775998793022,-3.765167524529261,6.485946413955844
1.008,4.557978618240668,-1.27004631899149,-3.366896987088012,-2.9451827646305446,-7.300021760616119,4.8563239968070775,-3.613040403369723,8.180153085856546
1.012,4.378846421911021,0.5497994594627471,-1.9538380233536827,-0.5226233730973036,-4.860242522472845,5.065692540574673,-2.083746503654538,10.185553242420838
1.016,5.159435073006762,2.4650473003482603,0.34960010978034006,3.9903936881098616,-1.0816120135273195,5.596177149152027,0.39357141509617577,12.325906578765967
1.02,6.816175931155158,4.235681156304963,3.027283223508448,9.739556861545225,3.435655573589429,6.442659859539162,3.246058177755458,14.374747728755551
1.024,9.113081067573603,5.80858584611974,5.702852430701114,15.533266971391868,8.161515414215273,7.514351193376797,6.018378704288352,16.147124025187395
1.028,11.794595714721709,7.24131342526357,8.24726523161985,20.320029795557957,12.699312087473345,8.64396140592521,8.463645506973307,17.505421264491133
1.032,14.60630709246152,8.581545789857842,10.684278041309426,23.50502146415465,16.719976960333042,9.606008323862625,10.46529298126461,18.301395914457885
1.036,17.223236422893024,9.797845428073629,12.98994885647403,24.983518047373536,19.878047065285728,10.161300941503441,11.900736649784449,18.323881608157762
1.04,19.177921823143606,10.799448585836899,14.978552614662476,24.957071058743622,21.8266979056026,10.126118269115523,12.606073548280847,17.322973712617795
1.044,19.911092047201237,11.52703445799284,16.35568166275243,23.700445850303822,22.339115062481937,9.445737121355705,12.456354476922115,15.124703615101225
1.048,18.97088003427598,12.032336966309003,16.913458871739067,21.445359238016408,21.454645462485587,8.235566839036437,11.49991073404317,11.776392950778472
1.052,16.276529270800893,12.472805978155293,16.726415438055255,18.438759141656874,19.53237226235092,6.756685302227197,10.027812746804557,7.63194055872782
1.056,12.290753263870101,13.016685478281033,16.167366781961846,15.069325546241316,17.139674973330557,5.330071818113538,8.477443895934584,3.30701505138245
1.06,7.953766527942207,13.708168623181109,15.70838293530187,11.906539186000145,14.817213818834034,4.223597479110595,7.223683741886589,-0.48743852710663305
1.064,4.373650956421443,14.393413232326566,15.594231866965856,9.556053884912217,12.837849192533668,3.575071907102938,6.374358401053996,-3.156418210175161
1.068,2.3915733017570346,14.763469972279381,15.606027565995191,8.37480937884311,11.102247001488195,3.3843199336579346,5.714647411945407,-4.381294844775994
1.072,2.2227407058921926,14.49241279040757,15.111868617287655,8.2119085613283,9.24276632586384,3.5602693596424615,4.85806261107291,-4.163965911962123
1.076,3.354583987953447,13.39213690717952,13.402217714327662,8.361667619333275,6.873457078099591,3.9840708587844347,3.5009148734693554,-2.7602784467042056
1.08,4.743734006357954,11.473844653890183,10.14196271100036,7.812594364986808,3.840142671798503,4.53331050619272,1.6361077028800537,-0.5671133136449953
1.084,5.265556146898234,8.903651069570287,5.658746007985428,5.7167093764321635,0.3303491638887408,5.076504048648985,-0.42005532506163945,1.9789888151292416
1.088,4.224200257402117,5.905106232984508,0.8710827354143476,1.8648199221868254,-3.2129452408055386,5.468735935315635,-2.1981526246586327,4.466200051884698
1.092,1.6788499745744048,2.6978255778312814,-3.11288743885234,-3.0812585577332356,-6.289613046171553,5.572539712369689,-3.3156602690173713,6.550824177483946
1.096,-1.5431641757700163,-0.4560079765562932,-5.509109857458952,-7.740520577242933,-8.514252596702818,5.320629267165259,-3.6416044001166483,8.01005425748167
1.1,-4.156428746055099,-3.140845290873358,-6.160349159843008,-10.49778159594166,-9.656268146521597,4.78463920576587,-3.273038074640681,8.806188874402096
1.104,-4.9235515355339885,-4.736365549930042,-5.475402604833562,-10.135643793885265,-9.571983678247761,4.191710276655613,-2.3842180657238714,9.120201815165046
1.108,-3.1449463905719313,-4.5470640597200145,-4.064169626344665,-6.340051433729968,-8.126525248811049,3.8538839853645186,-1.0753956286630455,9.29466020529685
1.112,1.052127609631043,-2.1308587462776813,-2.3075709490703957,0.13336540305135713,-5.210383741015676,4.017799765877498,0.6595862562344337,9.656312363006691
1.116,6.725283252698773,2.314790735907536,-0.1646279111637341,7.689719792111873,-0.8869218436905157,4.704311391665215,2.813249482783249,10.282619301151271
1.12,12.428723638811789,7.762416522645026,2.6870564758905857,14.442508290581372,4.431415116090648,5.638454450098379,5.221070673328995,10.858085896636112
1.124,16.709987413976705,12.563441890245485,6.467198400837788,18.85309507538227,9.925511820241809,6.341691420639563,7.503206644784768,10.742672129106268
1.1280000000000001,18.59971096839763,15.060409942868318,10.93867986233181,20.21303700528688,14.541362526390685,6.367015075398285,9.183504257938239,9.278912736686152
1.1320000000000001,17.913111939304144,14.357862372240106,15.359719612362824,18.801479630247968,17.371976540153582,5.555585013185919,9.939162054727603,6.2112742704673565
1.1360000000000001,15.251299165360251,10.852789447499163,18.78641946325206,15.674418395769635,18.065123425350748,4.164896698252505,9.799525647161772,1.9790765514576378
1.1400000000000001,11.688846559382,6.172728760939208,20.55954904713508,12.190002041578282,17.019859355157678,2.7693870652374244,9.156059475388702,-2.325211690068727
1.1440000000000001,8.297013344541483,2.481071502044415,20.635749456151643,9.453489115496495,15.213704924186914,1.9726245125511923,8.527925778932968,-5.376524017085103
1.1480000000000001,5.719859970266043,1.456528631139463,19.541260830447754,7.906187280514132,13.717172852451768,2.086215310285752,8.22353222945867,-6.227497097594778
1.1520000000000001,3.997935626648541,3.465860011507857,17.992977632189195,7.232293283631861,13.147552047947102,2.961987286841577,8.134312515721376,-4.776992527122047
1.156,2.713732405945848,7.388554688292061,16.4274612707095,6.611545767338612,13.368861187246921,4.087142869160743,7.813688353377074,-1.813383037876065
1.16,1.3587183072168045,11.212003893105248,14.778571564303547,5.2003869479895,13.626477633785726,4.888227407111117,6.841659638345391,1.4255446469574053
1.164,-0.2777612548261459,13.094043184176826,12.645230711848853,2.6072199177579023,13.035608836554047,5.076990667665996,5.224863879458553,3.939945008293307
1.168,-1.9333175517758718,12.302955236543312,9.720639005042358,-0.87448121717307,11.125542241156381,4.829372980080734,3.5328561734313553,5.494658075055668
1.172,-3.033794770899476,9.50872032135294,6.175145468327628,-4.398578490616728,8.108745261408785,4.668016000717216,2.6274120953908096,6.643190408005921
1.176,-3.1050925184126754,6.267166267972698,2.667300918671117,-7.011057841785714,4.695115555792199,5.098336323330841,3.0708296562811483,8.194784649039775
1.18,-2.1989537873905647,3.9897153940664793,-0.06577526113596832,-8.175268911903459,1.5635854918732548,6.197604812635291,4.568449465808499,10.431484363786694
1.184,-1.0543789542416562,3.019126077501369,-1.8030267284329966,-8.107508393811258,-1.1739969752261459,7.420499210607886,5.8162046323964205,12.577121954784161
1.188,-0.8438942815846531,2.38013587501473,-3.1953841318068044,-7.724991130488888,-4.147958338897752,7.768714029405601,4.941001890641928,12.922111506874899
1.192,-2.5821094985521995,0.39003060643108256,-5.540397715457857,-8.188655051675596,-8.363517980091274,6.272958292122894,0.4067633891772857,9.644565725079246
1.196,-6.4899095619775835,-4.190931159915635,-10.00918609269138,-10.252995389097123,-14.449315355643648,2.549442789749264,-8.058909523359944,1.9326688804412697
1.2,-11.67645368675312,-11.144020102334707,-16.70039432359181,-13.740965003723886,-21.93319321499257,-2.866707559652241,-18.997071297422735,-9.208615154987456
1.204,-16.338359873439913,-18.520729483777814,-24.122100059682907,-17.437066742124898,-29.018674754770927,-8.599803433919988,-29.530763192440645,-20.98720106708015
1.208,-18.4521745622269,-23.360581002938943,-29.52338427460063,-19.509066313603398,-33.1000154238759,-12.924806120506219,-36.38068479204139,-29.794762064859697
1.212,-16.649365671385567,-23.070468125235493,-30.022310990277674,-18.282210969284733,-31.837892856967756,-14.453432340440486,-37.136928131058085,-32.70367051886569
1.216,-10.849356595605968,-16.752884458667722,-24.02222949455063,-13.0224149677083,-24.294439779931054,-12.695785373327453,-31.219429543392835,-28.76597979088183
1.22,-2.3683405547953953,-5.802530096787905,-12.160953912616606,-4.364385736092117,-11.54516424124813,-8.254080019530193,-20.081583284299086,-19.457467868685853
1.224,6.5646034287019575,6.5652749712808145,2.7284120018312024,5.816012794892231,3.559378719630786,-2.556574480533527,-6.6026970523716955,-8.030697439273808
1.228,13.653468204352066,16.63048296721945,16.686507520238592,15.031293200069285,17.395436140629045,2.735429181334439,6.023217424472023,1.9093225805636393
1.232,17.344238889488224,21.667639955441246,26.229109503588916,21.035569400493387,26.871062017369695,6.3658871927136715,15.393019210683633,7.906784691313533
1.236,17.257221323966405,20.91846563414674,29.68753694449788,22.53259584369198,30.42700849011908,7.890922017444609,20.52837331067076,9.521110003578542
1.24,14.094579907446132,15.61265367093256,27.67348963503173,19.473411837746426,28.315968762808552,7.698924807655203,21.863261083116413,8.197706526730144
1.244,9.150424601349187,8.130446267624393,22.473195671445865,12.873342970952763,22.111526401861738,6.676945071145383,20.68836551428285,6.288154146096986
1.248,3.7135283093766702,0.8116910299609117,16.752788865562252,4.302466489320523,13.790438381695822,5.717764675999206,18.405706898591234,5.778480932202456
1.252,-1.3544931037013157,-4.968309935297839,12.299438462106991,-4.669306467617389,4.914999714030728,5.313140575011857,15.976978315875385,7.383176054274372
1.256,-5.7079574118624805,-9.043803099314118,9.41011680014617,-12.838169406017641,-3.694650930743137,5.406608532930477,13.75458262346001,10.397350641743742
1.26,-9.338340395343948,-12.043725142273615,7.173947950702313,-19.446036252904378,-11.73505793025106,5.5316933748581505,11.684062605284453,13.28148447923104
1.264,-12.291863722627568,-14.655846533965814,4.367808512240117,-24.05357838181726,-18.917362925683847,5.141195425347178,9.669164444023409,14.593356023102842
1.268,-14.472867998888432,-17.042040351369906,0.38662114894759725,-26.379380146456242,-24.602073499869675,3.95247345345706,7.84263085875682,13.744750387448676
1.272,-15.624487907287403,-18.724984697193122,-4.315859794448443,-26.235629122707905,-27.850221396126017,2.1318146782923577,6.5914814002981075,11.220621794205726
1.276,-15.458355885015408,-18.94489135297863,-8.48671394792109,-23.606848996663302,-27.880533542253488,0.23301473338688083,6.339636745120515,8.214319884822999
1.28,-13.83017721734177,-17.221355511273032,-10.793910157763094,-18.785328484692855,-24.62613108446567,-1.073921109859839,7.261126184032037,5.940080616894193
1.284,-10.837287177021608,-13.739866573304425,-10.564727400177617,-12.433040197309765,-19.005147227109774,-1.3310238832282266,9.102672049272769,5.016229387084422
1.288,-6.799135523883706,-9.337960527808718,-8.12458813219746,-5.482832583439631,-12.68716089359259,-0.5102283638962035,11.228872712346856,5.2230452651356245
1.292,-2.1744729297388403,-5.131140307539681,-4.571040360252482,1.106934325792281,-7.433609655908185,0.9798324675866752,12.880979622980703,5.716751369217491
1.296,2.5461908705001406,-1.987713811411595,-1.1571621404882535,6.634124020600666,-4.340971810544943,2.5065675763962645,13.511444980816123,5.5463806314596695
1.3,6.914407920947269,-0.16292398438190503,1.3681826180545613,10.830584425699271,-3.386793298539942,3.523993678111765,13.037433957548274,4.183702615152015
1.304,10.560147212245283,0.7174672396076858,3.0812708760322494,13.840070302814183,-3.5389169687073263,3.822187556183053,11.853399493668803,1.7932135226569699
1.308,13.213371376416035,1.345314747536122,4.712162652376719,16.0091165780741,-3.372979583887627,3.590993542085016,10.594274516976839,-0.870420274987282
1.312,14.718370563252392,2.27261301335011,7.116506732230846,17.602986898135896,-1.8571032496352018,3.26264106450526,9.773792417626282,-2.8647452629525105
1.316,15.049337758639012,3.5733455967888403,10.68927157339931,18.60301155909565,1.117344395130658,3.225265499228044,9.481095562559858,-3.547926283052675
1.32,14.30127674203868,4.793503972577128,15.05000453143839,18.698965625994788,4.727082731427345,3.5673701171454013,9.325760643496324,-2.900673330738755
1.324,12.635789572676003,5.197973262989763,19.130349572244995,17.456774585379208,7.675312376250986,4.0023641667921765,8.655909421167962,-1.5331407330968432
1.328,10.204397064113436,4.166808541518549,21.601794061560213,14.555301328093265,8.830334296967521,4.021534377161515,6.9385789385805765,-0.381394993610229
1.332,7.099772779527484,1.5269900571638573,21.438644094499978,9.972599207578241,7.699667690822935,3.1954944691260607,4.113088926616911,-0.24160621315695607
1.336,3.3716142648499954,-2.3387948272802532,18.348478533746857,4.027381334664824,4.510580831752122,1.4566217855681316,0.7056699218410358,-1.3704743573398446
1.34,-0.8953641577336384,-6.649708145673685,12.914578233641805,-2.7156448155728867,-0.059356513564125635,-0.8110255716728716,-2.3619728333887906,-3.354160702027002
1.344,-5.4874293939046765,-10.556145609188206,6.377723385759964,-9.614808415718471,-5.27985045418518,-2.929420953250883,-4.208393073544357,-5.311741148671899
1.348,-10.016225232096986,-13.472861250415008,0.15782241721080936,-16.09724764161274,-10.633467056210065,-4.2500610101869825,-4.451989369202238,-6.336238220399537
1.352,-13.96713225673193,-15.260256936976475,-4.672945608081136,-21.71046485206807,-15.804837719630086,-4.4725987844230986,-3.4383117133675114,-5.9516171650629985
1.356,-16.837878152573467,-16.179951976400844,-7.764466081757746,-26.093202178913998,-20.47729181286195,-3.7823239524750534,-2.1186317096335188,-4.356401207513045
1.36,-18.30821229574576,-16.669638436602327,-9.53773953286509,-28.92035370895701,-24.14369704249566,-2.7322697061808867,-1.6018023715714662,-2.320756193706984
1.364,-18.334469892995912,-17.056815922671376,-10.908244154521526,-29.8978634564819,-26.133320257847117,-1.9356337756598805,-2.6137007478064334,-0.791956486991694
1.368,-17.123553632478433,-17.366418775880447,-12.801821590808686,-28.83640940413261,-25.902132130010614,-1.7362978509336244,-5.146118728536749,-0.41452357605339785
1.372,-15.015917951506708,-17.31682396328415,-15.66912145464903,-25.77067314487249,-23.42041417800101,-2.0407004016524297,-8.472681387811463,-1.2208241806747537
1.3760000000000001,-12.342350505397917,-16.4948318298475,-19.236386561014115,-21.049404694615987,-19.38611723422582,-2.403796778015021,-11.5272260222373,-2.661540298593536
1.3800000000000001,-9.344186811875261,-14.625033007921957,-22.589626184664667,-15.310051290330193,-15.061357452120319,-2.316992540807405,-13.43735127409309,-3.9588009544959277
1.3840000000000001,-6.19474564025586,-11.785472489355925,-24.578352271467338,-9.338285050050217,-11.769177055169166,-1.523225062430356,-13.95140791697304,-4.581577877535892
1.3880000000000001,-3.0758275823936856,-8.456433142652713,-24.358163680190955,-3.869297334793373,-10.299428504853495,-0.18100226702154032,-13.534363419226793,-4.5722739822804215
1.3920000000000001,-0.23669121704006102,-5.3689698394882726,-21.802491482098958,0.583014448542599,-10.548398869998891,1.2019619815291662,-13.083377215305518,-4.535120334795465
1.3960000000000001,2.0146549376495386,-3.226986450675213,-17.59577028763215,3.781294014155719,-11.606845044333568,2.0162768899517687,-13.44541492024291,-5.29133091568292
1.4000000000000001,3.385443726563608,-2.4476786250461373,-12.944176898710793,5.702582461114616,-12.262323009121246,1.8275643884862802,-14.977063112801261,-7.392541185458867
1.4040000000000001,3.6977335604424297,-3.0324235645866793,-9.070980207859066,6.406214417995216,-11.658022475316102,0.5367986011915491,-17.388684031413504,-10.769881843643816
1.408,2.9717978184853564,-4.607818604440581,-6.746435036077855,5.9330939701003444,-9.740441055228985,-1.6312717914952373,-19.928860123582126,-14.70316353304679
1.412,1.4280655392358312,-6.616800954039718,-6.075955992151648,4.2968254208426515,-7.257467455997357,-4.275680586059025,-21.786219888928827,-18.12836229666118
1.416,-0.5956655915997544,-8.550516238731689,-6.638791595798466,1.5504586061670125,-5.331648056857375,-6.999100849650858,-22.502718112420553,-20.119755837953562
1.42,-2.7562565626340074,-10.109589258473534,-7.821348753754137,-2.10955698437283,-4.841966694601979,-9.513664724276168,-22.157949052660115,-20.27578164980696
1.424,-4.803162542064456,-11.243125373961448,-9.160401031231231,-6.302779388763156,-5.978232127802585,-11.637239521314768,-21.270345512084532,-18.824008936316204
1.428,-6.621481506968848,-12.072992447471734,-10.510420214946862,-10.533860401710626,-8.211608731787237,-13.22289705183357,-20.49593974826712,-16.422757906620973
1.432,-8.232063542593096,-12.782657087044754,-11.959150160870195,-14.344992516192178,-10.663728211875423,-14.105812167770637,-20.297357813258714,-13.800567590727042
1.436,-9.770911252599035,-13.534101539554285,-13.603763256263846,-17.476374435536854,-12.636003938245267,-14.134035000157382,-20.760907762414718,-11.447361062587333
1.44,-11.441034061854225,-14.431649696864952,-15.331856323709872,-19.90732069245132,-13.958420058395859,-13.268232589429317,-21.6115755604078,-9.50126533369803
1.444,-13.427567210743291,-15.51475991186635,-16.783382383300705,-21.75064469764129,-14.966941371008943,-11.672733173079905,-22.398811936760467,-7.854113032409259
1.448,-15.77481577000799,-16.746724536993497,-17.53638188110199,-23.06123213581668,-16.151739879193883,-9.719169936724938,-22.738824320000276,-6.3630717958940295
1.452,-18.263098795601763,-17.987079084048673,-17.37216007770803,-23.675288269823795,-17.712384856537938,-7.873744439664733,-22.482297311646107,-5.007549449286671
1.456,-20.353141872943525,-18.964724748927438,-16.45408417183353,-23.19992360247852,-19.323950989813056,-6.5194755247175635,-21.74934372694952,-3.898806925615645
1.46,-21.2741976847592,-19.293969943718366,-15.270064119935341,-21.1700380249531,-20.253076069288,-5.8117605111274315,-20.82352656123294,-3.1562234884268037
1.464,-20.264957804631194,-18.562029986924244,-14.372229894648626,-17.31199410663794,-19.767029235682458,-5.642615436543565,-19.992168960247,-2.7678827089193874
1.468,-16.912351648972617,-16.49035777228164,-14.080106549008633,-11.781556989259116,-17.600974352882986,-5.729664078007772,-19.41983549158249,-2.5562814108061502
1.472,-11.426837993903973,-13.094151105943638,-14.295408650104946,-5.223124813330287,-14.180391043898453,-5.777510216543305,-19.089183436271924,-2.273085502496542
1.476,-4.700376227712695,-8.75903577700592,-14.559202536180237,1.3828380757568084,-10.46720768924206,-5.618759858691192,-18.841213996676743,-1.766998143285491
1.48,1.9078574962713901,-4.1897920529982,-14.298637207510183,7.031235922817359,-7.49477583692078,-5.264173114996083,-18.460824831938226,-1.1092413259802925
1.484,7.01750604782319,-0.21589833476718923,-13.127575901587988,11.015430189772815,-5.851967272274123,-4.842717210069168,-17.77293637406183,-0.5821933277475182
1.488,9.709396525850025,2.4721941638990756,-11.046245309578808,13.103744403707424,-5.419061064032576,-4.481722356496903,-16.7285088266799,-0.5290038921712039
1.492,9.835860442006378,3.5539512670256954,-8.420935907497551,13.51574715787865,-5.492358376171978,-4.206999326845107,-15.431171722026193,-1.145708555870442
1.496,8.027004350029529,3.189266653710547,-5.7815428572776,12.743254820446964,-5.222918347162704,-3.9184873860285734,-14.100719664575081,-2.3424106243573988
1.5,5.385911348961599,1.9514141664058116,-3.5481142251464917,11.332101513083217,-4.1064453827120815,-3.453596924118756,-12.96655599721089,-3.757002344344073
1.504,3.027785890861196,0.6052368181981365,-1.850807270331643,9.716862755852162,-2.258051117492869,-2.6844289967975783,-12.146101596828885,-4.914529466237582
1.508,1.6787213289935607,-0.1849376330674204,-0.5322865205853304,8.156054324231263,-0.3372995792324218,-1.5834645042687043,-11.562677715104655,-5.436498746030338
1.512,1.4856894561162335,-0.11705803208405996,0.6993918616062729,6.752913785763667,0.8225319466509973,-0.2280963587545557,-10.94112455868526,-5.190146859112247
1.516,2.0605317681583983,0.6164948776522579,2.054847944973517,5.478480981668326,0.6508454313825496,1.2387591472725035,-9.91853991894095,-4.312136245676811
1.52,2.6905974840337876,1.3839166778989238,3.5336783419406856,4.180123474197899,-0.8858165235333217,2.648829506499169,-8.212927999236854,-3.1049441586665125
1.524,2.5944290166262363,1.3499368484344814,4.916440615375905,2.5889185008682034,-3.3101515294138153,3.825799773563631,-5.7879446757197,-1.8788412187223003
1.528,1.1551613875672047,-0.1721427984393813,5.865123334400778,0.38582939118077775,-5.910500475543813,4.590285602933363,-2.92385057008687,-0.8174053320663006
1.532,-1.905177908429323,-3.3921454839246508,6.06977647869644,-2.634735549641846,-8.081914580448938,4.773142339900005,-0.13514397434846614,0.07553888634265604
1.536,-6.428798163940883,-7.8739893789197595,5.354464733773057,-6.35811738407665,-9.539740695223372,4.2632357036873145,2.029011865328357,0.9380478645780386
1.54,-11.81048729388749,-12.618189768704724,3.7279789229178277,-10.205497962069785,-10.296274997464025,3.0740843444236816,3.2276831022863917,1.953092527399349
1.544,-17.08665048565308,-16.387850435072323,1.3656637246695027,-13.187293510976815,-10.473176881858308,1.389882780973494,3.4722920442964096,3.2292573091463055
1.548,-21.146433284087834,-18.154618375912833,-1.4403027967036905,-14.196283906005192,-10.11348722863113,-0.45080036804210977,3.0925673726978857,4.700503863587983
1.552,-23.041491759886412,-17.473056145770897,-4.315036607162256,-12.439626299943484,-9.121914350575935,-2.053384298509627,2.557943870046074,6.088543407511679
1.556,-22.2924529160191,-14.612135102368484,-6.8329668486348965,-7.826730722386856,-7.375611172371464,-3.111382654031331,2.2355654748917004,6.942943462629046
1.56,-19.064124128824915,-10.388225201368186,-8.545853142513806,-1.0968824097508332,-4.907911395907831,-3.530901990334314,2.2377455440710037,6.764943260920518
1.564,-14.101904718052538,-5.781308642939621,-9.051947499576272,6.397784866610891,-2.0191679247955108,-3.4547658976771345,2.423621170080878,5.199222021584319
1.568,-8.44477940116849,-1.5359645304743026,-8.125943317885685,13.16923293239961,0.771632723060975,-3.161221597414624,2.5208938670784846,2.224269170739717
1.572,-3.0500015490579244,2.045669522908611,-5.850506141592632,18.111370012701627,2.922614156162126,-2.894290803878903,2.2949570889104507,-1.7495125271261713
1.576,1.5015468105157197,5.044677973861326,-2.6847932803302683,20.817157675966882,4.103822591949211,-2.7191360238502966,1.6439552142601315,-5.9492988599540695
1.58,5.069977723585907,7.658221728508579,0.6195809468190419,21.58149002846767,4.3407880893937545,-2.499550080316112,0.5935631500742602,-9.482361273889182
1.584,7.799984356344794,9.913942038276218,3.2453353720320592,21.12692404461268,3.973499777017423,-2.012440720140148,-0.7849720689264359,-11.671102943630103
1.588,9.868157824912487,11.557452829201793,4.607049936243129,20.211332492026486,3.45818664876424,-1.1255292873538565,-2.4444726199126308,-12.32589491971521
1.592,11.304985822709568,12.188418489302421,4.603130066509038,19.32342785981109,3.142617352196794,0.06378563359976397,-4.336608623691063,-11.809251655387925
1.596,12.016118578928399,11.572396993481107,3.684293847541994,18.59285314661247,3.1477026334050606,1.2274291653266118,-6.315584972449415,-10.838667409516802
1.6,11.937631684376356,9.90950858688484,2.6957571257607924,17.896591092475774,3.411659897786649,1.945251783783533,-8.027968278535354,-10.108766974063656
1.604,11.17512662443005,7.857226200756486,2.51294664760826,17.02752051355128,3.830711824932223,1.9037276451199432,-8.929139064848641,-9.931348903862272
1.608,10.018925360705907,6.272087784549512,3.6226890782781993,15.81683582554615,4.372844379131493,1.0551794457569486,-8.473439922461694,-10.081558168967604
1.612,8.7756700282589,5.774735510818573,5.848781730564951,14.15961336615328,5.072985409771718,-0.3574152141591185,-6.396553850339842,-9.935893459763975
1.616,7.527950910051004,6.389113218498096,8.3616999328151,11.977198717311694,5.912940573214655,-1.916933302916732,-2.9393601295323606,-8.833758049215248
1.62,6.010114166085259,7.476688109016322,10.02099092858407,9.219253679246322,6.702662615481131,-3.2201389499496145,1.1689294632487872,-6.462642151958789
1.624,3.7365079286755645,8.02832976668924,9.886796968195995,5.932586439133047,7.074191809727381,-4.023094809501345,4.980532372519519,-3.057295389929095
1.6280000000000001,0.35017208108365594,7.176565045620009,7.6576184300301975,2.3554073910036095,6.6396271802314,-4.264003092248458,7.737002627882248,0.6975852450950697
1.6320000000000001,-4.020911900784995,4.65311397800815,3.824363305191582,-1.0468561796405993,5.24531926077816,-3.9782404201869213,9.195613025187413,3.99979025698849
1.6360000000000001,-8.641584794142545,0.945414027914012,-0.5543734514030803,-3.693237151528592,3.152303682101774,-3.1945716275440645,9.660826461369652,6.298687760072426
1.6400000000000001,-12.403789990275982,-2.9300101477892895,-4.31933387472418,-5.101018850331457,1.014685217089209,-1.9014520591153996,9.722326046350645,7.502468881826644
1.6440000000000001,-14.337328330602759,-5.913585718557442,-6.705544637206913,-5.101781634491999,-0.3938530681461998,-0.11868099534331122,9.833558587070002,7.9178268852901965
1.6480000000000001,-14.127877020717278,-7.394061215868533,-7.624089570799697,-3.935895140255525,-0.5891546305474549,1.9817903744369687,9.985732901706797,7.971809546010263
1.6520000000000001,-12.318151618608681,-7.445037345627497,-7.584635708053611,-2.132197638648904,0.31318440555787674,4.015807595140359,9.700847558551686,7.895637569972678
1.6560000000000001,-10.056824511950254,-6.697678825188632,-7.340637586037701,-0.23306948682420625,1.574793451582991,5.456826245186676,8.349150862381066,7.560463032018561
1.6600000000000001,-8.502617661246404,-5.937844185196809,-7.455567533253998,1.4904511028180423,2.154758524213321,5.8410292718053825,5.611817373755912,6.560953503532801
1.6640000000000001,-8.204528236463375,-5.656550817223433,-8.029915078954218,3.158527922938447,1.2334699246612217,5.011457969458206,1.7990735102903272,4.487302878867013
1.668,-8.798988778355124,-5.784792648408256,-8.720946088693381,5.16276645680955,-1.3254663967372835,3.259039951466548,-2.186045087839375,1.230390927942608
1.672,-9.193802816389507,-5.73408532092526,-9.007913209365142,7.874840729238713,-4.822893238221695,1.258242525433161,-5.23728420682346,-2.856783867962804
1.676,-8.155082259865594,-4.713215907744598,-8.543874108694581,11.337614563646639,-7.986377005476243,-0.20239723911436158,-6.5935477562270535,-7.039533782216495
1.68,-4.9817622144837514,-2.152157109907421,-7.3572250452034496,15.135644720191522,-9.518725297728452,-0.571431933916756,-6.205660313151384,-10.470454093743683
1.684,0.09178043421343318,1.9880186836799112,-5.787684282298869,18.532411002431218,-8.657300069140547,0.21421314415238157,-4.704662637241199,-12.504857552808062
1.688,5.965784061914746,7.148850631359892,-4.241873908200432,20.781774454440892,-5.4994606663249215,1.7110911735398986,-3.0117020212474017,-12.916803883913417
1.692,11.154110781735653,12.354598403963791,-2.940472530659463,21.44002396664564,-0.9543877224359676,3.1888756907173956,-1.828658822172656,-11.936113629433748
1.696,14.425412893964676,16.55449991541809,-1.8304320988590916,20.515800085122464,3.6364520499946593,3.989777270297054,-1.3130515012671822,-10.11141256202427
1.7,15.272949852083912,18.971031667466377,-0.69343825784199,18.400059141161364,7.023773792153406,3.8352178003206063,-1.1087691126540449,-8.083643610862964
1.704,13.996220345150505,19.324109474417128,0.6379741107139125,15.63503086102719,8.49033285837686,2.9068871954114,-0.7010847079345695,-6.384473846455876
1.708,11.431626491634233,17.871995671941477,2.1090499310721498,12.673997689693351,8.034608729745742,1.6861929906172008,0.1527958974311332,-5.319197345635075
1.712,8.512364517988317,15.280107383051472,3.455241047540767,9.770110957668294,6.272757369316423,0.6552027003635885,1.2133293123843032,-4.939098910584107
1.716,5.917807864567294,12.402482588360726,4.382866234305766,7.034242704501594,4.1503896903868736,0.03914339122457022,1.9001182126939966,-5.067917981587925
1.72,3.950207320980553,10.038608499029579,4.808053245327756,4.5931239119090606,2.6034633638655578,-0.28247008146354347,1.7090890717190632,-5.350206731185608
1.724,2.6343092778170103,8.744029695005338,4.98358260470377,2.7165619527822855,2.292725738725494,-0.6627141835087969,0.6224935101708979,-5.322811748055756
1.728,1.9228755740296037,8.739349952080374,5.407735468514147,1.807711137217666,3.471741422668856,-1.4424976827904175,-0.7623092772337259,-4.518737214059001
1.732,1.8337170918584889,9.905743817730581,6.547230733840479,2.2411891732826916,5.975666098432157,-2.729068683598598,-1.4777039282671467,-2.611667320309607
1.736,2.4433007350762637,11.859648737416137,8.5146746798182,4.139990240311818,9.290769337785605,-4.3112951320981665,-0.7078664219716302,0.4257299793607672
1.74,3.761810367463113,14.07527902484253,10.92801832983605,7.236102156363813,12.692086638473484,-5.749231439533105,1.7294684658209007,4.221249076726963
1.744,5.599069451103787,16.017505213823824,13.042256878898115,10.896214670272457,15.432010860485207,-6.584258080500149,5.223357331244188,8.028805515211388
1.748,7.533538726460392,17.251961092630154,14.082439108373364,14.31170043329712,16.936501804269028,-6.539305341866566,8.62435893147267,10.912643644922355
1.752,9.031000375851363,17.516724665520087,13.623561259391863,16.77366074816382,16.966299252387216,-5.606655449428217,10.792560871888782,12.053320703616919
1.756,9.665841871330485,16.761964974428338,11.794302228729066,17.894654889653793,15.676588199438811,-3.994866248280232,11.119197357129451,11.049688941418935
1.76,9.319606077409844,15.138199754828747,9.220027448493056,17.69417471816996,13.544369217356689,-1.9997863967837475,9.76030454217107,8.07617422713156
1.764,8.250771714287112,12.95061287927183,6.749734798591817,16.536430480948184,11.195741208424806,0.1038490558439662,7.478194092400372,3.8156916795733196
1.768,6.982708303879917,10.583808469901669,5.100124716642313,14.956781882072391,9.17882593572358,2.0909909237670945,5.191549359673445,-0.8170562824507215
1.772,6.0655798444240645,8.408037516698641,4.606858421240759,13.46584597101264,7.783548535602677,3.742185293298462,3.5014238839976315,-5.036004785244586
1.776,5.8374007312522735,6.701113659612929,5.170549405102975,12.399352284147426,6.9894520418974935,4.794676107021587,2.4427659291195596,-8.453165631719457
1.78,6.299304036483591,5.611635563560412,6.409879991785601,11.867409917820623,6.566693197851237,4.96308596381823,1.5851947260671295,-11.125780169283644
1.784,7.156846258458245,5.176159524144168,7.918185186653318,11.786621694084715,6.2825137433164855,4.04141070168771,0.3954710438483744,-13.371256965934663
1.788,7.992193432706699,5.365199838359331,9.46559469307249,11.942346833338888,6.092927356163273,2.043405964597696,-1.365987574623432,-15.459758576690547
1.792,8.471137872376858,6.1254950207112415,11.066821792696828,12.058941252939803,6.21825630094736,-0.707244642682781,-3.4263227154624474,-17.360310988284255
1.796,8.488367655285401,7.392967164400034,12.874966182078424,11.857448269762244,7.046304468307426,-3.618832069727432,-5.094421335255902,-18.69825186039452
1.8,8.165620308229336,9.056939435471577,14.991975445493154,11.109048710397474,8.905397175386497,-6.02229041585997,-5.5916535621581716,-18.950359909540566
1.804,7.718172729806611,10.910083192885395,17.31278258016664,9.69109649004713,11.835279202948186,-7.433040202551638,-4.438927351618986,-17.76468771837972
1.808,7.292336188302215,12.642886785520204,19.479716924062814,7.6429136658389325,15.477165372290074,-7.741134644182239,-1.7079554522497347,-15.211134256133846
1.812,6.874407689194413,13.91434509667397,20.988026331857327,5.209904311206628,19.157255381934192,-7.2151658328457415,1.9960064667466213,-11.800172847502836
1.816,6.3330216205959005,14.491321607289137,21.368032874068376,2.8248724887007484,22.120988787708484,-6.310892340747159,5.774715567871681,-8.246318658235396
1.82,5.566902512662637,14.379055208964928,20.37336265466911,1.0188725114621775,23.813782031481423,-5.3860796200260666,8.799303525382129,-5.101681890278996
1.824,4.6642058013349015,13.857352430059109,18.093713711004966,0.2814395656050692,24.088783296437214,-4.484806846015999,10.620308800034763,-2.4730299835009646
1.828,3.948908076830776,13.358834187778484,14.918422972924418,0.900393115703082,23.223351910191923,-3.3211452813484357,11.276866096066442,-0.0001477324458392104
1.832,3.842960189396763,13.210073502778869,11.373714187226142,2.836124726311027,21.73243721316976,-1.4902686900240951,11.19086393818543,2.866239636152386
1.836,4.6156792302608665,13.38580320813071,7.903966092715564,5.684600454817883,20.078225543606095,1.2100848394602508,10.891169551176063,6.428241780409735
1.84,6.142234126191397,13.426629837244946,4.7179233127262705,8.75654288440819,18.434173755982556,4.524673450148839,10.734866472525027,10.395708470118734
1.844,7.823352757783141,12.612604927761822,1.7919949655843084,11.25595168657128,16.64228240194734,7.7086890620394115,10.75943146724967,13.84193736542511
1.848,8.762904335828352,10.35038614588484,-0.985551242783913,12.49605480349419,14.375547923844351,9.770407607218658,10.70951983755458,15.51339212959374
1.852,8.155500518052577,6.583470519396542,-3.607646030226533,12.086898246258897,11.420478008324608,9.881636174206506,10.223541651463165,14.360175414109108
1.856,5.708742368184176,1.987352619482408,-5.832128086728517,10.017250683053135,7.911616446663174,7.753526755879648,9.052443769664933,10.024539817761251
1.86,1.8657587042398518,-2.2101859098738714,-7.2272769649280235,6.613277529042534,4.382538448043306,3.782263334211166,7.207734389683537,3.0450858616040932
1.864,-2.295588093522383,-4.7342948684972725,-7.36907158151098,2.4067917483680503,1.600567748083904,-1.115179586027807,4.969376009638836,-5.318027508586965
1.868,-5.471778193365026,-4.856305214812892,-6.092709260346965,-2.0269563710808143,0.25272627114509305,-5.885578370291114,2.7576555566129173,-13.535112569500598
1.872,-6.669585848587303,-2.7610643779898965,-3.636589216226639,-6.1892459876207795,0.6487869468564895,-9.746879459689808,0.9638072686857413,-20.306026169964753
1.8760000000000001,-5.60582394393532,0.5289041134938088,-0.6012941984754434,-9.710392709218468,2.5851769259888897,-12.416494106329992,-0.18993859518468525,-24.884709756473512
1.8800000000000001,-2.8066770295790775,3.630709363862934,2.2886789743433837,-12.348013038242243,5.429584759413956,-14.07272106000164,-0.6835592186089343,-27.12137366678826
1.8840000000000001,0.6358196412329562,5.44861400546597,4.494143567027095,-13.9624431418124,8.3793960787998,-15.115183351335872,-0.6381816852099291,-27.27868492738753
1.8880000000000001,3.5127120973484125,5.643887695428475,5.847542816219175,-14.520052505874446,10.7392121141188,-15.884514965514427,-0.2373902683293636,-25.78623123834268
1.8920000000000001,4.934056458852865,4.684560221395259,6.525634946748141,-14.120898280407346,12.094321145393678,-16.50628018619136,0.3196090621077019,-23.077808470610762
1.8960000000000001,4.584075314714937,3.4894434364005065,6.828386366400082,-13.025941776560103,12.328604341631035,-16.923931838256067,0.8036399117490873,-19.562867251375337
1.9000000000000001,2.7146455975725985,2.8810561638752006,6.937456802476845,-11.632540081252955,11.539925988084633,-17.062449461135657,0.9427817555661022,-15.668227574998127
1.9040000000000001,-0.05970728096872335,3.176100438748108,6.826515963898601,-10.367506188671996,9.958203688880076,-16.989093176614915,0.48138993954944453,-11.838148663121046
1.9080000000000001,-3.0130972374190605,4.130122283167111,6.381664494385404,-9.525918322742655,7.924938095601192,-16.93255916421731,-0.6835706726878925,-8.441103226191899
1.9120000000000001,-5.495613780154599,5.20976413940798,5.646307703858838,-9.127008173486502,5.919063908276712,-17.137355559265416,-2.33823263159411,-5.633010749614641
1.9160000000000001,-7.011036968423468,5.995490410315597,4.976524867121043,-8.880584740129507,4.54303443216304,-17.649851031194885,-3.8985510524880738,-3.2860900166638203
1.92,-7.253235344372115,6.418150874616913,4.951238777767685,-8.307756848695135,4.382677002165565,-18.193033820396522,-4.551431184948342,-1.086043950614112
1.924,-6.153790240819944,6.687887632368984,6.031779436463694,-6.973060167492804,5.756359372511724,-18.241848087853214,-3.585623526888412,1.2060984303802798
1.928,-3.9360052318033922,7.009706570375329,8.168525418025638,-4.713659912890762,8.479211851202308,-17.27205958322338,-0.7671195070142858,3.4835783814210117
1.932,-1.1413360858687156,7.308873578699604,10.632644302796507,-1.7431477471386643,11.811990665451958,-15.050432824595191,3.4555160493973744,5.2056618072610945
1.936,1.4533314147265628,7.198523822912193,12.227334276095462,1.420940187926135,14.683704970280814,-11.796363941654818,8.055505776934297,5.600127360974511
1.94,3.0527723427576348,6.239170053013368,11.849104383078156,4.179235291498571,16.134168070490432,-8.112536963823004,11.851353011972606,4.093767775187189
1.944,3.123593617892766,4.319160124659902,9.106670604393912,6.093953900791803,15.76573768729395,-4.730106513198734,14.03932488787268,0.7359241207832383
1.948,1.6012818215458537,1.8700972352894496,4.620008564686032,7.002058112265331,13.925510612238213,-2.2104360723214995,14.535600138984591,-3.656095372386062
1.952,-1.1027490270280396,-0.28794081386513426,-0.20150466351242358,6.950267787940447,11.487108210275437,-0.7632834664127586,13.940691940212673,-7.761398195340462
1.956,-4.295346980930844,-1.4078611140207613,-3.828397116596534,6.019326421950609,9.328695097009131,-0.2594961824843267,13.125790576905274,-10.328360207533024
1.96,-7.305603134008379,-1.3120646658717305,-5.347384815566329,4.188632802216944,7.810528067765972,-0.3958262128417118,12.705921375638354,-10.751552079516387
1.964,-9.730032824247246,-0.5835390823067428,-4.846633226064114,1.3668995636912769,6.590077241428844,-0.88768265582803,12.719319277776776,-9.322530475012172
1.968,-11.475502678315024,-0.2724048260693053,-3.2298696342095354,-2.4001822685304433,4.912795588591052,-1.5565196103561902,12.710749599142218,-6.993482094724186
1.972,-12.612620001957112,-1.2561555304073408,-1.5693756083137487,-6.685061100064559,2.231602681733875,-2.2840117188061413,12.172953700692233,-4.77736551351245
1.976,-13.156782449173988,-3.6262942418006787,-0.43208548996835816,-10.6075793877244,-1.237622500962516,-2.910133370625772,11.01552062245355,-3.142691428609851
1.98,-12.974298611120503,-6.523101727188077,0.3975220529650869,-13.074515768935726,-4.429852848869359,-3.202311450376328,9.719908537491392,-1.7759954806765563
1.984,-11.92082504949667,-8.57967430859344,1.6146538944667554,-13.280981337341927,-5.942012321415405,-2.9762421796795024,9.019238028606196,0.1227552254240436
1.988,-10.123606710359127,-8.757771942418458,3.690920897517117,-11.227514450048147,-4.911203097108228,-2.3028140274263933,9.258488312781083,3.178243668539835
1.992,-8.187233100440608,-7.088097502407891,6.25994419887229,-7.9211117853692485,-1.740670239501469,-1.6395612307806005,9.86074967260356,7.213178238634555
1.996,-7.11810572203558,-4.831782809019387,8.0198742737075,-5.0734797067166255,1.8148563141953673,-1.7405596245562265,9.300394725411934,11.071924195696283
2.0,-7.917883484471531,-3.9041530879667334,7.316186855263368,-4.3604490516754595,3.3654976527577674,-3.313051969817934,5.765128041011849,13.06948953009669
2.004,-11.001800194096177,-5.825069037531193,3.125414478131006,-6.569133619218519,1.1077195956208925,-6.56166208121067,-1.7666787158186708,11.866914770198036
2.008,-15.768811435321368,-10.773948397308232,-4.14022832399769,-11.086613429387853,-5.09471391269517,-10.874313786866878,-12.622045206047005,7.308572750737312
2.012,-20.623583615913958,-17.305432472909615,-12.508011959227133,-16.027855308258495,-13.38475613731589,-14.867743332241844,-24.249246454810873,0.7475355650212805
2.016,-23.527171439934136,-22.927741094445082,-19.16559297604954,-19.001375809153615,-20.600361684035306,-16.847568806370873,-33.003636630211986,-5.376001377427201
2.02,-22.87029617299777,-25.280312884715386,-21.68587657020589,-18.16429344771359,-23.671672200366174,-15.507103587508936,-35.60144648835285,-8.529224648993932
2.024,-18.23539864243321,-23.27836911231998,-19.124655068931588,-13.043922334742092,-21.01714220975464,-10.53993445660035,-30.557310207492264,-7.169303355823558
2.028,-10.64278271625335,-17.614902852282285,-12.437322763737939,-4.728523699667221,-13.243839946775097,-2.8510949015017104,-18.906022308144657,-1.3869187718114517
2.032,-2.1553671579322327,-10.386228407757244,-3.99751714232616,4.637502031290296,-2.823003002741416,5.751142647589404,-3.8221107738281717,7.1922921295167725
2.036,4.9828652589530975,-4.062118967159677,3.4920011350832283,12.75727001486348,7.0474049249473865,13.248892568160045,10.670410558780532,16.16623392896463
2.04,9.241609139877255,-0.3707713233106915,8.136464815290765,18.029915716299456,13.783218960550812,18.167888401027085,21.28447995675424,23.37922310019576
2.044,10.281331560484432,0.3246242695474848,9.485649609317989,19.950440647340656,16.299195325526625,20.035017551200326,26.610834423588585,27.7117532051293
2.048,8.826865079595336,-1.1117420407376812,8.424296431351195,18.94459641178446,15.077941352267771,19.357874254582384,27.3257641372511,29.29986964837849
2.052,6.092028843388107,-3.3008540355112928,6.5056617428635946,15.863483765551337,11.55394591751815,17.194543031903777,25.49338237643724,29.165808311281125
2.056,3.1158980738364335,-5.15098097593409,5.1265413786250065,11.478933584389551,7.265436337039546,14.571820840513737,23.389053964140658,28.52145818289182
2.06,0.3924054131484809,-6.285589432349525,4.994943951006462,6.279818600847648,3.279200318293533,12.05983734882011,22.490393199785103,28.14750052227646
2.064,-2.0449682994631075,-6.908554701923322,6.089052276266102,0.6234895762936503,0.12892462023205553,9.688930766830708,23.083461874323802,28.140417724348254
2.068,-4.2335086807174775,-7.300917772932735,7.973727024066193,-4.9754039520248625,-1.8876945220292782,7.193241493182541,24.533745250068932,28.078306178710363
2.072,-5.913383141070881,-7.363510334908369,10.201930745061418,-9.6985646892565,-2.4025531054576277,4.3905097273886895,25.957550194550095,27.449723433100644
2.076,-6.473156103747442,-6.550779186806267,12.516192182197756,-12.592605341767921,-0.9699944914184471,1.4617605488729168,26.83504789076278,26.064609007649324
2.08,-5.270177304147182,-4.251306325887072,14.80066724944436,-12.976752976761873,2.612590709414235,-1.0274964318550701,27.252275208988976,24.224733230995298
2.084,-2.1224765666629537,-0.34971896309571093,16.89667460889723,-10.831922253330504,7.907559094204771,-2.3713345211494925,27.709430972096925,22.578922118012997
2.088,2.368040898717936,4.4352252426076575,18.459304891630836,-6.9060410964209495,13.69789131072298,-2.082034599781764,28.68054113126027,21.767247183149948
2.092,6.910854154569279,8.707536856739353,19.005733198973303,-2.431923873433334,18.30798275410143,-0.1657279879818816,30.234184476568316,22.057843472883405
2.096,10.055970517770675,11.024258253113885,18.112449774394463,1.3943661038547361,20.27363207226699,2.8329483404927487,31.9217136514535,23.16916947811592
2.1,10.872026592663133,10.637797008140069,15.636577178333482,3.8851711641914335,18.998466943804715,6.031149669973274,32.982506747208845,24.371593299420056
2.104,9.386222008569348,7.911890378713451,11.825337226762713,5.022558625032843,15.025234590096261,8.540785483672153,32.731125378203615,24.82098632977022
2.108,6.537526565061853,4.155501951596534,7.243039463332934,5.238528091673288,9.755464567323997,9.791012560777745,30.905047164334064,23.966068219952376
2.112,3.6708377621603177,0.9566307277975739,2.5995443745980538,5.000276770734672,4.786979773603889,9.709601948044565,27.82828820128543,21.846278995716148
2.116,1.8610674713754634,-0.6085613188226944,-1.4338580992366587,4.4692897294578415,1.23138939171713,8.699019244617375,24.302057971251543,19.133426836826402
2.12,1.4325445988288266,-0.4640956752114107,-4.335961677617206,3.447243564218752,-0.6328787933152853,7.429787361380477,21.289040832443334,16.877105626957245
2.124,1.9243049353567585,0.5391955700722519,-5.762549113985187,1.6241227352854821,-1.2178045231892156,6.541212193868432,19.53941974289819,16.05290553155828
2.128,2.488280093915364,1.1976360397673034,-5.551333069363636,-1.0696291114097676,-1.1688192487631568,6.378219518448077,19.3011456653785,17.10682198970767
2.132,2.4520877119557554,0.6706919123826083,-3.744048368664835,-4.268045030734811,-0.9126839505847784,6.8601124290262305,20.237295691365034,19.70424378892494
2.136,1.7120414613405046,-1.0663609154553342,-0.638229391024197,-7.2899580275409335,-0.49115271294613194,7.523454064272755,21.56349796959512,22.80393658546359
2.14,0.7478438518319308,-3.2679756502820965,3.211892413823307,-9.493256923336276,0.2711107687216554,7.724419988359841,22.381482317417976,25.04891710178208
2.144,0.2854952693787709,-4.886016778860949,7.1124918254436125,-10.626609840612218,1.4563850081806322,6.920007428837835,22.07081805185817,25.32379813184798
2.148,0.8372910251819121,-5.157233279054253,10.43171681125159,-10.943374061319446,2.846520097931034,4.912643600438514,20.54818088651473,23.22219519797818
2.152,2.4142396324141373,-3.9676874926447,12.809301302727818,-10.973832979769895,3.993796730114127,1.957577154531009,18.288246482708928,19.21389669661903
2.156,4.562369346481773,-1.8125630519355127,14.236255957250705,-11.116656817329385,4.511587489006388,-1.3194423254458343,16.055452303122365,14.428163444780694
2.16,6.669470003567312,0.5665973846669203,14.960855832996913,-11.310775596573876,4.369811846689345,-4.158410248171094,14.481300465802633,10.165164306264955
2.164,8.33383650845326,2.614773028243235,15.275516139819501,-11.009896150380541,3.9770144802193954,-5.957884747403114,13.712474174435329,7.370832621339559
2.168,9.550128615790072,4.190682167899013,15.299311043490889,-9.52249590807969,3.9478002857051706,-6.483956679325956,13.317119012869853,6.3136341373661935
2.172,10.597632591146066,5.470696225713141,14.909655340938116,-6.521032576871676,4.689846968669485,-5.9063638024586,12.531041125660295,6.59324852917257
2.176,11.731883582524006,6.63916960227175,13.839774716723923,-2.4093356299521247,6.060056477077296,-4.659153049813085,10.706495760005055,7.436698340757744
2.18,12.898993148196041,7.602791236560279,11.880667765115504,1.7115966725821181,7.3148919612342524,-3.202932196862548,7.722167073247874,8.106914586317544
2.184,13.662418690278173,7.939612109717473,9.05013704016801,4.497072435841119,7.413958194605016,-1.8299392991634704,4.097169100747124,8.202927797679195
2.188,13.403235170978178,7.119037409032444,5.590554949831585,4.985104873108526,5.503193393096581,-0.6109854854225887,0.703271300683582,7.716672007926945
2.192,11.675748675916111,4.848128250993113,1.8180503036210212,3.0634879347296646,1.3273644177611459,0.5069890500167276,-1.7549258461899626,6.874189889534364
2.196,8.509895167964032,1.3269706280769924,-2.070236082250176,-0.49211966172561006,-4.633000390410871,1.5379453053737961,-3.1950847863081435,5.897505937904839
2.2,4.4706052416086095,-2.7614995241152656,-6.065341169690782,-4.42991202258213,-11.3407743899038,2.349733383540297,-4.242213804623589,4.851463651548215
2.204,0.42622226698449595,-6.524087948507145,-10.217413117936076,-7.646330880819619,-17.56256632927466,2.686687911223771,-5.851939908267468,3.657672274572178
2.208,-2.8474306523428368,-9.244089292326407,-14.402146876036227,-9.68473047185762,-22.226817580434158,2.3106151304345985,-8.679063386217877,2.233005564853329
2.212,-5.002562087808201,-10.660503579123997,-18.137669623832608,-10.831395161315186,-24.63023353022254,1.168133046865023,-12.54709787695333,0.6338172831902966
2.216,-6.206605749081518,-10.982771717966898,-20.632606504174646,-11.781992234068639,-24.478407945554864,-0.5307721275451058,-16.37642218524229,-0.9100649638789946
2.22,-6.950935309946544,-10.663525496140437,-21.08176286590617,-13.091727999464183,-21.840373211873953,-2.3893696345521676,-18.641123682159105,-2.102206516462502
2.224,-7.6917136082540765,-10.078715378407537,-19.072042184110614,-14.724730315288525,-17.098434359533144,-4.026195584639936,-18.143533383547947,-2.7592115949041727
2.228,-8.526606737749034,-9.304607724696552,-14.876009063885363,-15.967178907722086,-10.926138747108439,-5.276818355497426,-14.69365883366288,-2.939717351971467
2.232,-9.102208305115482,-8.127883873639234,-9.430233201460624,-15.74526537263057,-4.2346948164173455,-6.270291584658253,-9.293863527614349,-2.9252377745557396
2.236,-8.79325522418344,-6.251401440698714,-3.9943511032195147,-13.172262764591096,1.9850133922009263,-7.322437390826735,-3.730402138319505,-3.0580132382719967
2.24,-7.051287291623794,-3.554882660771966,0.35025230667383767,-8.022496760900026,6.92362281423641,-8.700185882093592,0.22925433501438874,-3.5316892339374704
2.244,-3.7460170433569147,-0.25088194058372437,3.0926164905729365,-0.8971624974327597,10.215563450354068,-10.406410940058777,1.6034653256278943,-4.275327384594618
2.248,0.6867789550695989,3.1560371798267965,4.366446813728544,6.973717981460311,12.037706473178275,-12.113501289503006,0.527299709012027,-5.007487037136059
2.2520000000000002,5.35874665947847,6.064504625343716,4.71345571694269,14.170539942315258,12.952456497149967,-13.297227524145114,-1.981130497424715,-5.428263912722173
2.2560000000000002,9.255165175016941,8.016076836514742,4.685018307076689,19.54286587288192,13.542677016784978,-13.489283004291792,-4.655821291825305,-5.424290018506781
2.2600000000000002,11.601700046994438,8.831129229092255,4.523537138545066,22.486973681276766,14.016931586436783,-12.513164560824066,-6.638896325917244,-5.1521768730108874
2.2640000000000002,12.097275182337285,8.583907789351827,4.097468487111087,22.970936890923042,14.026068748147964,-10.578252951562717,-7.805688418531531,-4.943467309013613
2.2680000000000002,10.934510478177799,7.472423221175461,3.084420810246911,21.369868146591216,12.82444074849002,-8.180104104814973,-8.63664590850101,-5.084398365698007
2.2720000000000002,8.635307488066246,5.68670529854495,1.2708804107389255,18.262818032377425,9.731759011046904,-5.874075569333968,-9.748487320321146,-5.594851021056513
2.2760000000000002,5.803166814480164,3.3635617763706023,-1.259715228672576,14.280666374050384,4.631042228122453,-4.049624838917566,-11.4144042255474,-6.157994301701933
2.2800000000000002,2.9054246565906396,0.6267017868491394,-4.156454263248634,10.02090237253492,-1.801948929442517,-2.8255358433989386,-13.357405947685777,-6.257029092720359
2.2840000000000003,0.17137919712877192,-2.339007029110178,-7.000511731545316,5.996544581541912,-8.279453959464945,-2.105650082485795,-14.901765678213792,-5.45093862631029
2.2880000000000003,-2.378747908792775,-5.256218468513794,-9.534567350952159,2.568694703218341,-13.420101797010545,-1.7238896242686224,-15.36316717935631,-3.6332648222002035
2.2920000000000003,-4.814295168313947,-7.804584728345475,-11.730479694325027,-0.11396446942023886,-16.317518309968733,-1.5643533122606073,-14.409876724801734,-1.1189205783827276
2.2960000000000003,-7.163842548184675,-9.720197373588462,-13.681690189563824,-2.1397405900348474,-16.861271270928654,-1.5937061930160326,-12.211567249425855,1.4824377080781517
2.3000000000000003,-9.347303795073856,-10.878105766576141,-15.398724493148848,-3.76962354248883,-15.644715016822857,-1.810630358306753,-9.307793016599248,3.5386920317909016
2.3040000000000003,-11.179050719795498,-11.291346590031793,-16.669736989604587,-5.267027809823958,-13.528768778073783,-2.1745804065107563,-6.318940952672904,4.65840825196338
2.308,-12.419620806272064,-11.027664857226966,-17.118491696138506,-6.702734452486311,-11.148490278058148,-2.5853596399340972,-3.693356046153667,4.808677073660647
2.312,-12.851953283184798,-10.114461400186485,-16.424136594164793,-7.844822811434653,-8.650701569536267,-2.9391412099913623,-1.6044945337179115,4.2435131364339895
2.316,-12.337292998361704,-8.493659247313133,-14.56961878379434,-8.215312311971502,-5.789558934213886,-3.2107721312850117,-0.03065046921614112,3.3082023612404896
2.32,-10.826357265568618,-6.067064390475423,-11.918671437692979,-7.290266189782642,-2.271338526335853,-3.4770526792282226,1.099120899648483,2.2580588029917976
2.324,-8.334067751887233,-2.801815894242395,-9.027277220324379,-4.73501262527833,1.9166870428160792,-3.841659399527316,1.8172547217274087,1.1973493458599478
2.328,-4.911474864970728,1.1753553333139166,-6.309231863608034,-0.5653436415652777,6.41475111882113,-4.2928498779768915,2.127052183501007,0.14502500356599057
2.332,-0.6455589548739908,5.564538983179602,-3.759426184989877,4.859648942786521,10.691131882654986,-4.59843278360097,2.094139926083926,-0.8457160025135408
2.336,4.297046324912117,9.967296600416375,-0.962546785681127,10.972649426693977,14.360653895521693,-4.340802638909963,1.8995448375289925,-1.6310784751054257
2.34,9.610333733830771,13.993465929092054,2.577187423599014,17.169361403527205,17.368142535009497,-3.1103812542280593,1.7842675906857721,-2.0436109408165066
2.344,14.800385906477118,17.321052480118055,6.959295429674398,22.902140557314056,19.89003472733424,-0.7720950554705723,1.9063536388396187,-2.040402648824113
2.348,19.201472778321317,19.68349003517727,11.556185324144622,27.658329263834162,22.002139780448942,2.3602490428695546,2.197630739542433,-1.8073172839512495
2.352,22.095034917413727,20.813206663693336,15.102886390750086,30.90039886462239,23.365628918930213,5.572959583878742,2.3459078313384225,-1.7104110467669216
2.356,22.909769817315578,20.42529795825925,16.213390908276097,32.0717084941989,23.19669275507937,8.040524073848815,1.932457750550384,-2.0885473510841734
2.36,21.424463070037177,18.301034500073285,14.08827109322192,30.740348940838203,20.61301443610762,9.21443317771309,0.6760294132071749,-2.9911308505045326
2.364,17.88689217816284,14.459162384092565,9.029859045871945,26.844294052892963,15.20483812065146,9.09455456897308,-1.3527098673911269,-4.037537387574389
2.368,12.981154211978492,9.316038049649308,2.4299720870855026,20.891794852812666,7.481583627464374,8.228786274543609,-3.6876599578786227,-4.518256190429099
2.372,7.638542478286013,3.6965602178690347,-3.790297946160308,13.960017773788707,-1.110483077356605,7.422629846318728,-5.6238893448187355,-3.724659565882291
2.376,2.7584868408642933,-1.373960670970348,-8.041035360261276,7.409617616482478,-8.67558535682167,7.305020458723675,-6.526903467302304,-1.3511931361857137
2.38,-1.0423248224857389,-5.040465240858111,-9.769500712705053,2.41236804307448,-13.63273775977109,7.990836204812354,-6.124381101656695,2.2617561888524733
2.384,-3.5389061956425394,-6.96661756489857,-9.616028152083118,-0.4737474798032508,-15.341031394662195,9.028746768459541,-4.623917152981903,6.201608937759204
2.388,-4.820497110139286,-7.454114262736937,-8.945786148080515,-1.458905046265727,-14.244479953924042,9.667713873031289,-2.60985693370651,9.355821583150941
2.392,-5.091129799629357,-7.253687166019915,-9.00677146070666,-1.2951677008044271,-11.468861487551862,9.283191791981267,-0.7657269006664364,10.894811276925793
2.396,-4.475769795856422,-7.148772908871422,-10.199923868877022,-0.7872718353274308,-8.12645886433711,7.725845569835201,0.41597347693641495,10.602499753346535
2.4,-2.948764944998402,-7.535257124661939,-11.850960580703259,-0.31088055025855965,-4.739194585135351,5.404446345296606,0.8047441307913914,8.882707927048045
2.404,-0.4242210718022079,-8.230862339741691,-12.597240449590913,0.38597369430539175,-1.10361703116223,3.059664670057373,0.6088296097957482,6.452271372494636
2.408,3.0588779900342615,-8.62281366295366,-11.172261716534194,1.9734506034579908,3.3460752373702007,1.3783366211405337,0.19002225219492175,3.9212782800364607
2.412,7.180383131629924,-8.072290908243133,-7.119321781512895,5.044299029259662,8.936920873695044,0.6705595739520049,-0.1506292382509855,1.5200905510847633
2.416,11.334849850193223,-6.327378797801259,-1.0625912333083534,9.617591698997899,15.310424283108091,0.7867461661572861,-0.31548628005350565,-0.8714259955897319
2.42,14.81715311637231,-3.6989591422946546,5.595609854316535,14.951436595672021,21.41825822172666,1.3038172428505277,-0.4078960092293755,-3.426108843187194
2.424,17.106710325752374,-0.8971191044381612,11.351166510424832,19.80153730942351,25.967801969893287,1.83954945609662,-0.614048770222098,-6.020188206314629
2.428,18.083928546801644,1.3633787762630618,15.23918124956117,22.985462022111392,28.03820569198615,2.2933440685048936,-1.0743234744101073,-8.093703500540641
2.432,18.056056813869873,2.748238485062302,17.125604397723578,23.957737597354367,27.510948544061193,2.872386227150514,-1.8023808367453285,-8.843107604094826
2.436,17.56603310456603,3.4392733189342835,17.5191366619041,23.060112632552432,25.063467213120134,3.9043700082695523,-2.705807332573386,-7.664695586182688
2.44,17.075634281786733,3.929813454122609,17.0826053550702,21.290966253938336,21.742573393686143,5.563896225918143,-3.6800214509170246,-4.595035657447966
2.444,16.709987673515343,4.629340515029071,16.189467441573697,19.730582529198045,18.401914469212954,7.694714343909254,-4.678758443536708,-0.4523178273176427
2.448,16.224558381419,5.544196346447961,14.78027468163316,18.95200320196409,15.329699505937697,9.854845329722366,-5.71086726114072,3.4561647802328253
2.452,15.19953638113293,6.232334355360081,12.582901430863444,18.75684606636537,12.263912535212853,11.551892459205192,-6.756445948760188,5.942260178951528
2.456,13.357463636572902,6.073905852875441,9.487083322449735,18.378647640525173,8.739677564078534,12.522600538926099,-7.6793178075967035,6.535663922709432
2.46,10.795275495811211,4.67474877347729,5.790332505540391,17.021102466025354,4.506366833762399,12.877755577310609,-8.21033432866193,5.730064566494548
2.464,7.966512574919761,2.1299584214596052,2.1325086110487064,14.394236155575754,-0.2599053395872488,13.008550902476372,-8.044525174527166,4.710173365715718
2.468,5.411373170812112,-1.0279961609111297,-0.8681875013380704,10.907962265042102,-5.08030986067206,13.304525949398112,-7.029628431778065,4.677319375261959
2.472,3.3898992967883714,-4.16877096025496,-3.021141970266058,7.417013694617594,-9.516756082050279,13.850294680573825,-5.325694479721278,6.1325555029968655
2.476,1.6567319514683732,-6.959547510938819,-4.737107966596113,4.670408520403612,-13.479564137217722,14.290128023444822,-3.440925197823617,8.511021502451285
2.48,-0.44799723944197467,-9.546267747845718,-6.8100238087170055,2.825354369739216,-17.26313176316023,13.965635930820781,-2.0760818226194715,10.389735507224145
2.484,-3.594846293889532,-12.369599277380644,-9.896060324194991,1.3622411322207881,-21.243101748919912,12.271662113125103,-1.8199436750544464,10.183192653718606
2.488,-7.956219121252161,-15.709868845233473,-14.004372544883154,-0.5297265171128629,-25.426673286085588,9.044263580393135,-2.8616236492384814,6.967587584308035
2.492,-12.891142972138596,-19.26385571663434,-18.286916340098514,-3.305303005363271,-29.149419545947012,4.76037741552841,-4.84881969360822,1.0066785805751124
2.496,-17.046007125796677,-22.05798148535405,-21.304716383049367,-6.572120195550042,-31.166905589048838,0.42120609674316256,-6.997756826656996,-6.306830176697758
2.5,-18.886532137295717,-22.821769900377603,-21.672494617850816,-9.107212398263641,-30.17482259890619,-2.839452171769153,-8.420223551460822,-13.064896575283
2.504,-17.41858448024186,-20.65123149906003,-18.741345131764774,-9.426392232948842,-25.508550643513104,-4.236015416861164,-8.507636740290764,-17.68410696478702
2.508,-12.729203616805307,-15.589929836399392,-12.976074377270038,-6.626775840815299,-17.65832499194528,-3.6612112198238265,-7.195493914628969,-19.54596698375815
2.512,-6.060984729390611,-8.780862261286302,-5.810135263613347,-1.0230560124390422,-8.287727489587951,-1.710182242277142,-4.970480811771722,-19.129492196151887
2.516,0.6452368265527184,-2.058051787434465,0.9325248554509926,5.801733852041934,0.3039675078042592,0.6102600790468387,-2.6369573315303114,-17.606602178953153
2.52,5.531936186046096,2.834915349789526,5.764036843548865,11.607709136282665,6.051429670161951,2.3421558256004573,-0.951155046081567,-16.15104840002266
2.524,7.554677104965776,4.993105697943065,8.061438279807362,14.479628633755397,7.927862599772766,2.976172971905271,-0.30827672970053754,-15.343560417444564
2.528,6.816660800345062,4.676804173570986,8.14688294995858,13.65970408030762,6.289496738105072,2.6083297239481453,-0.6344118630411231,-14.971481005341502
2.532,4.352350963025174,3.0342959985608786,6.941607454818268,9.802782057238687,2.6034017172930817,1.7945007776093007,-1.4973397701530757,-14.282946584604133
2.536,1.5290750757244496,1.4060743787593992,5.407349336213201,4.549267496079324,-1.2901548159130698,1.208211807632324,-2.364844479298881,-12.497327317194731
2.54,-0.597813627962978,0.6110277374830275,4.0825519933339365,-0.3132355329132679,-4.018531059556608,1.295553692597423,-2.851862541583614,-9.267035585793906
2.544,-1.6651842752694392,0.5853798369939796,2.930545967993112,-3.6387621003827917,-5.222238404574341,2.0930117096479535,-2.8448852812168752,-4.860161920210771
2.548,-1.9703945690475848,0.5405060098453305,1.5141635756012874,-5.278130087749787,-5.5809322458948145,3.275699661881845,-2.483939022421964,-0.016836267446478814
2.552,-2.1197027415291814,-0.4938291021247778,-0.6394154147637892,-5.874598062558448,-6.344385072893942,4.376728723562792,-2.029639596429206,4.3859354224520075
2.556,-2.5951257856806933,-3.0663777519492896,-3.71912139949427,-6.310081982574616,-8.635046247052742,5.045094262202383,-1.7358707288706228,7.636607393135478
2.56,-3.4973923572993044,-6.989619985344916,-7.503476978442222,-7.175485879548432,-12.877664480990234,5.204738507735783,-1.7818371879332062,9.319719519661135
2.564,-4.592043074088679,-11.463330099878931,-11.459487060549463,-8.562027877422224,-18.606867803113914,5.0294245946336105,-2.2805992571550178,9.26673138196054
2.568,-5.551535818894081,-15.50018389424315,-14.972263855334177,-10.209572890997833,-24.68009998671357,4.782827600134169,-3.3160481248207816,7.456440870631013
2.572,-6.196954312768867,-18.381845633508874,-17.53323157704267,-11.807763141247278,-29.73865450916753,4.630540919569512,-4.926836617323943,3.99819897557461
2.576,-6.566198585925804,-19.886225726910084,-18.819040670690356,-13.195930273937847,-32.6770172674577,4.532514098360252,-7.047836451716876,-0.7804674068150916
2.58,-6.77866236404634,-20.200710302125685,-18.653750794911275,-14.31825850064945,-32.92284379564137,4.272133705618444,-9.43209415877459,-6.228845307800157
2.584,-6.825341278494761,-19.64559268308153,-16.931101115259025,-15.006469903462971,-30.466706859708665,3.5902795886102012,-11.626895951654433,-11.39505002801252
2.588,-6.451510416153724,-18.420045245415167,-13.611553351982593,-14.82796198758706,-25.721871837153913,2.350109825214531,-13.074706777909569,-15.245563267456191
2.592,-5.256706878647947,-16.54639850474996,-8.801975686174728,-13.192080200457099,-19.345283823559043,0.6342831709421262,-13.318033551705412,-17.01723926535567
2.596,-2.969856507291297,-14.017332013314217,-2.879066850430263,-9.718681181992224,-12.112252003268623,-1.2693663240245314,-12.225699687339102,-16.52442525976778
2.6,0.2762885770989669,-10.993047543908801,3.4649735766859067,-4.645273302072155,-4.843924200677407,-2.9783255362651744,-10.109319552511352,-14.225066454615103
2.604,3.8697034263145724,-7.86132631668454,9.345875258290107,1.0361533873633562,1.6717107509491598,-4.163149072307533,-7.639178478988015,-10.98248764801167
2.608,6.929613652148873,-5.084231696338179,13.937592152896968,5.874538653153877,6.791171170187454,-4.663047015501434,-5.590840433690346,-7.646540964078326
2.612,8.686992185685085,-2.9368586171603965,16.75466403603741,8.585417113569065,10.14036365302752,-4.52216769696679,-4.509390479761805,-4.6849828782078475
2.616,8.814869474576426,-1.3291602027948102,17.793995879476824,8.651727601156153,11.673666268126226,-3.9470596404908065,-4.475886776240031,-2.08305479155365
2.62,7.515304498459955,0.12148500633338699,17.453233847129923,6.548801346140635,11.596754779474168,-3.2126062902243575,-5.096691777406477,0.44783633140400525
2.624,5.33430036247637,1.7883605279582753,16.275834052015398,3.453347700078666,10.180712493987585,-2.5515118521352633,-5.721815023118552,3.110894899436289
2.628,2.819280152594729,3.6839746130101503,14.645448778871696,0.575421208728585,7.572853205536603,-2.072123618736896,-5.792404253916857,5.765862610690419
2.632,0.23993051809429744,5.306955582053206,12.624764087091762,-1.47370907495565,3.7462954113111664,-1.7267985092726121,-5.1250449495512385,7.961644565903271
2.636,-2.4383911448326216,5.853626256082862,10.025912542748983,-2.891504268778135,-1.3409169452759215,-1.3329982642417235,-3.9947974389747287,9.251922315240108
2.64,-5.326343504471879,4.714675595612334,6.678925556989498,-4.354255435194091,-7.450933147933938,-0.6418286690886816,-2.95832424787136,9.58652906592647
2.644,-8.28670441519398,1.9826479926807679,2.7463784382130143,-6.351477476288437,-13.817709526291992,0.5658431850933994,-2.503875531876929,9.499250593561783
2.648,-10.766948915583725,-1.3674710614734522,-1.1479821789805555,-8.637692438237309,-19.16660488134221,2.385662958555713,-2.7410767381925325,9.912598037782118
2.652,-11.94432870284436,-3.8078127759622475,-4.076919297656332,-10.177324369324197,-22.081759592518665,4.728354109207885,-3.2969157710613217,11.62061558248206
2.656,-11.131458456472956,-3.976208191753585,-5.2197620096305855,-9.66334348317855,-21.59913822222984,7.314611678362326,-3.5060955696062592,14.72219164481362
2.66,-8.226423039186102,-1.4170280086570983,-4.29974529239712,-6.320528456865986,-17.72460851855999,9.736938657083556,-2.796117766599309,18.35820974723515
2.664,-3.9332789647683057,3.0820461816294937,-1.7966545432686871,-0.502642879353516,-11.558979681975188,11.565517023340362,-1.0466613887056155,20.949363817616813
2.668,0.4165839060583494,7.78334067148694,1.1976301367587894,6.288959307769574,-4.914089822822007,12.454821532230653,1.2692615642786222,20.85700914080303
2.672,3.388415348451872,10.800511882272758,3.466996239245873,12.031899877180194,0.44520806397622437,12.215363218632774,3.2869062204313195,17.163680181604377
2.676,4.074797052959639,11.018443464864731,4.262151264820659,15.133975047221611,3.5703734592218552,10.842585187310306,4.191679177793958,10.18191973265516
2.68,2.507802709396401,8.636253936115054,3.6885957305673855,15.18233324307721,4.708449372347559,8.50422487483138,3.6721539623626995,1.4293037041377374
2.684,-0.35292753678095323,5.056275822621501,2.682966726035602,13.089910103231887,5.096422578423699,5.504370245563223,2.1373013680859003,-6.91470280569888
2.688,-3.0518689719792746,2.1745974458121964,2.5415606063231735,10.55363966529876,6.253127845021027,2.245444991724071,0.5398341633476775,-12.812458550560677
2.692,-4.286691891389182,1.441310585898691,4.240241070017419,9.140882608715174,9.13627738243872,-0.8210947295724509,-0.11078288771022926,-15.065616391793128
2.696,-3.467414978151737,3.180069858504112,7.871614709999676,9.490329891391639,13.595704331565685,-3.2669322684337203,0.6964385102087363,-13.630037486325136
2.7,-0.9346259247649868,6.491042737014141,12.501356551305435,11.048440233046676,18.397560932296074,-4.771465330125466,2.663936109073802,-9.460399041111714
2.704,2.2375509519861225,9.7540297304065,16.540879028059408,12.461828259926733,21.80342177897205,-5.19879671550234,4.8156494822046625,-4.017795729226691
2.708,4.723755108559089,11.4294266328302,18.4411685318114,12.355730949122972,22.376700273672668,-4.638735488385919,5.992624745849753,1.2883574741106258
2.712,5.478765255918461,10.728312782243847,17.386394191058116,10.063229292263486,19.61125143863069,-3.383742910416913,5.464242045590709,5.492171082519917
2.716,4.11050569168674,7.861663624022867,13.649614128144094,5.935036276748633,14.099944605143264,-1.82839915378554,3.311511370016433,8.20293349125427
2.72,0.9674863833520249,3.8176050968484105,8.452865111197298,1.1110072870812928,7.20669821725869,-0.31768344462716414,0.38492464763658063,9.522442713905093
2.724,-3.0572360859137007,-0.1546713825769075,3.4103061652026554,-3.0822931733541736,0.45127438136660203,0.9731626214647804,-2.1371127470133615,9.860243910446115
2.728,-6.890930455944726,-3.0526867126179695,-0.17959543505730835,-5.768712859801099,-5.066618926784486,2.067412001012599,-3.34768614722816,9.750184559334457
2.732,-9.646180089023801,-4.389000492868263,-1.8269308166427436,-6.850439558485959,-8.929044450231686,3.11759695664432,-3.022565977476006,9.723350399403216
2.736,-10.847812909282311,-4.164148835011019,-1.9274494690914707,-6.899440782799502,-11.281414815109315,4.287747183133433,-1.6363550705757461,10.22907961088913
2.74,-10.488581571416034,-2.6805312949472864,-1.4300277012634979,-6.740906170560493,-12.487822104354791,5.648960054203144,-0.0013103716853493097,11.562063128602176
2.744,-8.942330324354316,-0.35986451357962324,-1.2843792728547214,-6.986218429352903,-12.791928847967483,7.139144931950796,1.232254661676052,13.78215521336665
2.748,-6.79537636087889,2.339882169973862,-1.9807738455315302,-7.764524503345456,-12.18755341030078,8.60735759616955,1.8965411278895772,16.655927351325545
2.7520000000000002,-4.671402595373365,4.914609988265283,-3.370750528450344,-8.743235242850915,-10.530177753865928,9.904621820386637,2.297520890871965,19.688829917642806
2.7560000000000002,-3.079346268827976,6.82950527634307,-4.8245207920147095,-9.37072045277614,-7.77120061103642,10.961005822463449,2.9078450154593156,22.27394970451428
2.7600000000000002,-2.306788093610976,7.63062273407877,-5.604574277813299,-9.176916614034326,-4.147702370637944,11.794714129578551,3.9775583584294054,23.90283597604366
2.7640000000000002,-2.357019244770072,7.139695993525493,-5.227361355697894,-7.955673461402057,-0.18695706942958168,12.455171294025604,5.32771483319334,24.35172216431647
2.7680000000000002,-2.9322691907482294,5.619601704343722,-3.65272673233585,-5.783739452747568,3.46997520729019,12.94937681648571,6.4298138119015675,23.74169804934013
2.7720000000000002,-3.4913511251070304,3.7697105045219814,-1.2240309687042554,-2.9209114747941385,6.32832492668058,13.199981645710523,6.712514555682446,22.433105304971377
2.7760000000000002,-3.3939681660936003,2.5057810493974557,1.5533145073809465,0.3061782014297023,8.235681176817025,13.064608671183578,5.886874418523803,20.803703812485992
2.7800000000000002,-2.1121675537829105,2.599191858413178,4.2651622986013535,3.566256856483733,9.41043456409193,12.415126798217898,4.098654430013994,19.044431959185886
2.7840000000000003,0.5536497420425803,4.34750824786579,6.7502266280234835,6.535335083831569,10.31062267881748,11.224802030606043,1.8478532245399037,17.10180973244701
2.7880000000000003,4.346884666701953,7.460192244311429,9.098411024729558,8.911208978365721,11.419776611249517,9.617895182529082,-0.24250751730937736,14.811066865958537
2.7920000000000003,8.588530837617782,11.219842624794865,11.531972302692338,10.486422196170906,13.054320302061797,7.853446915798486,-1.6405759916051466,12.146266083057299
2.7960000000000003,12.390478192858609,14.825901945385112,14.22280842734176,11.2523708567835,15.249764795436704,6.247692500465291,-2.014036485534689,9.413178551733381
2.8000000000000003,14.952042221473675,17.710451566508027,17.12382984214787,11.439192132033213,17.720221767422117,5.0726490128490695,-1.250360768320661,7.218610503160562
2.8040000000000003,15.803860591137436,19.64965870294327,19.873562418566735,11.408150688140722,19.871760322015916,4.462603049838435,0.5207290222074334,6.172725740047781
2.8080000000000003,14.886951629509895,20.629742601198814,21.785408648468774,11.383561422772345,20.854463241716076,4.350848231183136,2.827028013103245,6.451248299795907
2.8120000000000003,12.423387341242687,20.580734890347003,21.964645990886538,11.154417508765164,19.688023820752733,4.456163265598207,4.7553641047366,7.478932478921479
2.816,8.684898184636495,19.19272244210788,19.54140073074791,9.956533957256397,15.508943472587134,4.3361294165260915,4.989133837295867,7.975047779355009
2.82,3.8249839429049644,15.97861771396606,13.983074307820061,6.695489586119493,7.914720470055613,3.5119712091959627,2.1368258849252015,6.4344409901891595
2.824,-2.1030613609991633,10.590972947116597,5.4056659294149085,0.4924261284465956,-2.692953861992919,1.64007226511103,-4.6754362175731785,1.8715753428411972
2.828,-8.924785286680162,3.2339459034063793,-5.253820603804343,-8.671341653877107,-14.936778240736885,-1.3102263707896782,-15.190571255299346,-5.526227781777266
2.832,-16.063366985805715,-5.093017084541998,-16.2968550892233,-19.549487282689597,-26.61821281276059,-4.944975703805312,-27.71040606579777,-14.199964333381331
2.836,-22.414485267623604,-12.71155498294695,-25.62611428131754,-29.76227481168712,-35.24284858903604,-8.474528895407047,-39.375638805154495,-21.65236850361066
2.84,-26.532006219099912,-17.766017089026263,-31.32711647661108,-36.509124182370556,-38.7793136153241,-10.909236343921748,-47.02287507779124,-25.370251189955525
2.844,-27.117555001756955,-18.913790216983898,-32.269864937877855,-37.612213853804406,-36.3555617551807,-11.38153684976487,-48.29647778646245,-23.84304383347012
2.848,-23.599201586311665,-15.880233376229853,-28.51189932795046,-32.43916031694971,-28.59179987602073,-9.473801412505281,-42.540793642904305,-17.210439877169392
2.852,-16.492264101240835,-9.597978211959344,-21.28853143230276,-22.236744095937865,-17.388552119453266,-5.404641119573171,-31.033872433369652,-7.228267044459471
2.856,-7.325599464470997,-1.8435876697037656,-12.589648978047308,-9.70497253803319,-5.248505322223764,0.01641951712417722,-16.461575014441678,3.421180496073589
2.86,1.8775758147012311,5.460317869591108,-4.482116683753702,2.018586705424241,5.574611002769984,5.662571958028138,-1.8986033918401972,12.145879373096363
2.864,9.320162811754244,10.940839797156968,1.5555681011446723,10.49616406647101,13.730525350959851,10.4677792445475,10.218820921340011,17.319940006918387
2.868,14.018602390708793,14.156602401370264,5.001175051788323,14.727578393977865,18.963438145187524,13.745360576248459,18.676551266423758,18.65587858771596
2.872,15.983268999411393,15.51991189204,6.261775051551467,15.215742829009628,21.829759580368318,15.31306451674618,23.46232193460537,16.99621564172992
2.876,15.94569057476906,15.861821927875553,6.290707102813485,13.409289004865968,23.14991286250472,15.393274687631674,25.282656607277886,13.714324279055631
2.88,14.82596831151227,15.9024919747568,6.057297967859768,10.874849669001946,23.51104455018401,14.385695650368916,24.973054345515948,10.073542443317024
2.884,13.265237324743111,15.913113772640031,6.132480151806021,8.641977374002181,23.068628944191914,12.656411827079182,23.131927274223244,6.834433572083412
2.888,11.469463668806839,15.722312121198684,6.5376412767984675,6.993971269655958,21.689418081525332,10.459820328419482,20.09915879161349,4.2212322655266235
2.892,9.391954538800746,15.006695207926896,6.902140721574142,5.714397464420131,19.286623064318633,7.999030790210554,16.188718355259653,2.1531471018427055
2.896,7.067034213733905,13.639304546449125,6.7782659159872765,4.517047775395895,16.08342815058768,5.534834832662455,11.906062586410826,0.5146503851062789
2.9,4.8250183711706995,11.861316546111539,5.924621660151274,3.3482876757194617,12.631497568782038,3.4292270327891856,7.965200239641717,-0.7114630485842781
2.904,3.223908858093864,10.177277791361917,4.427298645751193,2.3942501013916626,9.583990132875215,2.0447561890878205,5.079170046890795,-1.4964011470526657
2.908,2.7361659953010076,9.060009490965172,2.614679218924607,1.8382768698817245,7.373535545823415,1.550836255276863,3.6563809225394834,-1.9065465009363152
2.912,3.4147647975548807,8.672610786521773,0.8693059275340147,1.6071899021313811,6.01550206658419,1.7701133785267302,3.6243534985439965,-2.1881044548537147
2.916,4.772216996546376,8.796082476332458,-0.5525946601197802,1.3164849569359376,5.1499944475433495,2.184795530410156,4.470964359913523,-2.714131993778551
2.92,5.9850737472377205,9.011334658708392,-1.584367391709975,0.4826055488838392,4.292173326945658,2.151983381121454,5.485949855251533,-3.804148378054606
2.924,6.32065822418258,9.002963967474784,-2.272346537365138,-1.1319791289785144,3.1320263118589082,1.2309543793028297,6.063639444196383,-5.529114837359884
2.928,5.541739263960835,8.780123320274356,-2.6526626694943616,-3.2826637935967256,1.693212171488426,-0.5498540977737321,5.895908938994012,-7.627633842615978
2.932,4.037084484908746,8.655313770991938,-2.662239018418063,-5.288302760996885,0.27539084872432795,-2.648478414138026,5.002469447325552,-9.587505943164501
2.936,2.597658770154112,8.993234192044383,-2.1591658282627577,-6.3618351722590205,-0.7601422376922642,-4.238902085806103,3.619433936215046,-10.85370265663471
2.94,1.9771330865637537,9.896654193707832,-1.0321833441174704,-6.029813959315675,-1.2130554448001476,-4.602078833326914,2.0545204794752863,-11.056027823153272
2.944,2.481734347188649,11.048408300470953,0.6828201460982655,-4.388942059282954,-1.1305447436388931,-3.481225539121624,0.5975655633259294,-10.15353464657693
2.948,3.834911342382611,11.848074918483178,2.7555216138467813,-2.049992967288631,-0.7235733400299296,-1.2068093648747436,-0.5086907634221234,-8.433655172530734
2.952,5.373135694253051,11.77081560688066,4.844097274592627,0.19971224528546827,-0.186949396666364,1.4674311302858314,-1.0606513876925874,-6.387283335181564
2.956,6.4345636894213385,10.728039677296636,6.649579218944609,1.789317706787017,0.4368662136473631,3.7144390249918615,-0.9272703011488375,-4.533830333513492
2.96,6.719148228602194,9.194253968406201,8.05536150228977,2.583818964022555,1.2556707751627982,4.990953614251907,-0.11652713412411231,-3.2629433452747776
2.964,6.415189252898017,7.992223482146528,9.166827158158412,2.8207584564070203,2.3955239293867976,5.210899135444265,1.1812077853677465,-2.7446492150583595
2.968,6.039815800358269,7.841966237756026,10.198391713118212,2.821959325866544,3.8327715883331166,4.673218474820942,2.6159247947446147,-2.925672648950922
2.972,6.1111405714323155,8.9244801639544,11.286809468078332,2.7015261282349456,5.321486857335742,3.818892907154691,3.801854122818213,-3.587267889654413
2.976,6.842675988093106,10.721098700526056,12.328183732974821,2.2538529232042492,6.471482938808208,2.9736264074113024,4.477022946277543,-4.445372321186085
2.98,8.007103819137797,12.22353111243109,12.941918525940764,1.0882580992044382,6.926465967518027,2.2150268479375654,4.598450508754695,-5.260670946635969
2.984,9.030909924797811,12.416828320184948,12.620025964068986,-1.0731989677187244,6.545428371192941,1.4203052234892084,4.323934346657779,-5.9194942037266856
2.988,9.265385631411732,10.783724699212371,10.981193145671796,-4.13706411131551,5.463327851369115,0.43666043842256386,3.861083027281097,-6.466320651697345
2.992,8.27526555512145,7.553740924429292,8.026564936997488,-7.581698426511764,4.001513604727791,-0.7602203045985334,3.292338241671473,-7.06391042619822
2.996,6.0335916744872975,3.593382407671754,4.2464781854263265,-10.63486240464681,2.496062128182018,-2.0215586288670693,2.4924489159510586,-7.8901618675608916
3.0,2.953747771404551,0.007879316147750615,0.505728546349701,-12.580534503828119,1.1462552022986188,-3.106668980429845,1.205308845291711,-9.014775532658803
3.004,-0.24208623113895555,-2.3268827938861705,-2.2445264051980303,-13.027781101130813,-0.024645448435137496,-3.8253788415545387,-0.7420440457691484,-10.314709612545471
3.008,-2.7702444358631055,-3.0765020492519852,-3.3345361780948224,-12.032659489058972,-1.097208018364654,-4.1404961575947254,-3.227000149167111,-11.486720132328685
