Timestamp,O1,Oz,O2,PO3,PO4,TP7,TP8,Fz
0.0,-2.3945290195115376e-12,-1.0018652574217413e-12,1.3784529073745944e-12,-4.028777311759768e-12,-1.1368683772161603e-12,3.993250174971763e-12,-2.4584778657299466e-12,3.709033080667723e-12
0.004,-9.400103573352592,-8.227219642042911,7.286433540885994,11.781127411657337,14.050060571426798,27.340484828124332,-3.415612538866881,25.73425473092955
0.008,-16.53496777965548,-15.052783160878555,12.471208831392026,20.461737565349566,24.018032863443153,47.707783803199945,-5.942205954184274,44.90688504129439
0.012,-20.149801101843288,-19.566113061032723,14.406219969730188,24.259256900466106,27.75769952181686,57.12127650545406,-7.064446391056933,53.73412618812116
0.016,-20.489799330162025,-21.628282253848717,13.35306375960161,23.37280544187157,25.964585422962422,56.0896757228918,-6.823580245173588,52.58553732862794
0.02,-19.06331004860722,-21.855641629210368,10.69215225346126,19.6600336941166,21.57333593298231,48.902583316443526,-5.751394296744138,45.32214464582009
0.024,-17.800966332908686,-21.29643064571627,8.104040179306644,15.558894505676555,18.03408126455067,41.184929529454635,-4.577474556464907,37.03862807014254
0.028,-18.08499455910018,-20.961493167664983,6.706237396990424,12.87454337027392,17.484258839337365,37.103396436440136,-3.869145008481027,31.53162754705488
0.032,-20.15412218727061,-21.415835908171417,6.642760354576069,12.082952859204681,19.841285260635985,37.70722192023278,-3.775945526057299,29.85611313937884
0.036000000000000004,-23.146869436326288,-22.594345509157925,7.3112442483646305,12.462798228441109,23.251222973531696,41.14107553384643,-4.000410290759362,30.58838373448517
0.04,-25.70625551915631,-23.91903184491784,7.981619724344469,12.844708055268875,25.489201731072065,44.34922821601215,-4.009863753458717,31.378942415036533
0.044,-26.752689631557793,-24.63138747924443,8.348045573425708,12.430843791392526,25.364178259537347,45.069686111154525,-3.3730386806331722,30.641421996430516
0.048,-26.02756222556499,-24.192741274313548,8.637577745440282,11.185290275267171,23.28690779218639,42.96089072389347,-2.0573945296920897,28.36223127911569
0.052000000000000005,-24.15970033996401,-22.566825182522628,9.265391447048714,9.647024860895236,20.76175416494464,39.38723625551523,-0.5265730709566441,25.703818477279242
0.056,-22.269147422681428,-20.23559294716562,10.357777746074085,8.413137047355335,19.265644751303313,36.24981701167344,0.44397236244586935,23.89799489489529
0.06,-21.387343403677352,-17.965762408612974,11.499242060921127,7.679180161259509,19.275984462327223,34.72641444519513,0.13879821237900103,23.299609218454542
0.064,-21.98088925961195,-16.429362350006112,11.913006974619456,7.1428607800122705,20.032981222778886,34.67210092946502,-1.7028950283454023,23.20830512306349
0.068,-23.801932451059912,-15.878910727738116,10.95971910172031,6.290700893038249,20.137060542674902,34.955390929669676,-4.680650346008363,22.52378208189343
0.07200000000000001,-26.07778491395963,-16.03364616237555,8.636530724154383,4.851350226586391,18.568612441882486,34.40288784974169,-7.815016748279831,20.734784747736555
0.076,-27.897680561005693,-16.228115628736212,5.736189849260143,3.087129093462096,15.458199435857843,32.67385061225579,-9.891898039699953,18.507833475542874
0.08,-28.60533201065414,-15.76947396616,3.503613928916529,1.6989596150193265,12.109621479002406,30.501380399409953,-9.939998740920622,17.43802305612114
0.084,-28.002728024517705,-14.308163841608618,2.969076792190336,1.408087515845878,10.262355650239378,29.165200042517156,-7.620211312715313,19.056534320361244
0.088,-26.32381045903767,-12.034755603819072,4.354731735664814,2.499851211828485,11.084410386397636,29.620013615714733,-3.352806061771645,23.77268681903564
0.092,-24.047023341166657,-9.60190081943145,6.93463272757981,4.650810601400593,14.528996112914612,31.89313837685623,1.8707563944799332,30.46494025879516
0.096,-21.653023600921134,-7.795069810793777,9.46760647648157,7.173358129381985,19.442992883716833,35.12681725494759,6.9109644909975785,37.016563600237006
0.1,-19.45810963937394,-7.1327858956137185,10.92334791095184,9.481287537072802,24.28971332847438,38.150999701186215,10.910327278524193,41.45589313020425
0.10400000000000001,-17.54438560039231,-7.569074443338781,11.07068309502899,11.461467671509329,27.997730213445532,40.13922699420777,13.554329130959175,42.959795339362145
0.108,-15.81723161944926,-8.476712099166662,10.561537647756694,13.481386407341873,30.419796059229217,40.92069944370276,15.048615212426583,42.12929254630946
0.112,-14.14180384199491,-8.92594267236246,10.493614800121591,16.043346154725704,32.18643564995334,40.83329676111831,15.857428674162264,40.43646096967702
0.116,-12.477070984545492,-8.113601750371348,11.742229342007626,19.33653577085867,34.137243394117704,40.33526058814596,16.387383295185224,39.2615689159863
0.12,-10.940623946233998,-5.74606897042527,14.444274438020848,22.974496595855452,36.72121055330595,39.69033224649266,16.779600385465912,39.136425196744774
0.124,-9.735023499092325,-2.1720165200031474,17.92753071283697,26.10130799445254,39.71303022100223,38.906985158702724,16.91871090084728,39.58857103134572
0.128,-8.987721997184995,1.7819378867753493,21.09439293521126,27.814052788484982,42.38259579355895,37.92850505467792,16.618370675381122,39.631286589475714
0.132,-8.59474561867107,5.194113543225651,23.04275571034436,27.67530083004005,43.983865895834825,36.89412333002779,15.862769121104321,38.548613151962485
0.136,-8.188339133820573,7.443971852925596,23.550939261334236,26.001247943568,44.21512011110545,36.22037232738182,14.920106417689958,36.44346877068031
0.14,-7.298269076626077,8.416619610290546,23.129303582619876,23.730070789841204,43.35296533993261,36.39643863281139,14.235626800518887,34.20720349014256
0.14400000000000002,-5.609820788022521,8.458851423401246,22.645147215024338,21.939350901657235,41.996113828459436,37.589894948843984,14.178559114339393,32.92840343582746
0.148,-3.215511187427257,8.113012236047428,22.739106069275785,21.26798834952157,40.60706990402931,39.35528778080482,14.77493028328918,33.15507505858681
0.152,-0.6899887504824136,7.805011267418774,23.41653283654218,21.60074761055296,39.200038358841034,40.72649700960812,15.614260392420569,34.52896922291967
0.156,1.1018669668255079,7.664650508730684,24.07505506503193,22.20723457467906,37.394862862966804,40.709675970120685,16.01779378139991,36.0286862361493
0.16,1.3902910661747754,7.5467030921930025,23.916590930492056,22.231392257289972,34.77952730601495,38.88995346867603,15.386261267003647,36.652202220870365
0.164,-0.08098915296937648,7.225535801394191,22.4756030352927,21.225011383523537,31.303953351874718,35.73606361880123,13.541395493420218,36.03977180738647
0.168,-2.854740860446638,6.607904393095303,19.931444626353805,19.407507936312076,27.43585743660103,32.395931802318344,10.858693110783683,34.657189459266085
0.17200000000000001,-5.911780857393111,5.827306315627322,17.03484518089773,17.535947108186182,23.985674017144902,30.116283377797863,8.116178874239083,33.46631285025872
0.176,-8.126697488898817,5.163450323617393,14.713861613065589,16.481818134297352,21.71178140321487,29.61997083447291,6.130817853332182,33.312582057919556
0.18,-8.818417846811599,4.830012263545182,13.56737193752872,16.744172720960336,20.932851111854824,30.779653867443187,5.358121650188881,34.41479160336771
0.184,-8.062504591444753,4.818039258884625,13.56128136934137,18.18643456236568,21.38151279906193,32.743234361234414,5.698284167007788,36.23225952367932
0.188,-6.614731951507643,4.898492439597206,14.096575598760012,20.13357970583974,22.392167257175405,34.42941425543246,6.598412625841888,37.78745673313428
0.192,-5.491947311620642,4.788308400234017,14.416187782897847,21.762399441246416,23.319790492409446,35.11863673888472,7.381767319499808,38.24283077827385
0.196,-5.436392331670367,4.374400077836732,14.10761002249453,22.55472342005558,23.936614562509817,34.815714451480915,7.620239736103979,37.3777329852242
0.2,-6.557221919877778,3.833990270529082,13.380102011630697,22.5354931318001,24.541233097784882,34.18061650341018,7.331075251902803,35.676999550553475
0.20400000000000001,-8.304684608602,3.5714539191005663,12.944195027294708,22.157781192183307,25.678088941906744,34.039576732117126,6.899818659436779,33.94463411022775
0.20800000000000002,-9.802080448999842,3.9675354399917317,13.540069883762914,21.915230963952496,27.632738949257636,34.78093619193021,6.7785915969481465,32.72047005730471
0.212,-10.331819472248117,5.09355348071227,15.426164706031315,21.964214460471517,30.058718338613915,36.04157358527762,7.164030609480701,31.914931554777958
0.216,-9.697102808670774,6.59277553678548,18.170050859167674,22.019228536600533,32.02382224762634,36.89257140065096,7.863790575136903,30.919198417421363
0.22,-8.299266920747417,7.807684560902091,20.843987224485474,21.56079784421799,32.47545507674113,36.39391516031199,8.412445304277934,29.119961745908366
0.224,-6.886237638544691,8.119439294481714,22.506631345689634,20.20263598658823,30.847139748601776,34.148586643585475,8.366732552574433,26.429130804243236
0.228,-6.1611093683560965,7.294959595474387,22.682378178036306,17.97134963590156,27.456088980246314,30.550390832215168,7.581534869242365,23.500818979606095
0.232,-6.467914427979912,5.637900480559203,21.575075148197097,15.324217013613028,23.443675510107447,26.603674515512825,6.302663558385852,21.47901820386214
0.23600000000000002,-7.6887269079103,3.850794997958662,19.888569188346068,12.87788306492357,20.23061569536862,23.387663175553286,5.029568203289735,21.360730125062656
0.24,-9.392850941081853,2.6594947524956787,18.359794784958602,11.02156699029537,18.772758513011375,21.492862911065934,4.227573514613059,23.367334466395832
0.244,-11.091405240227807,2.4342159592126844,17.349632621031773,9.710687649468372,19.075620144736966,20.791526910635792,4.094080045574273,26.73466431550583
0.248,-12.462847967390141,3.005480836865459,16.691609808936953,8.546974986596002,20.217205422628904,20.62316701685912,4.499205827940404,30.047719586275026
0.252,-13.425487127875675,3.791019058711427,15.870120069174407,7.092151881435994,20.861021954124197,20.240357320578376,5.12280978804789,31.92617336059224
0.256,-14.049639233326944,4.159119381085766,14.420400118588304,5.22291847069396,19.994066705199298,19.25853988803582,5.6908801217707,31.693783583911507
0.26,-14.448429826849518,3.776281213726559,12.264561623518654,3.2758847177201957,17.4763218462376,17.86618007127754,6.122189342557132,29.689587467641328
0.264,-14.715251751870017,2.7519555832406892,9.805355557991083,1.893063779909813,14.106315184400193,16.696955131968625,6.5034508897668974,27.046426726078337
0.268,-14.929418643761244,1.5196871416626339,7.713737341011793,1.6453512434211097,11.173016472006958,16.434329680562698,6.921279128124535,25.06949779233149
0.272,-15.18044861726608,0.5518227381963667,6.553798274526484,2.663592263851343,9.743058951087717,17.366422663995245,7.284375929431107,24.541654480201338
0.276,-15.55126883358676,0.10809604670889428,6.507517137283211,4.534620184012933,10.116933622544607,19.173639679573142,7.301830929738275,25.34859601884225
0.28,-16.06768375678385,0.15345506178941903,7.353133158496632,6.540410764999408,11.76957387611593,21.099265388143504,6.652028131791518,26.65420985572724
0.28400000000000003,-16.615245704821405,0.49384322671008896,8.715307960971323,8.114377396890303,13.781811545958426,22.399140177650754,5.266857750786997,27.48571114201576
0.28800000000000003,-16.914570637519326,0.990363176684034,10.347425405214919,9.188704999325742,15.433322593698312,22.754383136709976,3.5216756479541846,27.33711633321792
0.292,-16.603082930118276,1.6757864807211433,12.22167655982938,10.18198313424723,16.556895491878436,22.382076550163752,2.162921227282718,26.400517080648996
0.296,-15.39498312831663,2.687568704429891,14.390079987748239,11.633802874985856,17.465594559059223,21.804209526689863,1.9674356600339795,25.32015043822483
0.3,-13.269642578997043,4.053573879806356,16.723027618729603,13.733840548714305,18.5574975426196,21.47188662518213,3.29873217982699,24.70262642830933
0.304,-10.547917735030996,5.518878872847702,18.779444515795525,16.079766710240516,19.906149063942692,21.503644184288504,5.838736122244889,24.708832539549178
0.308,-7.799550513406846,6.5642752631746735,19.918777656132647,17.813605359412527,21.107834691489654,21.663514276280672,8.659439747188436,24.96939567445292
0.312,-5.611941398995089,6.644534614980592,19.607213951173804,18.06784920194259,21.477607748498997,21.54682323542896,10.631034674397487,24.831956406799048
0.316,-4.338440296990065,5.523932722273556,17.7562607981937,16.472530644539606,20.4796321539156,20.851971005015272,10.975007457548479,23.780152105000987
0.32,-4.0023907645551375,3.460895927499789,14.843172379124859,13.40723224782293,18.10835135447379,19.5836349114838,9.649832608114835,21.791456305515055
0.324,-4.383205634830773,1.1156507195014216,11.730036330055675,9.856014251499477,14.97521276889876,18.070410874331564,7.3791319138240254,19.41040781986247
0.328,-5.226310665989237,-0.8010639287778041,9.23151222419533,6.915786675265025,12.013453028632883,16.75602965705966,5.286263144694576,17.48334590967622
0.332,-6.411787922876081,-1.9180470521217599,7.691874170311269,5.249479884987276,9.980662329014045,15.89969375420794,4.345190197940443,16.703478178875727
0.336,-7.956849095109227,-2.3738195098167134,6.849531780162762,4.815365269782939,9.079856663572244,15.393527256746053,4.948979913372933,17.244429849448938
0.34,-9.886462580274786,-2.6727000651472475,6.0712953612336795,5.017797956222639,8.938014048121728,14.838404254798446,6.794204799636858,18.718592737068526
0.34400000000000003,-12.04882009546867,-3.286868762562232,4.8586430160068055,5.193190450547583,8.964120834982186,13.855702247516756,9.134511346971875,20.466859393368217
0.34800000000000003,-14.046842725126076,-4.278648853906787,3.2604948139189496,5.087160294559353,8.80963102405686,12.403518276696921,11.202667177844116,21.96432622428321
0.352,-15.362955082494885,-5.204029304882178,1.9120065395456907,5.004519827868178,8.607109816442165,10.8685888993745,12.547213459320629,23.05683791252047
0.356,-15.628805497087662,-5.375325212950058,1.6699658977689946,5.551194077465012,8.836307990260472,9.862332734958603,13.126392589754062,23.89896410212019
0.36,-14.88725396061621,-4.331571227495853,3.064221681824759,7.152111431907933,9.931886026691995,9.865215242607551,13.153403366748663,24.71374548270024
0.364,-13.643874354428661,-2.199347241087544,5.9329329063175935,9.683388233658658,11.91899496235332,10.939755409240966,12.85499689109692,25.55315216462821
0.368,-12.649249727266739,0.2938049529979141,9.444432092757815,12.437901772060712,14.311099524456742,12.65143005259982,12.320887969101122,26.2120275728633
0.372,-12.487717499971334,2.2024282070908585,12.509883307475555,14.461401603200652,16.33827212019311,14.239363433153319,11.538489025511566,26.33973461816745
0.376,-13.204994020071991,2.924984746256886,14.362717899440776,15.077035614704219,17.374870795617,14.960253836529281,10.565915117254624,25.669094123998732
0.38,-14.245187500731792,2.569609418009331,14.93760808114519,14.280597800948872,17.296953684803512,14.442559110284662,9.662428201151721,24.239563287080287
0.384,-14.734014719946826,1.901920683886643,14.852771006185474,12.78272495504524,16.55386463620068,12.87865654666533,9.258942169363994,22.458259930887717
0.388,-13.977234527296778,1.876114268512496,14.97546786794015,11.640317571823957,15.884295666072205,10.92295353003591,9.73406329518641,20.930590881982475
0.392,-11.890776711283802,3.028386742642896,15.827808599572835,11.670594021305298,15.842093011441408,9.343208016746752,11.12322566037846,20.139232395035734
0.396,-9.101179812159893,5.1159738319411225,17.220302812639453,12.989514255261138,16.439299599993355,8.628782126678097,12.973722402246915,20.159727124847638
0.4,-6.679494628742996,7.206818239843614,18.321887337561606,14.927657908549746,17.137379220556248,8.783265185992521,14.454205523397098,20.619315338909246
0.404,-5.608755362184869,8.203934951481955,18.179190053370135,16.395895590723576,17.220539534909395,9.43293304134254,14.727643591297053,20.937660401709444
0.40800000000000003,-6.291600549065017,7.479521641495044,16.344118631938187,16.464059805240023,16.288386961228593,10.130238572172257,13.387816190873973,20.69267046250825
0.41200000000000003,-8.362886528696334,5.2374514983006755,13.218865113878582,14.821638237792609,14.531722198256906,10.63171013754719,10.705117994919119,19.87138010642325
0.41600000000000004,-10.876407465215246,2.4091250107976774,9.928917751845196,11.898888570226553,12.634059369453471,10.991341857633227,7.542831832907899,18.86480407443497
0.42,-12.772817074460047,0.12850569475099177,7.756845752595723,8.601626804346973,11.36131630567394,11.438304371882674,4.950408362351358,18.23699710973751
0.424,-13.351761542417242,-0.8815038123496972,7.48306726031949,5.860455717688023,11.107017746101318,12.148669185101296,3.65562393580509,18.395125797736824
0.428,-12.521800394475042,-0.6617988302909412,8.968011716983241,4.225264496524501,11.65538281006511,13.045290734740966,3.7178515026059857,19.335847358246152
0.432,-10.724919578090564,0.08101076816427999,11.194626500817606,3.6997411305049566,12.295907655801276,13.758880238258433,4.525268529779826,20.585784178378148
0.436,-8.613509157864263,0.4559663294721408,12.779212347484789,3.894174454291389,12.239310413156627,13.809173530062651,5.152994962221819,21.382802305372426
0.44,-6.72016779595503,-0.07902707677808607,12.660560684944887,4.35303803716935,11.090589845766914,12.921698817283753,4.862588209702476,21.043678946874735
0.444,-5.272108574998109,-1.4322863802194066,10.641560414819075,4.862473530400541,9.114173035491623,11.297436628504187,3.4850385915068465,19.328322501359004
0.448,-4.219506318081489,-2.9909211112717315,7.483359570409068,5.536161499812392,7.119956949619063,9.624615500374901,1.4805096735481498,16.604610660484937
0.452,-3.4104116691776425,-4.039911890281985,4.4983505181456245,6.623888833096483,6.009392302180455,8.759441780582751,-0.36188194804333196,13.697051931858695
0.456,-2.7596824181813573,-4.2069084069900855,2.8870184250073985,8.189787290945311,6.245570423510442,9.237659106935654,-1.3922010150668518,11.494368273896082
0.46,-2.323503281719659,-3.672582288473796,3.153581013779539,9.88438413194916,7.568730303791531,10.91493592859188,-1.4723229563302023,10.550169161396347
0.464,-2.232930354032164,-3.0199855090594805,4.926205016968195,11.001302421126102,9.132078389001306,12.980203560004075,-1.0259092379977477,10.87239083998884
0.468,-2.575977495053068,-2.857876324547541,7.21455926744993,10.785169272879825,9.954780352059473,14.342247766795412,-0.7562621300699648,11.980517016317945
0.47200000000000003,-3.3082562364713084,-3.4503882885514727,8.943321885149482,8.83049035462799,9.432318573722554,14.182346082059325,-1.2011162890464167,13.166511851021694
0.47600000000000003,-4.244586366440055,-4.5718228956938605,9.480292262911746,5.359234282300677,7.628093433717571,12.382318275573054,-2.388404237561542,13.822792348911562
0.48,-5.151328596238888,-5.671395112054201,8.876557016552628,1.2051475720795084,5.209831192508712,9.603353424686818,-3.8085862987950474,13.706132128374874
0.484,-5.85842909783311,-6.221902628156112,7.7442864685054165,-2.4919384209619038,3.0883788520776942,6.965696614390284,-4.720691926938089,12.999094370294507
0.488,-6.335406300249241,-6.049221631813653,6.83627881535621,-4.764161080264256,1.9440724133014307,5.4694567672275,-4.627865655001933,12.147479214704482
0.492,-6.682092567148356,-5.44227230557932,6.572055911652006,-5.2307648227090215,1.8931300617092965,5.458605611352621,-3.632388398373506,11.560721973047379
0.496,-7.037739583536068,-4.980678576649378,6.798375502553587,-4.227221519973696,2.468987879978778,6.433842519289984,-2.4387277596230517,11.338830892518207
0.5,-7.492140429967964,-5.202757140143068,6.902297591129795,-2.5900006273362983,2.92473179947359,7.352248910233302,-1.9884816335441302,11.216691672213138
0.504,-8.029070957261652,-6.2898250294351294,6.234137859915394,-1.2007225495167582,2.692955643914693,7.2590024798681725,-2.905078678089202,10.752399149483828
0.508,-8.538869817817805,-7.952713746157954,4.560811788453057,-0.5535033385440169,1.7192924721103813,5.862216031969208,-5.082003075053665,9.633847334652062
0.512,-8.87322905345308,-9.56416509784404,2.275338123887441,-0.5690250503950702,0.4816310645216402,3.7112936640106047,-7.662615624210034,7.907617831388874
0.516,-8.884547562636598,-10.440487357055048,0.2542203703497754,-0.7226477708457422,-0.2896560450190333,1.8797154964701848,-9.437937735067027,6.001328003059292
0.52,-8.46102392332597,-10.140766129651585,-0.5805002949026974,-0.3975718053132722,-0.015503002662538012,1.3492147438237838,-9.468191403731684,4.546985687987584
0.524,-7.529142567813106,-8.622615616199035,0.280202599008609,0.7697640171301776,1.4475229295543421,2.46549001483789,-7.5710502325430244,4.094398522337716
0.528,-6.043633432405691,-6.199812220671349,2.681412347943607,2.7205033561821494,3.779989398235287,4.755419486362973,-4.41580876512873,4.856758316677315
0.532,-3.9909052900030173,-3.355144017466044,5.88315360364448,5.0397423879646555,6.40115402549715,7.186188747770983,-1.180635065733046,6.596321813131947
0.536,-1.409857285880557,-0.5165806397364756,8.931357033660479,7.195754444159017,8.761237977372724,8.713122194818878,1.0434880119866319,8.689936944591073
0.54,1.5463721583143317,2.06502489712906,11.086278730415142,8.786343684718851,10.55470373780043,8.811585304345405,1.755748938778936,10.36933956430962
0.544,4.573561950614199,4.3125529778092835,12.115332192623328,9.68313109475561,11.763341574023844,7.713792046803849,1.20819941145636,11.025739476586367
0.548,7.232466472737303,6.217433841991221,12.293169580888447,10.006355801353621,12.527847833990332,6.218894322719525,0.16042556075250736,10.443877226606029
0.552,9.056142598173054,7.727762042780169,12.145630824781978,9.985567959824147,12.966626967370871,5.2098014434186695,-0.590387964168857,8.87568137572027
0.556,9.746704447207675,8.721596019417989,12.135313918746409,9.828155038028633,13.08613069298712,5.163137847301847,-0.610030219435058,6.925494496808855
0.56,9.34311048698287,9.060363545678538,12.44894799457293,9.663324252012156,12.840933414871571,5.952590146799325,0.03780657985528579,5.332900643785198
0.5640000000000001,8.27789688160513,8.687023925353415,13.001851572267114,9.573218205628342,12.28769731115047,7.0239170385842264,0.9599152678993628,4.711176761561758
0.5680000000000001,7.221966376481779,7.653463756528801,13.547800069622248,9.593993807487344,11.635290773047533,7.753081192954024,1.7066423972479932,5.280802023331396
0.5720000000000001,6.745614055474162,6.038157128450944,13.766411204219573,9.620022530322593,11.09442718225688,7.730629108762081,1.9387931081374639,6.666178018788583
0.5760000000000001,6.960191438139574,3.8119104296071757,13.278816748573064,9.271728560441252,10.597672552456135,6.813492296299554,1.4074911242430534,7.8559293511117545
0.58,7.3078894928889255,0.7325421069280562,11.600541594539436,7.839534664329571,9.582257542175634,4.971453936660198,-0.20564748846473146,7.440566955055271
0.584,6.705530862175243,-3.5845804331824684,8.210405602371779,4.474291574420094,7.079059600940356,2.1254575601490084,-3.3507440081398117,4.125180289355602
0.588,4.046705025831709,-9.402462165076633,2.7831538580301567,-1.3808507477631862,2.160424112596349,-1.8529339768139943,-8.424641751767625,-2.6405542285889902
0.592,-1.1408488361236158,-16.517646416269365,-4.483272685637402,-9.504587925321864,-5.439556728248307,-6.948881830443439,-15.380109397378298,-12.201679600781802
0.596,-8.195394237682535,-24.018039585608363,-12.616157850775744,-18.62077667129134,-14.85847868129649,-12.735151113149803,-23.34108507180555,-22.667448982390102
0.6,-15.314970297917785,-30.358795215245937,-19.935452643396225,-26.578772126657352,-24.110706745424658,-18.234731474529706,-30.544054056933277,-31.390506176558354
0.604,-20.130184450475145,-33.79422136861161,-24.494170815618595,-30.999001543596144,-30.65532025039625,-22.079429713395676,-34.753085518742225,-35.83453216382622
0.608,-20.66539526650819,-33.03700189042672,-24.79260488635413,-30.171369591697122,-32.34595619836757,-22.97612325787111,-34.05861694289257,-34.49433697255006
0.612,-16.248873692663718,-27.852579214556016,-20.449849370288156,-23.809113457512005,-28.338463938062553,-20.292979400989847,-27.71163347352851,-27.480352716233906
0.616,-7.889329455720965,-19.260885210862657,-12.443664339444076,-13.260262696264661,-19.498048033043716,-14.441199856409483,-16.554509653047095,-16.483034018298145
0.62,2.0617598739102982,-9.23647070864093,-2.786490313995902,-1.057368911693981,-8.091345000374874,-6.824493227262543,-2.817040580472314,-4.099026968141914
0.624,10.844962810879835,-0.010896368161636083,6.265050503970663,10.018645331604745,3.1051022914040116,0.6611411300315111,10.661737058041878,7.158161678412053
0.628,16.379438060062746,6.703773652005308,13.055817933814215,17.912422334537304,11.835379931187715,6.3360466847628905,21.418625637352193,15.695049469537143
0.632,17.998168643050715,10.232687414809314,17.019824049202864,21.871286658152783,17.05439920482435,9.306279826793585,28.108667278798812,21.155319146572616
0.636,16.509395364656996,10.978513587037316,18.610070428281496,22.408848595066814,18.996362839751185,9.63150359434761,30.702793195670935,24.117444336324795
0.64,13.586951773370416,9.996034505685962,18.74774477722918,20.752737260673523,18.687631276210837,8.082957972286195,30.120758726306057,25.449334603951954
0.644,10.879176058252318,8.392216929491724,18.19896812612139,18.15932247064885,17.268619423647074,5.69856771940905,27.597922265299857,25.73241368887958
0.648,9.297145450108433,6.86085902467345,17.225647977350693,15.443942031601456,15.489129002242606,3.3663095416978632,24.133446281228508,25.058233740865635
0.652,8.80310349692838,5.554767264048879,15.65900653421764,12.887737117128374,13.578777014160996,1.601770427664046,20.268268565489468,23.2334608122869
0.656,8.748524064847585,4.305106004315458,13.301396446378993,10.473486983741633,11.463699294387302,0.5613863192294026,16.219197525511785,20.18062098654833
0.66,8.459646469289602,2.9677390497837166,10.320628092976506,8.205525790904458,9.102722894013931,0.1930610344202064,12.154656119226278,16.24964593339255
0.664,7.707826623149085,1.6663856219130366,7.370558262605185,6.296035650628196,6.704333380481371,0.3923308583158631,8.39631188503129,12.216697039105288
0.668,6.805328605779977,0.7727490604283425,5.323542784661624,5.1017969782027786,4.685179877160458,1.0580164153420828,5.392601486764018,8.969533820035185
0.672,6.323117789928649,0.6562046231501704,4.7742693267818765,4.893002405473785,3.4261399017382743,2.0462997170474235,3.4972753250177995,7.079367892015664
0.676,6.673204650217929,1.4111124074105543,5.667012507768394,5.662029001643378,3.0343222393718525,3.114900297374792,2.7442459204535865,6.535946082648167
0.68,7.809726110599837,2.7319853951722575,7.274012457811786,7.101860275280591,3.2843115722188188,3.9540484025404883,2.7738386703098303,6.835564112634952
0.684,9.23758431098299,4.039621675354687,8.58309548370676,8.781524093408747,3.7792152318234877,4.316488397708682,2.9876605201872817,7.3438508829541345
0.6880000000000001,10.283460395191407,4.771060989439013,8.844405360089793,10.363806134811393,4.195303318595558,4.145123724242001,2.8283959800043403,7.690452824110334
0.6920000000000001,10.444085710029766,4.646887016069051,7.941477615098494,11.7005526435955,4.4296466782293535,3.5910524997151017,2.0235625667256736,7.928541748554354
0.6960000000000001,9.628000309998091,3.77957862924033,6.399633021095447,12.770824701367907,4.573168557987476,2.8977275859241605,0.6814991499504064,8.371305750281334
0.7000000000000001,8.154009743944417,2.563852308417264,5.033132503155697,13.53191775083835,4.762207520897512,2.2359264137140302,-0.7993634476687266,9.261861632349046
0.704,6.553962781667979,1.4359429394203218,4.476659782405946,13.837427194912589,5.044174099975834,1.6127769986143203,-1.9316905567497233,10.498491160979908
0.708,5.307437208047135,0.650127677262601,4.862414518835956,13.49736161504011,5.35077858475659,0.9088269563557407,-2.349685837921175,11.605216213736334
0.712,4.659597997185241,0.20666191852032512,5.813741350776397,12.450106393560416,5.58891799710017,0.016936436766099128,-1.939719110056389,11.968353324006337
0.716,4.604958824143002,-0.04119478223763906,6.734689373242623,10.913695303202717,5.758957764360958,-1.0240312762950667,-0.852784522191044,11.168668205998468
0.72,4.958314989341124,-0.23035745586363277,7.155836672360867,9.353233421311659,5.973830236887769,-2.0083026750321746,0.5474229646929185,9.208936751282092
0.724,5.458025797697832,-0.37964780753372196,6.9598152550330905,8.257822709249917,6.354904000163401,-2.6727275653891747,1.7891738093740353,6.500912782414528
0.728,5.845620962573176,-0.40410407731941067,6.3571611795147,7.837304578538628,6.861962586964841,-2.871830267247591,2.4147799811636563,3.636757516816057
0.732,5.912544480297818,-0.22700244346816056,5.666929206160691,7.836417494439482,7.190641659125695,-2.705119485245123,2.109515155735526,1.10035220379722
0.736,5.548225858325684,0.11034215177442874,5.090620857125387,7.626094848905625,6.857409531276325,-2.4891520998633485,0.8223428631395029,-0.9155669681819241
0.74,4.770210504619348,0.4127713155901178,4.607945579173029,6.53585584031457,5.459285433511211,-2.572899782815092,-1.191466221604414,-2.477370354633786
0.744,3.7367518511764377,0.4159200307970048,4.069639081109483,4.272679831199314,2.9776021348714474,-3.089281884385662,-3.4332367015639687,-3.7250473278258127
0.748,2.701621855937102,-0.06573654085105662,3.3785941365513503,1.1651367244943491,-0.0850005332873387,-3.815684495064824,-5.34409971632946,-4.6884938290390075
0.752,1.8929686536682668,-1.0423426008963865,2.591627301168099,-1.9486184999649567,-2.877403518050583,-4.271304962169381,-6.556331712622034,-5.263574360900243
0.756,1.3871431903158702,-2.3565257468250103,1.8800308873915585,-4.130373623071432,-4.620421119714214,-4.006654690518355,-7.066810607169376,-5.369487015458368
0.76,1.0343053774038808,-3.7978085710766045,1.3647095008280035,-4.829728023254992,-5.049190697378023,-2.910792236427585,-7.237147746805331,-5.128005327153026
0.764,0.5220873675468813,-5.22906910198062,0.9801850910814611,-4.1517694342035,-4.601632225569457,-1.3210694081151386,-7.577063874646438,-4.905676593556777
0.768,-0.4405465948284206,-6.647262426841337,0.46527515141670506,-2.7692443446640382,-4.22504894852511,0.13899209859712602,-8.41634530547212,-5.143623551418832
0.772,-1.9107950225286432,-8.135195687598983,-0.4936030115776271,-1.546142607337984,-4.886452532010161,0.8965072657833595,-9.66410305090201,-6.073244093010771
0.776,-3.5918204639312616,-9.731067306304546,-2.0327390653348294,-1.0907317083840766,-7.042029330607212,0.7465195553346704,-10.80587538037635,-7.51610754989721
0.78,-4.9292751351575035,-11.33091672500112,-3.9743271969664686,-1.5082443100904221,-10.359641743288861,-0.04196839962901322,-11.186537043335528,-8.910361044558835
0.784,-5.377139438792112,-12.676340428437427,-5.851952737473134,-2.4480839067573257,-13.837210342037682,-0.8818145403391284,-10.414042178822072,-9.589575992342038
0.788,-4.710806835235491,-13.461487404086444,-7.123480072162188,-3.3970952119583195,-16.275711263528805,-1.2029285639640466,-8.661423016910176,-9.167708818123485
0.792,-3.206465334056322,-13.50177867639929,-7.468429338444016,-4.021251698045207,-16.866474105344416,-0.7722215089583817,-6.679402249723191,-7.805369903894422
0.796,-1.5486036369256864,-12.846147669576848,-6.979761831392947,-4.330522646120214,-15.581261222742473,0.20229271713536856,-5.457599333243791,-6.18358256711584
0.8,-0.5350650489268622,-11.788546575037566,-6.164368163364536,-4.604391085532702,-13.186290213832248,1.2258224621436806,-5.729064681299364,-5.159726787305143
0.804,-0.7031578522740252,-10.740746255178218,-5.705701325286723,-5.134565777015791,-10.866893447575446,1.837093291927439,-7.571955364411323,-5.288777184249302
0.808,-2.0805819339812106,-10.042248341149037,-6.122664929091149,-5.975444686345277,-9.668107922981719,1.890814387507283,-10.336277174199553,-6.48156299420541
0.812,-4.194330074612637,-9.818200482975067,-7.515995938522188,-6.871865902662975,-10.04519818093749,1.6109413183851462,-12.957017106243567,-8.019876906863592
0.8160000000000001,-6.290692485755673,-9.933403230920751,-9.499626329672594,-7.387314322750553,-11.713096005004966,1.3933610123501303,-14.469937483332119,-8.943433112688687
0.8200000000000001,-7.672461787782648,-10.092183583642774,-11.385060116832602,-7.166086260940583,-13.850555332051911,1.4948298880376356,-14.474678699943343,-8.585494681948326
0.8240000000000001,-7.962172701112424,-10.00336239355004,-12.489467104521722,-6.141063390566718,-15.516063897857475,1.8326097286918746,-13.285523726728563,-6.959113156747148
0.8280000000000001,-7.188434944286955,-9.529422664543393,-12.440260612295056,-4.58682207511718,-16.074252029913417,2.016331972308045,-11.71828018283479,-4.785000774088023
0.8320000000000001,-5.686997292934329,-8.74398618126299,-11.333195808980484,-3.000983753755772,-15.448726780073684,1.5944511742958394,-10.647408397268558,-3.14430933062956
0.836,-3.8805719146273656,-7.855351137196834,-9.649044898535388,-1.8640379487263594,-14.090421294802944,0.37201375599122244,-10.558837297011376,-2.94261397482994
0.84,-2.103200590155602,-7.079097179391069,-8.015584798948712,-1.4362156073985517,-12.719708604129885,-1.4109957579131578,-11.347100004147853,-4.462196285895946
0.844,-0.5284841171365633,-6.522463126444627,-6.896678930687148,-1.6607436297261717,-11.962503998662353,-3.1490222801558083,-12.420869421266918,-7.231837849529713
0.848,0.7983426783024887,-6.143912865068284,-6.374226217191921,-2.204727938964151,-12.04792233420861,-4.152058146646782,-13.034141322121469,-10.252956623217548
0.852,1.885488283182407,-5.80322912935322,-6.129346113213293,-2.6050372359568774,-12.700102243496392,-3.9816027407101897,-12.645743012284067,-12.447905753991753
0.856,2.758182262116664,-5.3526579902470415,-5.608507222597692,-2.4388111323303563,-13.259276590199889,-2.655292216013005,-11.117729966896832,-13.113699637949804
0.86,3.4579901496789085,-4.72711152468746,-4.325411843794423,-1.473092560267058,-12.9845544343682,-0.6094693771727728,-8.710704943925078,-12.156969103221748
0.864,4.075390491267763,-3.962398749798285,-2.119968889909678,0.27182533422503674,-11.39627216806953,1.5617694666356616,-5.908552739580908,-10.034464738835714
0.868,4.748456703952,-3.1501784846074847,0.7258731156875582,2.5446859780691193,-8.52409649902981,3.4194528261014723,-3.2132886375477208,-7.477796698833833
0.872,5.599582357354826,-2.371432456240002,3.569532853136332,4.9525057106233525,-4.954524304003591,4.852784567451895,-1.0135439282485024,-5.1663394332463515
0.876,6.660645035022415,-1.6429814771062325,5.673115354289349,7.100161149299615,-1.643319456774777,6.029214295771147,0.4609043705320701,-3.517699672978644
0.88,7.807670395551946,-0.9494802245037866,6.487871259744951,8.709514236204495,0.4227598056726145,7.171980252994116,1.109942083366608,-2.643899910886258
0.884,8.78551108045057,-0.31258063793153035,5.867811258064081,9.70184093412699,0.6049942564533861,8.341320873365307,0.942657511726896,-2.430392595480159
0.888,9.328996414956215,0.15664226198083409,4.1172075276510585,10.192738951817955,-1.1264613810838089,9.368171313901403,0.09371654112349148,-2.6504390543576086
0.892,9.316123887636728,0.2692029432696419,1.852005881737889,10.392090038170718,-4.164535842167464,9.970924283000084,-1.1498737020539593,-3.050380943075064
0.896,8.876229489084956,-0.13795959259344048,-0.23256724445020005,10.465182612395987,-7.4842604456396,9.976829711991718,-2.3613939497171827,-3.40661524724956
0.9,8.347830202875842,-1.0782570889786394,-1.6066980996281544,10.412124331868089,-10.026855310670165,9.489535785490983,-3.085478445466535,-3.549707187475004
0.904,8.117807088663476,-2.3302898652886235,-2.0332250702962913,10.061515674249435,-11.068711791226686,8.892369036313514,-3.001614159218212,-3.3832273749250845
0.908,8.401023515752156,-3.4791364126038786,-1.5794684945008948,9.174274649766417,-10.443800311812755,8.654531692781703,-2.0792014325591506,-2.9104431664631196
0.912,9.069123250687017,-4.098858021471908,-0.5540954320066724,7.58406260364513,-8.552619972740523,9.045008188489282,-0.6339284625771189,-2.255024498837477
0.916,9.65779499499543,-3.975236543803862,0.6068128992617767,5.306400495686148,-6.1720896979167605,9.924207675609562,0.7767162321508279,-1.656975537250565
0.92,9.55842916458947,-3.249938636520619,1.443830633937481,2.5460073605348708,-4.153825610504468,10.757124276620656,1.5749031989784115,-1.4009369579182174
0.924,8.33767300004639,-2.3652671903723452,1.6005673122740025,-0.36731723891316825,-3.10578515415,10.88306924158886,1.429237728655592,-1.6884105969253684
0.928,6.008382822804877,-1.8309716492676376,0.9397284177596366,-3.0823211464169242,-3.185135556099584,9.89326373429385,0.4205475157712888,-2.525539894485572
0.932,3.107870501446797,-1.9296402133953512,-0.38284574528683335,-5.298994765952786,-4.0634288540047825,7.905613517227593,-0.983288864363951,-3.6790320806768557
0.936,0.5473625830560296,-2.5105267985070583,-1.9077276311262867,-6.76109160595742,-5.056912968744411,5.579251513430562,-2.1186281552000072,-4.7422217295975715
0.9400000000000001,-0.7516227787831076,-3.0347467634510297,-3.009862340148061,-7.231839551132246,-5.391180507977527,3.827471609540334,-2.4314177767634484,-5.286971606360368
0.9440000000000001,-0.25162975884960126,-2.8487504663739784,-3.140698886306184,-6.496930119570328,-4.4932836219681445,3.385168377896098,-1.7381738366504305,-5.031031638794922
0.9480000000000001,1.9509611611734299,-1.553224415752811,-2.105441260680892,-4.4502155436873005,-2.2211830018103065,4.451171994433643,-0.3276849568515221,-3.941263691309933
0.9520000000000001,5.129338808143977,0.7321213402848881,-0.2458624519315793,-1.2436192830734978,1.0466359457579895,6.581782382783453,1.1400764356679916,-2.2376570418828
0.9560000000000001,8.219984608937967,3.3957877006334813,1.6334193770105823,2.620647031272286,4.522266495173477,8.904430463825026,1.920804117056516,-0.3043732071227101
0.96,10.254795998445655,5.63880601050967,2.583802605253114,6.343369148010065,7.2885612118504906,10.545862256660724,1.5172863527054559,1.4714360473289387
0.964,10.748006343339506,6.901877346628284,1.9817626758818587,9.077601191388222,8.66101024417329,11.055364582425991,-0.08096042329277808,2.8546065774144394
0.968,9.853415509960131,7.165405588968721,-0.09834224930020774,10.276537916353904,8.47750149543721,10.604078446592393,-2.355983216939584,3.8526176187598367
0.972,8.227439081514671,6.947034193739743,-2.8350288324103907,9.95181685302493,7.1779647918752225,9.851520735105664,-4.446980453181883,4.698005718368117
0.976,6.699477403799349,7.0065514626781535,-4.979848723010511,8.692885704314696,5.62395444686315,9.547881849338275,-5.480146842278506,5.705936179604697
0.98,5.881107837167915,7.899686879137193,-5.448514563167527,7.385424293403555,4.714311673897887,10.0805343566638,-4.922944165546571,7.077190971132686
0.984,5.933784957686378,9.66187232979158,-3.853362569906513,6.777595057720496,4.99707552472152,11.232474100443445,-2.7939549058365305,8.73726238802939
0.988,6.583511945281751,11.804292243426012,-0.7054839154576493,7.115770994729387,6.461780484127429,12.286472685362911,0.3519874142442574,10.30303430012135
0.992,7.344038657326523,13.613853172778875,2.835178975779705,8.050757320204214,8.608864378545912,12.42882199994666,3.6589493157085218,11.21761941951178
0.996,7.829142736995223,14.583187622594469,5.549909665598804,8.87854732807819,10.74786569894038,11.227885808530761,6.327259444272526,10.99270768888514
1.0,7.9489995993959734,14.68683736146901,6.732876084517864,8.95268516389719,12.339049472686444,8.912049287272817,7.91003550933193,9.459585589878904
1.004,7.915768743877802,14.356525586081009,6.472045952961306,8.059123621822657,13.203214602523156,6.303267860938004,8.439155405984238,6.909375413398179
1.008,8.063425980291566,14.167090678970256,5.4873689637801375,6.535522546334965,13.497226707145272,4.424521394193539,8.326591707290161,4.042365055498655
1.012,8.592040205257412,14.428937456647315,4.626225210197616,5.066552014712258,13.49107765147083,3.975281785401459,8.097806809763409,1.7219615930547398
1.016,9.414050742833927,14.9681350014834,4.351396487652891,4.299416206467037,13.316736259146293,4.968786486063583,8.105954659479128,0.6151795734415071
1.02,10.165948066889726,15.218100672871334,4.4949974124898,4.4928157545807395,12.855328676330943,6.723760935760402,8.353718938611657,0.9016575689463275
1.024,10.392467515415412,14.589189629317456,4.4410606987377435,5.412057891789072,11.852184730918827,8.231611584307235,8.522931847372504,2.1938359705806203
1.028,9.787342700399066,12.888695148329292,3.6023541621927024,6.507618550602523,10.182312348246047,8.696947719150398,8.192912182583028,3.7227434854031687
1.032,8.353118001926733,10.522154086752574,1.8810987387552838,7.253048667232735,8.079743316548397,7.955570390565219,7.12875517897616,4.712252057739827
1.036,6.404306173610595,8.34701611660601,-0.17050068405671226,7.436378579543693,6.146974835657118,6.536201096673341,5.482833887668322,4.735398172962772
1.04,4.397100933869897,7.227298255438665,-1.625147674909328,7.219862323016251,5.098097161725078,5.32684962139551,3.7842023128717988,3.8922410535237346
1.044,2.7188616402965224,7.5635466242252285,-1.6988078644629385,6.976780818564485,5.383815373597985,5.0604897948832335,2.723056947563429,2.722571464931379
1.048,1.5349073697090851,9.055633037481424,-0.21655041308421907,7.017927654097029,6.909071931322005,5.908173916183848,2.8135713559883335,1.9044291637527364
1.052,0.7569676855879302,10.833453031333622,2.243597890554231,7.3778334682436215,9.017884501736841,7.399375032477668,4.102880001446334,1.9000731541162006
1.056,0.1518104022515887,11.904016796375412,4.637335525303598,7.796448385120581,10.77817232240724,8.705149502743675,6.0920681491726425,2.7208003795036637
1.06,-0.509626621812155,11.651020046283767,5.978813073942138,7.876006351808397,11.405556904802854,9.096958097038623,7.903105771085951,3.935199488627167
1.064,-1.3387227623519435,10.129910200208275,5.82842753805648,7.315071656619762,10.606029534096107,8.321298714128814,8.649839174890884,4.893280300044876
1.068,-2.314697887905223,7.999667256902121,4.471801242962766,6.074121916936241,8.656292724868617,6.685958024896527,7.836765312709014,5.050192814451705
1.072,-3.3641563129557497,6.130983421036676,2.6956984632348675,4.36844159742493,6.192474009182527,4.824310183014146,5.584715918447212,4.21170583136467
1.076,-4.437659862822159,5.140112626191973,1.336384985633936,2.534326399512378,3.8535183410230625,3.301672254132116,2.5876272281174577,2.5771522230466584
1.08,-5.55088703077894,5.077105955713712,0.8359072770242868,0.8450508420201617,1.9777181210757613,2.3038852035384627,-0.20936674159781044,0.5919275767252201
1.084,-6.741547725435081,5.439139660231569,1.073362436150327,-0.5955400823075041,0.524784475405764,1.5972493997039776,-2.043901928817315,-1.292222129426261
1.088,-7.978869253460374,5.482938899291771,1.5321187724522574,-1.8250642292665695,-0.7610839550000241,0.7666238849890541,-2.671412923842154,-2.794785093685152
1.092,-9.109341751535489,4.642833693216902,1.6600087553327856,-2.9084970592112422,-2.087087824054974,-0.45019430836071317,-2.449318936336139,-3.8359136450270768
1.096,-9.857141879871035,2.8520798932166374,1.2257840883500986,-3.8114874312425915,-3.4103807594820816,-1.940048798010252,-2.0976986476868786,-4.443806396075818
1.1,-9.914136057515382,0.5960533481458552,0.44044039271077917,-4.361381584142368,-4.427367646465793,-3.2464784371748316,-2.2764788373292273,-4.6105001018447895
1.104,-9.070171791315966,-1.306546251108649,-0.18220088402010504,-4.309910069686595,-4.736628310045894,-3.825401046918192,-3.195806661550126,-4.217062835845495
1.108,-7.336474692594536,-2.0881681110706714,-0.14129767322173192,-3.465935260009413,-4.069283992829438,-3.3651707782393783,-4.478969325181259,-3.082651292335219
1.112,-5.000780954329771,-1.3855779410247602,0.7466842703385141,-1.8163641547570515,-2.4387400948466897,-1.9655222371147523,-5.351938863282319,-1.0900752336680233
1.116,-2.555145250308012,0.6146364033523397,2.248499275201728,0.44611169394645833,-0.13302362612791896,-0.07690444422248,-5.048973494652094,1.6808604390634818
1.12,-0.5415760399051072,3.2736983539719398,3.830597065630353,2.9815113066001637,2.4161198869275182,1.7322399330798426,-3.23891682802504,4.911589893407475
1.124,0.6505691473200355,5.797212542782116,4.94646285355041,5.4299486711681855,4.813915801141514,3.0449459335258457,-0.21388371450306165,8.125394948197137
1.1280000000000001,0.9319901587889279,7.568519519966118,5.31239405833315,7.526479838561374,6.82283207337829,3.7369841208831756,3.2430243886395385,10.840568188733702
1.1320000000000001,0.5340165076022421,8.366950539217012,5.024508533953213,9.144531681683173,8.37542695395466,3.9291032316406427,6.229672592764745,12.7138757964254
1.1360000000000001,-0.09313828657113943,8.39465766214874,4.47734735201385,10.267058314307342,9.504164748922017,3.809556395646546,8.13825100530153,13.572771980672927
1.1400000000000001,-0.49024315088436676,8.093288064380934,4.108592307430728,10.904468496216854,10.246921323231934,3.4659100621646464,8.868187521379681,13.359047944102144
1.1440000000000001,-0.38819881290781133,7.879038775402995,4.154215963449195,11.045823485744902,10.60695627127663,2.855238920764675,8.758670168046583,12.05833729693929
1.1480000000000001,0.19114902352226837,7.919939085703042,4.5306743650373065,10.671280006653824,10.57001054292892,1.9258496665571996,8.302264645974756,9.695299339931799
1.1520000000000001,0.9771029533929663,8.05874455589859,4.896484806041715,9.80687443534956,10.146993295407524,0.7851502602303242,7.829759749580296,6.432960211296401
1.156,1.6320874266165561,7.932823434843726,4.877227700898837,8.586120914304093,9.399981521697923,-0.23126143285632583,7.372011055604922,2.686921584545079
1.16,1.9486487584332357,7.201404129841549,4.294100152060796,7.244708198375629,8.418558055552282,-0.6809351408007527,6.75692576630696,-0.8504439882446251
1.164,1.965369385185575,5.770928418759562,3.2906856753610416,6.046423377260866,7.279312649239392,-0.26294220410993496,5.862114382544333,-3.365673645850821
1.168,1.9141647784711804,3.883138949475615,2.271028898413898,5.161411731733555,6.024399967020512,0.9546602174185943,4.821601604536359,-4.240294806897557
1.172,2.0222764154008903,2.0124602531230127,1.6735058636176947,4.562283121424355,4.675253610539797,2.48319962336798,4.018941304488839,-3.3707657242318207
1.176,2.3252012217450346,0.6487922404974216,1.734075642612769,4.039556275393376,3.2829517977761435,3.60682213460968,3.8727042470215145,-1.3125361060955747
1.18,2.6031936481227684,0.06942111464295087,2.3523491641104233,3.3368833700728517,1.9813785753984137,3.7301162522651317,4.545194099734917,0.8986910861083972
1.184,2.5177058588239962,0.22977621228037415,3.1587349581369377,2.35362788102972,0.9963167176044774,2.697048520995075,5.780444933453009,2.1908604464786468
1.188,1.8711893008988971,0.8248511752011858,3.7435705492150895,1.2913609260784127,0.5880840772288982,0.9004111961099603,6.995700819550821,1.9675835479067274
1.192,0.8243390644180448,1.4840344928347093,3.91915029107109,0.6444250121969546,0.965824764599363,-0.8857555797082415,7.602729867756376,0.4311942794165473
1.196,-0.08024369969906253,1.9889918528018193,3.8593525495693135,1.002610819040978,2.200615856957108,-1.8878062148389283,7.372607368265953,-1.5108410908323986
1.2,-0.1859785072360407,2.355320021606473,3.983092946704434,2.713152727127719,4.156965649379369,-1.7374251926704245,6.586459612502839,-2.7311709813309273
1.204,0.8751299731742299,2.765403247044616,4.679858320305351,5.612720427550969,6.497932908382248,-0.6613954325906262,5.89012579335393,-2.5024586394243835
1.208,2.8734086045105025,3.3943273036805204,6.01928922512195,8.985469701584853,8.75527199587291,0.6359994848293353,5.9136621794818085,-0.9171140891567524
1.212,4.971560364934007,4.232694440744483,7.617132767597218,11.795775528062043,10.435379047550029,1.336793058787113,6.8738852203182415,1.1395275502124977
1.216,6.100164842955428,5.046797571940791,8.784577429645653,13.120827311648794,11.137842506141583,0.9254501815439702,8.415379261569495,2.4492445218114067
1.22,5.5125701463809795,5.480463919328514,8.859645189624636,12.546882808764726,10.638375861788603,-0.5766529582284154,9.7716733289787,2.1120723404437727
1.224,3.2284366046811828,5.252244006868581,7.566993049890183,10.335043390537109,8.93377538290138,-2.6620648857298495,10.177733184965794,0.029860287157298826
1.228,0.08803557535282858,4.319794995385294,5.18456973934321,7.261135181994492,6.243136722464444,-4.629018650778936,9.289901383369301,-3.0331480128902744
1.232,-2.654466327354675,2.9074694674955266,2.4044587459651767,4.210015681181979,2.962708791053376,-5.940194168202514,7.3643530463172295,-5.827714996666223
1.236,-3.9664089013585313,1.3916913179003367,-0.01837905797366357,1.7564077842290993,-0.4176141192992904,-6.454756028459396,5.112938537525998,-7.24557226963929
1.24,-3.568645992275777,0.10178208876257688,-1.660891223877481,-0.0536970532297123,-3.42941603887919,-6.4223912369002285,3.3222944452046024,-6.836331094616887
1.244,-2.037938115406051,-0.821764766557807,-2.6082641661393255,-1.5908604473619379,-5.7252882779536245,-6.254248343774023,2.4745348828306573,-4.954140453382847
1.248,-0.42751231491786734,-1.4397677626424574,-3.3222220596924195,-3.288856032772486,-7.135662474035133,-6.224655653460177,2.571434984379415,-2.487280772258647
1.252,0.3518478518926512,-1.9149569585894795,-4.29700036053605,-5.284810234311019,-7.669664785998969,-6.290500764226538,3.2302181635423586,-0.3508687531185579
1.256,0.048983793847465984,-2.35441171202455,-5.686798521701743,-7.259395712008338,-7.463585203928127,-6.132363910338563,3.9716429180775523,0.9397585904741836
1.26,-0.8388067025475598,-2.7255490173728703,-7.181336730084396,-8.601357760650924,-6.718586820291823,-5.397933374971918,4.480978225609404,1.4023844437777084
1.264,-1.426908727007562,-2.8880701547325773,-8.185431643795532,-8.781155862543049,-5.6439255276354565,-3.9832075710645922,4.706070343620395,1.398883818100554
1.268,-1.0275293283967,-2.719073120601281,-8.20327770034432,-7.702356577963325,-4.429073372835193,-2.1686953526608796,4.760105365851373,1.2944525776623568
1.272,0.3952523039235152,-2.2462684284072996,-7.2036411535867995,-5.819369436784648,-3.240098795324082,-0.5197727707955413,4.724614664701816,1.2005550976241919
1.276,2.207761935448654,-1.6660218750779527,-5.701485500343306,-3.9239337739527858,-2.2155937131641874,0.395854785596649,4.536044565868941,0.9467808554611552
1.28,3.4957458554175256,-1.244739886887062,-4.522750870721186,-2.740675463930551,-1.458133792552588,0.3008451579607243,4.028134192674808,0.2841250767740622
1.284,3.6253835849135667,-1.1470920232863209,-4.352279937849861,-2.5506274828397055,-0.9981473399943914,-0.6458867633484844,3.1151971256354662,-0.8422184828250138
1.288,2.6304728087393228,-1.3073390519613777,-5.31640400863523,-3.0529221198673433,-0.7444737938438657,-1.9345961284168594,1.9775097350858024,-2.13320197795949
1.292,1.1723656031873149,-1.4464537777522577,-6.87112387636842,-3.555345507611967,-0.4698558196881516,-2.980302507011319,1.084101275226652,-3.003870679475669
1.296,0.14076136562135844,-1.2118992535012802,-8.047200683742235,-3.3648294131544523,0.14103896001422633,-3.4212897080496387,1.0144710300506534,-2.85708407817521
1.3,0.12583457519705066,-0.3921943839661548,-7.962057213787606,-2.1831031224027666,1.3604788767742182,-3.2879780088538375,2.141660351101678,-1.4032778353882955
1.304,1.0970587354274333,0.9323221080856059,-6.300892517198767,-0.2882871917848506,3.2516365226863857,-2.9494009853020247,4.363073488059084,1.1439312677054425
1.308,2.460838949443219,2.3951677611967783,-3.516707674061169,1.583177814422208,5.5469704141961795,-2.87930711847404,7.04029682890616,4.112669486883485
1.312,3.4242589658399476,3.4942945400153325,-0.6570034821381867,2.572129968706788,7.650622033819147,-3.3796935343556367,9.200585295591612,6.643093523241339
1.316,3.458213759540108,3.84008074738301,1.1313806175064465,2.0994747333454122,8.818038104794587,-4.4099124169024115,9.94938114004336,8.044782265918437
1.32,2.5683511208926544,3.349431533953977,1.1414099369364221,0.13563287660260936,8.459963882454893,-5.609715851188952,8.88593023368028,8.0848096045088
1.324,1.2577905214621476,2.2895905037495985,-0.555751472789535,-2.755529073704657,6.45049778547385,-6.476560610186681,6.332243468830226,7.076146864095277
1.328,0.24338729992742192,1.161815334643118,-3.127383741477336,-5.591465476404405,3.2975922646644262,-6.5778219511251645,3.2642798421391777,5.754097233328433
1.332,0.0999323759555919,0.47634339256524894,-5.346499186689757,-7.2978978888759505,0.05022083528181476,-5.699886944670618,0.9506530053988697,4.994024856013988
1.336,1.0361436192483295,0.5244044037173989,-6.120878080117533,-7.080134625554239,-2.0854836664138734,-3.9095193554701684,0.4399971025374849,5.43382993926133
1.34,2.839570867454657,1.21797678439731,-4.9919577225260365,-4.763780120312438,-2.305196250619206,-1.5653761250962095,2.080650552443391,7.13594641967668
1.344,4.961574053311167,2.0783452509654463,-2.3689956536971963,-0.9748251234990042,-0.680260054153285,0.708672444595976,5.2858690876553505,9.412593947181922
1.348,6.655291169055194,2.3709077842659134,0.5887491277218135,2.9297163320682786,1.7122549119710593,2.089734892255894,8.644678069557122,10.914397495718076
1.352,7.109584527531126,1.3386190589260352,2.3858009200143484,5.218536335120254,3.1376948472182216,1.7098639792176744,10.37546183606422,10.022776743903993
1.356,5.622876935702377,-1.5077337990393458,1.7736589420546078,4.385252907730813,1.9411807458857773,-1.0842153631803995,8.99504151146046,5.440717696688767
1.36,1.8264843558546353,-6.155938897636986,-1.7399857980681175,-0.22328975199961754,-2.6382326398291855,-6.420332365797461,3.9487135150839183,-3.1918000845161676
1.364,-4.039925742351379,-11.967923389263976,-7.604871780409514,-7.976944574961193,-9.942436451615302,-13.646635863094744,-4.029262884240664,-14.910489397540049
1.368,-10.936964936186696,-17.73554082759805,-14.28133296510027,-16.968349998303744,-17.94251964302915,-21.300589900288685,-13.000125952916655,-27.46617685352558
1.372,-17.122572304979883,-21.962018215623303,-19.662856797342574,-24.55588216006099,-23.913744680375746,-27.423934784389605,-20.38360667065537,-37.87077773240563
1.3760000000000001,-20.59309661493669,-23.288676285361305,-21.725255464031505,-28.264876820145304,-25.472463518083615,-30.176660897257545,-23.802057955482155,-43.31500313669224
1.3800000000000001,-19.80887408303866,-20.972898275547983,-19.240176556469265,-26.72926960463097,-21.555471568493004,-28.5447621553372,-21.92367575121398,-42.13821108436828
1.3840000000000001,-14.39701473667617,-15.22407769281919,-12.266036304634351,-20.247678996067986,-12.898385313110788,-22.8056519052869,-14.955139638099062,-34.467934506028826
1.3880000000000001,-5.475749026670703,-7.244200987899253,-2.226648656261692,-10.692857059820396,-1.7871779482462555,-14.498999668917683,-4.580008379289898,-22.226532751256755
1.3920000000000001,4.611255411278472,1.0751410010403024,8.470585362788267,-0.8024126635264639,8.80788495295653,-5.875416889784979,6.633286107553929,-8.468013109205234
1.3960000000000001,13.116284216354382,7.724217190283581,17.19052332334086,6.844253602603416,16.326559266641045,0.9518035420019133,16.129148302003486,3.6774166944848004
1.4000000000000001,17.907667169962345,11.205290994269479,21.907918848393145,10.706163634383977,19.46667667774556,4.765638639982629,22.192069187486418,12.037187401060763
1.4040000000000001,18.249007726698974,11.004737491880693,21.848052159024856,10.681544130758724,18.47094457120458,5.584389800242237,24.397949674050565,15.986693690282252
1.408,14.977936093641226,7.717384154104691,17.68178628727675,7.914679254935524,14.796895492474064,4.455550450129456,23.54099916361419,16.391174558132747
1.412,10.006349068188385,2.771431106283326,11.192213640085434,4.156594876591759,10.38288630373463,2.84391504128774,21.107456618251,14.987358417585444
1.416,5.435663603049464,-2.105524799222146,4.582490966506295,1.0206754950035197,6.8752211994548365,1.9400933705738925,18.58317955821336,13.504105798073965
1.42,2.6995391446784733,-5.487795891079136,-0.32501825551001495,-0.5696427493984615,5.125968142257957,2.2051388584189096,16.875161723764784,12.930888427438132
1.424,2.1241604257110027,-6.685551919019036,-2.655378396365326,-0.5485297007622307,5.117183426637737,3.3380556279583784,16.082593580711304,13.234539097241896
1.428,3.049675515109528,-5.868504325835779,-2.6051629659655013,0.4899232700117695,6.248482075979101,4.614954208819603,15.663153383671585,13.607603503070175
1.432,4.360286865709058,-3.8708864733398483,-1.1346123391839698,1.6832753162432565,7.775952566481219,5.362089366471234,14.856927104711357,13.069083432116802
1.436,5.117881811529021,-1.7683119324538068,0.6080802213191627,2.3043739099327567,9.169576107887199,5.299154256484676,13.163185356527698,11.069835752794173
1.44,4.963124280359987,-0.4312352047387913,1.809893992433071,2.016186232350614,10.239078614738101,4.596024017779398,10.628896825602922,7.811741355803714
1.444,4.152522345106631,-0.21389908146126757,2.2549498409965336,0.9444751579204497,11.043529516752518,3.6812739807862904,7.845271389785351,4.139470701499751
1.448,3.280920461144226,-0.889162944719132,2.2400712208870033,-0.4144116809890259,11.697550440694467,2.9612148950744452,5.673007843189503,1.105309906622483
1.452,2.8739839065207686,-1.8530047903862115,2.2250211877194523,-1.4229664500673596,12.204378737200816,2.6128982377626633,4.813764264396271,-0.547056509939085
1.456,3.0995673358269706,-2.471873913663191,2.467432184134447,-1.5823677036156578,12.40806758839986,2.541277497595849,5.448752421939148,-0.7294823218380353
1.46,3.6959135832008894,-2.433979183835313,2.8181601766601077,-0.7883665545634155,12.061658799808784,2.4708815133963338,7.103094959499161,-0.01997084114065828
1.464,4.122361979443702,-1.9293692698635168,2.7956295202826924,0.5589975677012564,10.961355294804552,2.0889639719853355,8.813099820003576,0.6485435167128717
1.468,3.8257167082173744,-1.5687227469230436,1.8829908614010016,1.6752368439231553,9.076011174198594,1.1707050423248466,9.537683015005051,0.46263373129506746
1.472,2.479853522675443,-2.0762969442349117,-0.14686959395902832,1.7186746866314593,6.603835867216084,-0.3527206112113763,8.636818547368012,-0.8683369692633462
1.476,0.14354774780590773,-3.864399719963913,-3.033090434348395,0.23069700859966247,3.9399666773360345,-2.367881291953811,6.216987497880755,-2.9793785660528904
1.48,-2.7393012543574553,-6.731890386913182,-6.10363536649044,-2.550559921874566,1.5471768337774954,-4.593567818699425,3.1363732372605746,-5.037974417155702
1.484,-5.472507092782404,-9.849457300037274,-8.556757569551456,-5.688334021801172,-0.19876216317413054,-6.6317403097109136,0.6571465826531906,-6.152709970323404
1.488,-7.327488468102968,-12.074355464141016,-9.796865977125936,-7.912430778375142,-1.1206725889019395,-8.061259940161811,-0.11857213843443759,-5.796213403256729
1.492,-7.800578113801366,-12.481880093596764,-9.669289724344106,-8.216844280269168,-1.2750857248962628,-8.572324250847446,1.2154250253258425,-4.036934243675352
1.496,-6.8010426414644805,-10.837142361240643,-8.458918491974186,-6.377082927554921,-0.8906901354624348,-8.112751496143675,4.152143793212744,-1.4996791520320798
1.5,-4.721169304415498,-7.773734392607955,-6.712477320412592,-3.1239169538467317,-0.2545430658303496,-6.975455644696792,7.4735878314142346,0.915434254664433
1.504,-2.332174182403296,-4.550711937145804,-4.979812028729794,0.1667436248468479,0.405486355768641,-5.739134234714024,9.79016837761059,2.4040478812883634
1.508,-0.5130072171348381,-2.469956213649085,-3.5984953711992915,2.142019674005737,1.0019315766595556,-5.035036642230205,10.175574871139762,2.559537133422662
1.512,0.06823708493739566,-2.257140877767056,-2.640463506928855,2.1339270812246594,1.5756859990649126,-5.241788650327203,8.562261857372434,1.4759764110353615
1.516,-0.7918105765781069,-3.7065312925724614,-1.988490620931902,0.46747236937791214,2.2129654142487967,-6.275085811256662,5.715613877086494,-0.38841799059735393
1.52,-2.7820073973778197,-5.807355843784778,-1.510038798612694,-1.7843240669968008,2.9276057109871685,-7.6180073989326775,2.790441788778935,-2.4900883386700876
1.524,-5.234047308899722,-7.276548239744542,-1.1883428254982942,-3.440559832099307,3.5921668800516047,-8.58569441861642,0.7266996740884499,-4.469721707098881
1.528,-7.4118478248596595,-7.2186428486090914,-1.1370060917257447,-3.884822238666545,3.9751341079186684,-8.697856613175222,-0.18569499715425497,-6.271448795771397
1.532,-8.807197394658356,-5.58213991548293,-1.5285681411557368,-3.403137479841811,3.8567396216921335,-7.957519536970961,-0.3685972669709656,-8.058574233139376
1.536,-9.272561425646407,-3.1398763650843513,-2.457362243611584,-2.9700804167407426,3.172296173519391,-6.855614052690344,-0.6035474339623921,-9.995346390332955
1.54,-8.968922504833483,-1.0381873839564957,-3.8536166393398723,-3.636528109238493,2.0846709170134403,-6.0959865938168605,-1.5055058255619662,-12.02671062287501
1.544,-8.179974168953237,-0.16796960984180043,-5.474941398393997,-5.858812175624764,0.9388481217107589,-6.177619923723304,-3.1216861857542417,-13.793976044425813
1.548,-7.137295208163326,-0.7239138620255741,-6.99406062497432,-9.17482106601828,0.09517342454733235,-7.089664415360511,-4.898822790061025,-14.757144118430862
1.552,-5.972768967314879,-2.198709896306922,-8.149957302019752,-12.427736843841382,-0.2738873494672247,-8.308485664763571,-6.039445538006393,-14.464695412878038
1.556,-4.787874514746111,-3.768849164228045,-8.859816142614644,-14.387442663603089,-0.30619942940778166,-9.109623973595795,-6.013275235462684,-12.850109128952399
1.56,-3.7785556180126525,-4.832350917121856,-9.261049874829627,-14.426043959139129,-0.4132900595422555,-9.020576713225505,-4.920482621087812,-10.372726592734672
1.564,-3.268057919749284,-5.344397840456357,-9.629789682099616,-12.841334205389451,-1.0683109519256604,-8.130973853513858,-3.477077147326881,-7.902540711515362
1.568,-3.58770948935455,-5.756068624090213,-10.22062817460796,-10.655126439710397,-2.5241382303764084,-7.0581471303104495,-2.625133577592403,-6.375869650302781
1.572,-4.864681526272966,-6.620020867015855,-11.117439722614693,-9.02551670875537,-4.613578527767606,-6.5769861890570365,-2.9962218617791896,-6.368945256542373
1.576,-6.816702374345979,-8.105756243648923,-12.139646535097281,-8.599934744528063,-6.746292960331637,-7.122128347682024,-4.526978239231898,-7.809440345916464
1.58,-8.743982774990995,-9.777919937010473,-12.903275233119345,-9.205327665972916,-8.14867426142732,-8.482141750163654,-6.480494199648629,-9.984730108009348
1.584,-9.768100494590675,-10.79302434359137,-13.000917820629589,-10.027513080946072,-8.238232093371307,-9.870055771247895,-7.858373630349711,-11.86352554512454
1.588,-9.223612215263628,-10.408056308232325,-12.213679227219178,-10.142672063297038,-6.940627458017674,-10.344004720044628,-7.966398892500273,-12.569581223012895
1.592,-7.028400771411583,-8.510084093410978,-10.681386497157712,-9.08914264449947,-4.795369182417133,-9.35054350361328,-6.825346103633176,-11.774976342345967
1.596,-3.792250692030877,-5.800443314590226,-8.895289466471963,-7.133219213486886,-2.764817608827621,-7.061742145023038,-5.1680481574328585,-9.821860470049483
1.6,-0.5970890280845862,-3.510619308248459,-7.533518476793355,-5.114780878244658,-1.8309421616622195,-4.3131355855821045,-4.03261354810949,-7.508791047229417
1.604,1.4759054785120145,-2.7714306970698477,-7.173374605574841,-3.965900126082289,-2.5558929905899683,-2.168335297429488,-4.166598030495301,-5.665148390597009
1.608,1.8395756054017807,-3.9930345052226754,-8.0105583115354,-4.196287399549542,-4.821464573074474,-1.3570445590284228,-5.5813767601959565,-4.736003830523883
1.612,0.6417091020186874,-6.6254220332119536,-9.747730394846814,-5.655001171256615,-7.8783710590646905,-1.9075314611470198,-7.517023337777225,-4.597305995268909
1.616,-1.3441348232241408,-9.423363519169378,-11.681153188427546,-7.664115837200791,-10.67497490106108,-3.177411856870009,-8.821951761952043,-4.709260608202795
1.62,-3.134507552588224,-11.087613871808637,-12.980995235252134,-9.427357072181152,-12.31463315634899,-4.256787224034627,-8.547472688211544,-4.49542594914013
1.624,-4.026815304218241,-10.916297525936777,-13.018059960837034,-10.445903673936417,-12.411179937212896,-4.492138030332963,-6.424405050167079,-3.725244915805292
1.6280000000000001,-3.912712954707603,-9.113562186975813,-11.594413288116447,-10.708515515125146,-11.181600350827228,-3.8233328098765407,-2.9713061835380863,-2.675278724343948
1.6320000000000001,-3.2775819849960364,-6.6158142062490715,-9.002968379852652,-10.587114481307001,-9.26429159644784,-2.7520446224514297,0.7876025454039732,-1.9704678679485799
1.6360000000000001,-2.8685807631228593,-4.529901553133756,-5.867059004960733,-10.519135742783607,-7.361215749549633,-1.9847954028528103,3.849024695608189,-2.2107804331901804
1.6400000000000001,-3.253958420483025,-3.5476364675975716,-2.9013941917318036,-10.725698321524973,-5.921680050289879,-2.00340839900211,5.679311189115238,-3.6005299914986075
1.6440000000000001,-4.501493453784764,-3.64790284606681,-0.6850944415033284,-11.120786785032367,-5.014047851074997,-2.8029551031507465,6.360065857389853,-5.796974762544281
1.6480000000000001,-6.136119216142253,-4.222845688511644,0.48248178206059755,-11.430490805770392,-4.405448942001498,-3.923726768609683,6.398600755788898,-8.047627635221419
1.6520000000000001,-7.396703808887551,-4.527620993226765,0.5936495062880756,-11.421267356090569,-3.779701898948955,-4.737553300781295,6.333664912684374,-9.53184199933493
1.6560000000000001,-7.61978715530886,-4.149388323689953,-0.1358724408449703,-11.059139808889949,-2.9559904127785313,-4.796886455711261,6.394243657383465,-9.741568551258494
1.6600000000000001,-6.572906523935286,-3.243101680515359,-1.400478994175936,-10.51183000195413,-2.0010887620091102,-4.038829440879006,6.383908787034905,-8.685577705040265
1.6640000000000001,-4.560756476154992,-2.405733510610075,-2.9177106858195394,-9.990808336434815,-1.1821927217908792,-2.735114780186944,5.845133189144287,-6.8285486683004475
1.668,-2.2683299426087045,-2.2931434668884627,-4.507852801360517,-9.567824795865945,-0.8258209626376978,-1.275821619916238,4.386258576230004,-4.843769765245572
1.672,-0.4470944609795957,-3.2294111506608427,-6.136575567821667,-9.103142406133614,-1.1643255808881987,0.06665414709245177,1.9585328788957426,-3.310136281569575
1.676,0.41751235392092667,-5.0099979145717315,-7.866115528006356,-8.320663464367602,-2.228873283512769,1.257443256182225,-1.050850882852059,-2.512552492485521
1.68,0.27464226486569476,-7.012946303903676,-9.776983198357696,-7.013368161266303,-3.8442481917884774,2.4238509940301967,-3.963444152781773,-2.425268739435218
1.684,-0.5284614203196889,-8.512875226389657,-11.84901465573236,-5.226391919678205,-5.685936165761572,3.674141971242957,-6.085452320934529,-2.8379155481112113
1.688,-1.4517938773501755,-9.010626390921319,-13.859845896187537,-3.302269403747515,-7.366447154200916,4.942764328365389,-6.967656880276089,-3.5181922680549884
1.692,-2.0417902041532807,-8.424701057168445,-15.384393431862916,-1.7611899346987174,-8.525114951218205,5.9756601628440995,-6.538548258970723,-4.2949645000480405
1.696,-2.1231748062620244,-7.047519081284456,-15.886478121690857,-1.0551354133983237,-8.891115698455426,6.477150878128296,-5.051876355633733,-5.042481865840569
1.7,-1.8516799171167273,-5.354995648041499,-14.936993500898467,-1.36644792113523,-8.356710055902026,6.284452324165588,-2.9417848099453607,-5.62415622076342
1.704,-1.6029007339818584,-3.7851720775581317,-12.442354047503681,-2.5378561502261903,-7.03726068014633,5.467244671852302,-0.6642398785056471,-5.875610897633296
1.708,-1.770962648759578,-2.606318946878315,-8.773123875733539,-4.170821880843109,-5.288129855325349,4.284177794342562,1.3935736944678574,-5.674934800153791
1.712,-2.5895447328917296,-1.9145321332916065,-4.706790589533728,-5.823935989357312,-3.6356161458042413,3.035887395985909,2.920654627578058,-5.039956182405446
1.716,-4.027075870124748,-1.6947870618579088,-1.1443121353081374,-7.1747613912877215,-2.600994122364206,1.9247013988396469,3.6770156746667,-4.1802765672356825
1.72,-5.815057091487741,-1.8892535259230145,1.2299713176630647,-8.097167362832138,-2.5025914080535205,0.9851424145428336,3.499141281383423,-3.444245254892497
1.724,-7.56779395411411,-2.409441752870203,2.208375205285284,-8.624124156041022,-3.3248053623471154,0.12101886948456109,2.349832129680278,-3.171908491466743
1.728,-8.928875131368509,-3.097342457132842,2.1093367052801977,-8.847846574278774,-4.722907282467479,-0.7902845132453375,0.3935080567641229,-3.5250737397273486
1.732,-9.695648795216218,-3.712114134597771,1.572484333161599,-8.839702904212738,-6.178771817098278,-1.7959887873683158,-1.975221745548092,-4.38283968178658
1.736,-9.84864367822326,-3.959233128586729,1.2486216357833806,-8.609045429897847,-7.21962078082124,-2.8258914679245932,-4.180679871779132,-5.376285629945793
1.74,-9.513048881120792,-3.592663381961152,1.50211758971043,-8.1353213466947,-7.613056380262371,-3.742599207883612,-5.6254778326298025,-6.049924759086771
1.744,-8.872305316291277,-2.5364567571915475,2.2940078313116223,-7.413307473341724,-7.428964064764781,-4.421719532145323,-5.899724397909702,-6.0654353959567135
1.748,-8.088732909549876,-0.9593379032493643,3.2753258008782815,-6.480684219236906,-6.951489629934459,-4.814716729339118,-4.958582607408039,-5.342511321476723
1.752,-7.272862840821507,0.7412391571915151,4.0015878649404675,-5.4057134827263145,-6.498357307145477,-4.9429778176936185,-3.1868680252750408,-4.046337264824558
1.756,-6.4741663834128556,2.070775729160554,4.167192391993687,-4.224151816106428,-6.242948462348713,-4.826025128942431,-1.2854988216693566,-2.4514309286542164
1.76,-5.697630423792249,2.6204344281849052,3.70979663820102,-2.8945632010785785,-6.140366679750285,-4.418068070033852,-0.012127355807250773,-0.767219791356843
1.764,-4.908135450599438,2.2337770738736524,2.7852836458023944,-1.2968512205095895,-5.980055287171086,-3.5953750452866604,0.13055901630939015,0.9487181654111403
1.768,-4.02984698810216,1.0748629970973986,1.6481869685484585,0.7019981578134766,-5.536506043264348,-2.236051364217501,-0.8813424295368044,2.7285462105691867
1.772,-2.96948905744103,-0.43561608090677995,0.5218459081904401,3.1416984614144323,-4.716653905918323,-0.3340526666834398,-2.5719827052755315,4.55027275459567
1.776,-1.6512615291543415,-1.7674980391073825,-0.43739531505281515,5.903786714624219,-3.6089566725447932,1.9279150306733026,-4.162375622330113,6.212146210220825
1.78,-0.0817869498396302,-2.475653740538871,-1.1311803867068295,8.696856826420838,-2.4372470558931663,4.174531758307108,-4.934019064084067,7.323298568803285
1.784,1.6017242387477213,-2.3517404861296405,-1.480241057583728,11.121111551107127,-1.4407705189640856,5.932789551361802,-4.575596084523626,7.437687686177533
1.788,3.140495213049181,-1.475974993778904,-1.404185076126786,12.785790574117605,-0.753593192591191,6.778331077530181,-3.335798354641586,6.2634975979737915
1.792,4.225752776172609,-0.16698897565067572,-0.8473770327073654,13.429561647009095,-0.345435989057469,6.479452576129991,-1.91393070039136,3.8470487007622993
1.796,4.631699677812594,1.1635569568705524,0.20596797751324958,13.00684089282858,-0.03829955459255352,5.091488587710026,-1.1104770565661628,0.6057299361799533
1.8,4.3223491653711505,2.1666191821698284,1.7093399317188447,11.676765268912078,0.3899828421765812,2.9393250698316877,-1.4270736421350547,-2.8153711251768203
1.804,3.4750019519313593,2.6675504569864605,3.5526492854970613,9.711690878070563,1.0707294253750586,0.5049581412486694,-2.8219698693349144,-5.7951513449300736
1.808,2.3972176446499764,2.699897066309937,5.564264377660927,7.380636891041625,1.938241633872575,-1.7311311018922773,-4.747497791585555,-7.965446856207371
1.812,1.3596498312895964,2.440705941355408,7.486220558728203,4.87147588863849,2.7035649098883585,-3.4182262462875226,-6.457347250356636,-9.272818975019426
1.816,0.47637170812309604,2.1146567291207288,8.993536137614072,2.3266679115439644,2.960921648043438,-4.3721087331235164,-7.381173805469856,-9.856917317408449
1.82,-0.32244349979628373,1.8894325190375914,9.732160932680056,-0.06569386463393423,2.3712286260589694,-4.563736552893884,-7.381558416011477,-9.842630739412302
1.824,-1.18925389968205,1.8160726308223964,9.428264753568039,-1.984596710903932,0.8570362890068235,-4.069614813107394,-6.742902355263826,-9.183576697098424
1.828,-2.190787475229016,1.8410909495083814,8.047339732210636,-2.9808677768407654,-1.2932500430445275,-3.0387437808223368,-5.910530396496212,-7.677427146661136
1.832,-3.2031058202129126,1.855726324486022,5.899550067665535,-2.6325317486324353,-3.4904651329584473,-1.6905171111618509,-5.17178314896562,-5.140935459897928
1.836,-3.9322438585125923,1.777300767934367,3.6352837059297647,-0.7774239828049541,-5.061158942156803,-0.31744694627967207,-4.466548230575125,-1.6415610655303365
1.84,-4.0788216319907855,1.6045194794876871,2.03186488063215,2.2789743162974014,-5.549346950168543,0.7259430599386618,-3.4620537424492466,2.381324441058952
1.844,-3.536628842252501,1.4350646427908715,1.6579308315076644,5.745608535445081,-4.95060062719943,1.0972369431810933,-1.8301290207243026,6.207420304839314
1.848,-2.489860742952283,1.4455545370006044,2.574868670162066,8.587176874932307,-3.736298197080839,0.585674030018168,0.46310088158126606,9.113180253086787
1.852,-1.3471350902709198,1.8252889545077713,4.236795374935319,9.944762019727262,-2.6225950354034624,-0.7695853856115296,3.0404470210726324,10.699470014565875
1.856,-0.5062822842617138,2.7173411163551444,5.7327145391451575,9.5795162269313,-2.1641999746873326,-2.6107189091374496,5.285188494933497,11.08480458819043
1.86,-0.10816772778373318,4.161860130642574,6.235958048873805,8.061529786127204,-2.4113889615844126,-4.340039027991988,6.6809505821436606,10.838929616662774
1.864,0.08255581600041739,6.068404766561459,5.457012206883062,6.5779087392695414,-2.827854459321327,-5.327708230570999,7.1146485075566215,10.668808130456227
1.868,0.5851349606893723,8.234968587374123,3.844432162806304,6.4139882592342845,-2.5456969751847462,-5.164983916137519,6.9572538829592006,11.033405895945208
1.872,1.9161257248760208,10.394020107156491,2.387356066699205,8.328966832739567,-0.8459071590150833,-3.8380729866648537,6.851090526064215,11.924900794421346
1.8760000000000001,4.283929137591235,12.291280814962064,2.136675803294585,12.152509297943947,2.396454746672786,-1.723177462140852,7.335942216199184,12.924790829603456
1.8800000000000001,7.427675110022677,13.763609273786642,3.6678477458479275,16.80519805461416,6.5561203077526224,0.5937965376087286,8.53434612395321,13.509730289239156
1.8840000000000001,10.696065584671468,14.783080321388086,6.790391060387213,20.751707979848145,10.499870195568054,2.584257175738109,10.085334997249305,13.405455033952705
1.8880000000000001,13.336822245557503,15.451024500796656,10.659582318007034,22.6744647810283,13.112170125132907,3.980553952699312,11.36289405497975,12.754862253908176
1.8920000000000001,14.827968531853301,15.936439004169387,14.20702036733362,22.043526167523794,13.834373481479597,4.821250928874695,11.843401064404173,12.02080607902283
1.8960000000000001,15.094503587411383,16.392243437731107,16.667877537733364,19.326700285664238,12.927079105206076,5.335176408710562,11.406248227275071,11.672454275492946
1.9000000000000001,14.488019352181508,16.87327457733634,17.869013486311566,15.725643489451945,11.288949821860868,5.731369461502981,10.376606065313418,11.861674190223587
1.9040000000000001,13.570551250731691,17.299385725392806,18.156121348480077,12.60087614165753,9.935002066814103,6.044081872831248,9.30561983758896,12.29877237611609
1.9080000000000001,12.834488570843984,17.482482219668245,18.036433645928614,10.873680389155904,9.421930129700202,6.122434102880794,8.634657212999034,12.42398648754365
1.9120000000000001,12.485335725090685,17.184297599111193,17.75967480308032,10.673723452265477,9.537788544769931,5.773169627627086,8.431809799093195,11.793893061232371
1.9160000000000001,12.403272273494691,16.19898255222511,17.15155185831751,11.38755470482888,9.44245523937941,4.970864195919646,8.379397575669898,10.434365281986203
1.92,12.251637879181342,14.420210422939046,15.760458547061726,12.019750536832419,8.16434401521463,3.9701045139442996,7.990594107102178,8.935454747421783
1.924,11.666229875585213,11.881140466569008,13.227394052980367,11.679638385020436,5.181600002392814,3.2416375694946873,6.9224435159898885,8.197869377559975
1.928,10.420393181402794,8.75862485379124,9.629477747263982,9.950481682782378,0.7626325211238318,3.2395069691313245,5.200867232507783,8.944789816422405
1.932,8.480952111649795,5.33279116074986,5.544738538878465,6.988449339927727,-4.111936787538869,4.132818324381653,3.2181745544776987,11.283606011341147
1.936,5.992061970638831,1.9353613928286852,1.82293980605233,3.3756655204553203,-8.187880652725974,5.672876168176717,1.5327075677482385,14.568522779951959
1.94,3.209217934864405,-1.1192026593765079,-0.8357132636765567,-0.1879034557688164,-10.50933065404221,7.263345561949653,0.5892028866430148,17.657333649429965
1.944,0.43968780658410656,-3.59369507701282,-2.2140885324447885,-3.171638309059717,-10.814709042154936,8.221214962707691,0.5241794179526496,19.434260572967123
1.948,-1.983425029742155,-5.35441003453829,-2.6168840699812117,-5.351050790335794,-9.568560237233335,8.098566044729639,1.151081949586371,19.32353247355497
1.952,-3.7292179164657124,-6.359381539585627,-2.605983697361663,-6.771434844230733,-7.638367310804554,6.904707866582111,2.110516702004409,17.546182018181465
1.956,-4.496511838779815,-6.5886201967799884,-2.5591718475500063,-7.563955881464938,-5.797553211695733,5.130596482726676,3.105687709722605,14.987260045674775
1.96,-4.094903603965012,-5.988494830573988,-2.3883308689073077,-7.777755164818348,-4.3594875431105935,3.5346583664498237,4.045803155894685,12.742914934199757
1.964,-2.539886191852117,-4.469176227199127,-1.5868404737085697,-7.319813336532157,-3.1187217851815383,2.80128050325873,5.0332700561625465,11.588863569370442
1.968,-0.10686048583259744,-1.9791749471367241,0.4113232986788855,-6.045330638985802,-1.617213950980097,3.223387584503768,6.215641394577652,11.624264861008474
1.972,2.6769190503555063,1.342572243364784,3.7529671146922157,-3.953634689789861,0.43402614426324426,4.560077925708106,7.590623853613504,12.271548107255922
1.976,5.147747666694469,5.034853953739313,7.902917478000606,-1.3531849988260065,2.8361798174901223,6.135821976274823,8.90199189489297,12.590547823901723
1.98,6.689332127785031,8.299251819642517,11.744362790100942,1.1053071820654505,4.863117127808098,7.128909975444138,9.683304895173764,11.749326160653759
1.984,6.945181518481762,10.196428265293529,14.055943365347412,2.60999508398422,5.56307054318949,6.938477939339933,9.457844601171065,9.425658369258223
1.988,5.974146792384616,10.018451029212724,14.11571165942768,2.5304768322006668,4.251366845653841,5.463040599148933,7.998089957004071,5.958318413999484
1.992,4.2446269384299,7.657394268184941,12.072388144600907,0.739985848760953,0.9272969544998306,3.169010279666794,5.490148080363426,2.210489157752572
1.996,2.4839541944286303,3.7953041023152045,8.91093543501998,-2.234076958830838,-3.595863078667194,0.9274489598584736,2.5330258754191632,-0.7816103994527115
2.0,1.395430290687282,-0.25639082827011284,5.970867485523611,-5.373147597903012,-7.96763811266152,-0.3512101081458744,-0.07019305056062802,-2.2199150457803274
2.004,1.3617275093723176,-3.052085335542616,4.289587505953646,-7.590431603512563,-10.865338048077788,-0.11648433171619199,-1.6245376471708273,-1.8489695887543842
2.008,2.2766683580213165,-3.628859387356726,4.118294033939108,-8.211156989280227,-11.575335000203388,1.5653334269808845,-1.8118942259754893,-0.03489119618370751
2.012,3.5633217009728875,-1.9748630777481622,4.832170970060712,-7.290194111323178,-10.319471533168638,4.011940242187239,-0.8210743457376348,2.407969556441708
2.016,4.418059509682319,0.9358741866749525,5.315381009030897,-5.560736681807525,-8.13097929280951,6.215308185209708,0.763890568580521,4.560340099600985
2.02,4.162706906418703,3.574610661756678,4.568522729813391,-4.056664165619598,-6.347168699188587,7.271540935752662,2.23652746390636,5.76472872363737
2.024,2.546477836610794,4.571201148322273,2.2328658380116932,-3.58760739292405,-5.959124863979925,6.768309666078784,3.0708196926435485,5.854168776509214
2.028,-0.13413967197021748,3.3713183421965582,-1.2300924042910144,-4.339237480516721,-7.141463414846164,4.946992970054675,3.1123539115228676,5.144879790588245
2.032,-3.1818046885200046,0.4893887984333014,-4.8026347403218015,-5.826250039600886,-9.206346047812161,2.5564298057930888,2.5492703452734573,4.210151073085813
2.036,-5.813662042956855,-2.749994942012935,-7.416262485362188,-7.1875664628630265,-10.980498272456757,0.4921183779038296,1.7155619246593632,3.5443499378650367
2.04,-7.506005937239075,-4.861469454987581,-8.455834320302316,-7.665418937434147,-11.41456524367123,-0.6091609369545878,0.8463409121207213,3.2924170975067
2.044,-8.173501522351794,-4.884563198784786,-7.975989743849928,-6.9782053415116545,-10.079656305716181,-0.600148452370524,-0.04791748895914805,3.1927674116439646
2.048,-8.09282326163499,-2.758673532154295,-6.5495423658522425,-5.390582207620886,-7.309659324821879,0.20895716814029508,-1.1124535941016287,2.756275203014438
2.052,-7.655099233232738,0.7603755244537034,-4.886769798746936,-3.4799548855701583,-3.951544613278295,1.2943869515565907,-2.4476628657568487,1.5949738734648884
2.056,-7.089765716403434,4.563540666435468,-3.4344310415987014,-1.7559971839298973,-0.8891363303761182,2.2198354581814375,-3.911137900179654,-0.30933715109308935
2.06,-6.352602912952795,7.730499404899531,-2.220270824742112,-0.4077151758056785,1.3512173147133137,2.7986673381908047,-5.095796302139161,-2.5590127641495313
2.064,-5.23170816757299,9.864094219225665,-0.9825173027161154,0.6857307975192954,2.706570786693359,3.0526523501305434,-5.52462927327484,-4.555319280921475
2.068,-3.591924708102977,11.07494626846712,0.5198419020139671,1.7083324344395274,3.369346831394163,3.0242542433187465,-4.955974409468281,-5.866056548235271
2.072,-1.6018430591734683,11.684365714775668,2.215759297814257,2.6135313478196434,3.457260571160198,2.6084707018153024,-3.602226003709011,-6.497043738878473
2.076,0.2610094442140596,11.912442133023465,3.694850287093781,3.0512028135194402,2.8519496480631696,1.5787102820903103,-2.054880781938726,-6.877980207372101
2.08,1.4411145080751038,11.756304275068317,4.438377940957583,2.576193052967149,1.3306197110507156,-0.2062394139043795,-0.9305197738069726,-7.547723909719498
2.084,1.641330498209804,11.111883483666906,4.17076022105659,1.0178177205845493,-1.098886801395584,-2.551156660912877,-0.43040714387162415,-8.72841581082376
2.088,1.0420874872818184,10.006006733370969,3.0867635407088168,-1.258562757280179,-3.9350263096259446,-4.843519152917651,-0.11837141630142112,-10.083521428930338
2.092,0.2054003512864766,8.70501169079569,1.7545370830649742,-3.441408320648069,-6.254335024932905,-6.273717199781007,0.8556751863408847,-10.84828285134932
2.096,-0.29941690868813287,7.586497338973933,0.7553777004346898,-4.7045518944442675,-7.15261405182201,-6.277492542945587,3.1533352553422573,-10.320325157633528
2.1,-0.3705240279307205,6.795824143160378,0.21186208922622618,-4.785949595382823,-6.369826312442873,-4.99810302979924,6.559408481686219,-8.454344308110338
2.104,-0.6340167305178694,5.9370531861033236,-0.46275059370427685,-4.3307406837400055,-4.684854308228237,-3.4520919891281086,9.670246034879657,-6.176045499739223
2.108,-2.2479412435385875,4.081818306544841,-2.365709204444292,-4.712679660586653,-3.7441962374663937,-3.2193049175811135,10.27979184294799,-5.137687345255749
2.112,-6.300138737695454,0.18202718572272047,-6.513724362174758,-7.352154092681417,-5.303453934355726,-5.735305466631058,6.381994356065108,-6.942995423396955
2.116,-13.056487883847728,-6.246830836296524,-13.10053041705089,-12.822780008365182,-10.2015173123031,-11.4917109225081,-2.639805872353138,-12.205531662022073
2.12,-21.496183930308405,-14.561254589528954,-21.055806852470994,-20.265793107537398,-17.646889782117725,-19.588414254774136,-15.300097394274541,-19.954912150801732
2.124,-29.446795020319772,-22.911464235522878,-28.199954589003777,-27.478347709461847,-25.270351744074404,-27.904185559389852,-28.238392964405023,-27.77224822769719
2.128,-34.32489104174571,-28.784898749807283,-32.0030572836555,-31.715481084798153,-30.01620050715018,-33.86651356263074,-37.40054197975259,-32.682654128262996
2.132,-34.20357791153207,-30.002877640648023,-30.655505638577267,-30.86568634203129,-29.48561650227341,-35.48606322767479,-39.68836450597475,-32.39918940221838
2.136,-28.66739533964535,-25.68075795909552,-23.89616239979828,-24.39854409811533,-23.050290626905422,-32.149652000903686,-34.27023304680314,-26.319806497209935
2.14,-19.03933508347492,-16.680442913477613,-13.21127402840166,-13.629955726809806,-12.174895733872209,-24.819975641030556,-22.92122086012938,-15.785371636913142
2.144,-7.846009440474351,-5.29613576523385,-1.2634447042892973,-1.1546680495211037,0.23061791103423102,-15.561969747546371,-9.209639670172182,-3.4745326159601113
2.148,2.2292581202567954,5.686146266644372,9.186121183020639,10.256760207394006,11.087995962851762,-6.663935367826152,3.0591886043618226,7.736703817168354
2.152,9.36378638805802,14.072208532628457,16.312730598719156,18.71901761037289,18.39034260327546,0.20283088873841315,11.34310157233995,15.877901769477292
2.156,13.123600684159035,18.979869408859972,19.766268156471753,23.763532467402634,21.813429424193863,4.416206753902751,15.112267597078164,20.41794202048373
2.16,14.281364718010515,20.86602172477704,20.45951597813773,26.1170676270567,22.444043273638606,6.280036538184683,15.553855863311373,22.059015494534147
2.164,14.100089538179706,20.933550713848874,19.80650356425448,26.956909491349272,21.88186476530882,6.53713147373082,14.52780493537182,22.016867108706837
2.168,13.547089085297753,20.319018680735223,18.876624208832343,27.124912201866515,21.27940042764342,5.85154190926299,13.435897744583752,21.2501607929169
2.172,12.862766238974299,19.518078946358195,17.91663127469227,26.735190915957393,20.85403525437609,4.555028965222858,12.625868715924835,20.09389223606788
2.176,11.700549679426778,18.349682368022762,16.492323339819208,25.368112895743014,20.087256883413268,2.752992279963968,11.593446977763088,18.41658869779256
2.18,9.664157770404282,16.394102161802508,14.06231171100723,22.630574424235753,18.37398115690206,0.6026703047065483,9.717014716233436,16.09628495904646
2.184,6.862123154354176,13.573348112330226,10.605703980198271,18.694700640914437,15.664185723807659,-1.4787486547608948,6.985973744694057,13.42616364078345
2.188,4.086569272505423,10.452565830715649,6.8750321113672985,14.437744508390917,12.6629045886678,-2.889580895359769,4.221407451100951,11.114042200894449
2.192,2.458593212739082,8.032574872128533,4.080177877725985,11.066009145617087,10.466256708088341,-3.1739645877846145,2.6344731150632823,9.873892679181612
2.196,2.779164784054025,7.183615723245822,3.231306256326328,9.48657974220205,9.899803649304364,-2.356582422569512,3.047549705662256,9.882377728454522
2.2,4.968433934016572,8.052309824421242,4.497682424207371,9.787793710232936,10.970240603067975,-1.0551811624873142,5.27255295631717,10.486145268791683
2.204,7.983101024353685,9.852108584088995,7.015438149261835,11.174582536343005,12.807089037453858,-0.21940833189391995,8.081404613912827,10.422665975718813
2.208,10.316269622555755,11.21843481087117,9.293727643526195,12.410446836058135,14.142886349399351,-0.6021185611930582,9.819715132269502,8.47774398020647
2.212,10.78964207525092,10.936507973885313,9.97360428044599,12.486904130177447,14.031608139457168,-2.279407060268432,9.287479889402604,4.225906965929437
2.216,9.215313983228402,8.660646663226785,8.555103939667664,11.155986632469208,12.387016397728171,-4.506454955038928,6.3921577377398275,-1.5928851214525812
2.22,6.5104989643729105,5.177901548359324,5.643665428640943,8.998480044272743,10.006290349877574,-6.061624259271319,2.1699478022602063,-7.31811169862751
2.224,4.194718047674634,2.044235353667874,2.5944419215207963,7.013944315984283,8.0797976664518,-5.910352534369434,-1.8175248191803763,-11.13938284664243
2.228,3.547948909272395,0.77782705009418,0.7560470518380796,5.994454925243471,7.478589414522536,-3.824624172948374,-4.337400020741622,-11.999523085433502
2.232,4.870704679818438,2.0113190286866365,0.7088196970840817,6.038233999843127,8.216995018442077,-0.6120627961778138,-5.118709900906516,-10.14081963018004
2.236,7.298639197747942,5.099958369085984,1.9691004804427292,6.509914228821203,9.416657817684722,2.221990155845796,-4.895097966454802,-6.9980137298801495
2.24,9.249599179857652,8.38977900461224,3.2664487552017825,6.431156313702939,9.765503370184183,3.2099894893050296,-4.881217993641698,-4.4905744583441844
2.244,9.258083174332786,10.018352591154436,3.2492242550841386,5.06407793247349,8.211267767936272,1.6802603027269178,-6.009789900783517,-4.091728778336071
2.248,6.748671184763346,8.838146734294174,1.2226964810648369,2.3437369277533975,4.506286301984813,-1.8728340535942252,-8.381634181192178,-6.1601307043034925
2.2520000000000002,2.3074442084132656,4.960419510872068,-2.5088541629594623,-1.1041221004072916,-0.6862903461948378,-6.017339523018144,-11.248053416320587,-9.8519506515516
2.2560000000000002,-2.637641340527079,-0.3232075484170416,-6.813457254984252,-4.321730585982081,-6.131230022652922,-9.072700805267807,-13.477536226827585,-13.620895292347686
2.2600000000000002,-6.538417011206632,-5.201205118394576,-10.325905653141614,-6.5518614107106,-10.605297263036006,-9.916579573581274,-14.226268737316955,-16.00762013086378
2.2640000000000002,-8.444979464793784,-8.216250809791731,-12.102931598376,-7.621401937322906,-13.393661222093531,-8.492984151067473,-13.41594353921596,-16.301079886985526
2.2680000000000002,-8.33910104630499,-8.886076950125231,-11.985947398797249,-7.960831900983123,-14.452963375076225,-5.7725961781009065,-11.754934119336664,-14.752717039540048
2.2720000000000002,-6.980489256715437,-7.796127544437577,-10.544064243846284,-8.288376505893918,-14.215498195830623,-3.217186844203006,-10.336864311588183,-12.285537620839994
2.2760000000000002,-5.3969439121868605,-6.147577225710352,-8.650093183598125,-9.143218440766516,-13.193364481040785,-2.043709957758143,-10.052017077040466,-9.935062934446666
2.2800000000000002,-4.354048785707897,-5.051983507985698,-6.996815534375901,-10.558134597033444,-11.661192693803885,-2.679349600959256,-11.154903238692006,-8.350766917588876
2.2840000000000003,-4.077299149932287,-4.961050543458372,-5.807754441873286,-12.030713957699145,-9.589800293176541,-4.649637710195284,-13.188122613826614,-7.608424413283897
2.2880000000000003,-4.320154339997779,-5.52587812644605,-4.873450412781579,-12.797759429042932,-6.85648465513101,-6.922558379679928,-15.267564200247888,-7.395347658949837
2.2920000000000003,-4.686007052564213,-5.944215147068762,-3.866189134681072,-12.26582465392047,-3.5796052005577543,-8.494070571390495,-16.561041187165753,-7.3863199483924085
2.2960000000000003,-4.930743210423751,-5.533575212847117,-2.667895255489986,-10.329736368623603,-0.31823113801306135,-8.868202506273198,-16.67862648308974,-7.553631074718423
2.3000000000000003,-5.0824919170531775,-4.200477630138103,-1.536368276636952,-7.44572995684146,2.0100893924996956,-8.213424538865524,-15.813585033874274,-8.212591126567283
2.3040000000000003,-5.329253835567683,-2.5262053896456362,-0.9935759873562588,-4.427797739002987,2.494161433817899,-7.14204811452879,-14.592720384077763,-9.778437050617814
2.308,-5.778234768756008,-1.419671900715576,-1.506540167530832,-2.0854541814511984,0.6932084739400519,-6.279711970328705,-13.744052358647995,-12.410334728744106
2.312,-6.302636724565349,-1.5711573859883234,-3.1927451955417046,-0.9015244928024337,-3.065852431001794,-5.888567063628313,-13.778517343226053,-15.768586923746435
2.316,-6.565433121329473,-3.013574864104294,-5.690013924952604,-0.8732093405551389,-7.729925825410659,-5.737013657518379,-14.80300983709645,-19.055242496105553
2.32,-6.231596226649031,-5.075614630433077,-8.30664174726467,-1.5986021802424872,-11.9352034603104,-5.296486406728922,-16.540607764329852,-21.337586736242574
2.324,-5.220278682084351,-6.7480284515772695,-10.349605739913489,-2.525405953466867,-14.594371897928019,-4.113307553334137,-18.493835354638627,-21.976274186337633
2.328,-3.831472003091347,-7.2587195312242905,-11.456292813929288,-3.236705472798951,-15.379251071116812,-2.1442043850908092,-20.15765251500999,-20.941709084926103
2.332,-2.6854848673317506,-6.547683165449345,-11.786229682148033,-3.669118119096334,-14.864420256961502,0.13058424131653723,-21.20375363318557,-18.83703275938644
2.336,-2.4644962216711477,-5.3339992230589965,-11.926542172207665,-4.133849394032391,-14.227155874235997,1.8998226881153881,-21.548133190295125,-16.61636654125101
2.34,-3.6153937248518027,-4.755871196495684,-12.602253274344665,-5.159640270763724,-14.668797197261421,2.400253064533719,-21.323676412360342,-15.147957420894919
2.344,-6.15190633353782,-5.7677687126086985,-14.310519554140178,-7.21500632104731,-16.823578432933186,1.298592858330717,-20.770676176826406,-14.837191436930603
2.348,-9.635004505613104,-8.624952109607854,-17.05526437845093,-10.438615659244501,-20.451761215110885,-1.1381923915546253,-20.10782506200877,-15.512402771282598
2.352,-13.34440748035332,-12.752261589994996,-20.32729228300445,-14.506978265865248,-24.563760172016533,-4.167750774330828,-19.455139014947974,-16.587559639742626
2.356,-16.513013466396977,-17.027897566946134,-23.285640896322143,-18.6775509284515,-27.879205799693946,-6.899922384722773,-18.802771817000135,-17.39857879204905
2.36,-18.548568666092702,-20.335893387715153,-25.095658959165178,-22.032499052531243,-29.40892752993742,-8.6820375392113,-18.060760232864304,-17.538697539655026
2.364,-19.159151616105383,-22.05494268206524,-25.2425990198307,-23.80988884051275,-28.847416422912506,-9.322642975875944,-17.143150044267717,-17.01398752598321
2.368,-18.357830018138905,-22.2167494459884,-23.692527598665663,-23.676867950258284,-26.604554344499423,-9.064385735832573,-16.038528353378148,-16.17035098107303
2.372,-16.40606502017807,-21.306356500199364,-20.87684487577182,-21.837845843934577,-23.507640470912452,-8.35402842002961,-14.846538644947385,-15.455161997930496
2.376,-13.716291427757753,-19.84868381053768,-17.48578948184393,-18.910483851951884,-20.34408691734063,-7.541913557741697,-13.73950300424379,-15.167303055723597
2.38,-10.763420442739001,-18.076628522449536,-14.214591962300188,-15.659376737899015,-17.521544129041807,-6.710679737101963,-12.887031720086215,-15.325292176404089
2.384,-8.001487581161147,-15.881962686494587,-11.55167230551157,-12.702983555423055,-14.999006870036508,-5.7061791854718065,-12.372627694023336,-15.701641484789398
2.388,-5.77498222828614,-13.0542704303007,-9.68637471136564,-10.330620500768116,-12.491090102288211,-4.337629040244558,-12.143901577666993,-15.987914438268225
2.392,-4.257209158316947,-9.6359933179907,-8.572570308386378,-8.517624383896388,-9.799232995542141,-2.6093534190521734,-12.043432626349103,-15.964758493168441
2.396,-3.4011979951007003,-6.1072010791297675,-8.038556972795249,-7.07156560499713,-7.038998918223289,-0.8064730447177113,-11.88000615501884,-15.582668660136548
2.4,-2.9629007385797834,-3.263793384555032,-7.912189131505498,-5.823057447464674,-4.6431188327869215,0.6156976892653148,-11.516435062196035,-14.92361246892603
2.404,-2.603454254308854,-1.8311665442103626,-8.080504083573729,-4.735097398159798,-3.1382060278658077,1.2935934813790866,-10.926667863050742,-14.085611600204018
2.408,-2.0275293670326624,-2.0409060521821205,-8.46422387655362,-3.8734287690700837,-2.8390891490210306,1.202131385281172,-10.192022771501087,-13.08297657704441
2.412,-1.124631711713192,-3.4543618036718353,-8.973675954313508,-3.299964260360113,-3.657285087619678,0.7173944369365313,-9.452037207349356,-11.823205061613871
2.416,-0.02374263280075173,-5.140925337809474,-9.45838538914761,-2.9603135005530716,-5.119726212545971,0.45775815150185206,-8.822963051473593,-10.181649444531253
2.42,0.9532672680251615,-6.141943180502316,-9.73521728906708,-2.67951706774841,-6.59375369185927,0.9605429839409723,-8.339758394056894,-8.125002435294844
2.424,1.4346280916687286,-5.954165669632362,-9.664400201978628,-2.270489691772264,-7.5805388834237,2.38633101671252,-7.941767519447136,-5.8004632071763265
2.428,1.1870939397658375,-4.74862140069591,-9.218512106369708,-1.6741606850744981,-7.906260833151913,4.416457782547387,-7.503519708662287,-3.5394656759308663
2.432,0.22942819923809132,-3.227087944005354,-8.527357081187613,-1.0431210166570688,-7.727629145325604,6.394243224761521,-6.90891829186678,-1.7573099021049254
2.436,-1.1492078538825576,-2.1850801818181234,-7.8117648487623965,-0.6633652055807988,-7.347520168303168,7.6722228725708055,-6.104125138053986,-0.7891555790508917
2.44,-2.4924384762245504,-2.0561090983336263,-7.264899612854443,-0.7644667650873365,-6.974775098127085,7.950866869269425,-5.117625844125226,-0.7406545953770503
2.444,-3.361703423967425,-2.6968412526532726,-6.9362897070592675,-1.3356089625477705,-6.5731502649153715,7.430879043456386,-4.043919199081894,-1.4258332244637926
2.448,-3.499679402989692,-3.5083645417063805,-6.674878552701304,-2.0685008063659107,-5.880585688041598,6.697650271436849,-2.989279059458634,-2.4374623221306324
2.452,-2.914918113623524,-3.8175601441227167,-6.202541533264396,-2.4962617580554634,-4.584178495451681,6.4064346595747175,-2.0208517341359795,-3.3054559346795873
2.456,-1.8317625171077734,-3.2562466975038062,-5.24582921583839,-2.242879244332916,-2.5296973688562514,6.9542879785895835,-1.136007884907296,-3.6885659662327033
2.46,-0.5528916491634791,-1.9339445028605313,-3.6869467360693227,-1.2560022589864612,0.14286873113657184,8.28908715530493,-0.2752018023811349,-3.510350626558771
2.464,0.6906035658112881,-0.32527703610193015,-1.6429255018452715,0.129976333809525,3.0181478631282794,9.958671908536614,0.6224536620455652,-2.9730746188468355
2.468,1.83436702370906,1.03525560366458,0.5811247493043141,1.3533175370914998,5.564646382946266,11.350448057412713,1.553142540542007,-2.4526570723687273
2.472,2.965653581512999,1.843785745100151,2.6196638870813524,1.9196548041985793,7.34546374998933,11.987906190494266,2.4059286053329445,-2.298570354038084
2.476,4.231284708024049,2.151882529493408,4.2202102269351,1.6782328214661253,8.184338518331327,11.74268166132994,2.982278344681516,-2.6410303607387036
2.48,5.694593049267985,2.2451733081245733,5.322387864546751,0.88202811354572,8.184688660599367,10.840971472212,3.0558244136503014,-3.3083688081023226
2.484,7.233359308531515,2.394354022314199,6.028608974747212,0.01290578280270438,7.630496713521979,9.710837797255465,2.4777254650357308,-3.886834307904822
2.488,8.557864974202404,2.6624023205689564,6.507937534579993,-0.5027992479383727,6.842597651159794,8.765554652621445,1.2893311519298112,-3.9093443460005517
2.492,9.316013173635785,2.8612279321920697,6.857323936228947,-0.5467348058401117,6.049294280153864,8.220873720630701,-0.24752045021006586,-3.0855307337893363
2.496,9.264041328008359,2.7010877817875585,7.053329701179232,-0.3432974093772596,5.351229898914897,8.040785407325394,-1.6914669651406387,-1.4593266830100236
2.5,8.397797070781257,2.003371401395845,6.990516308342609,-0.27516804384140725,4.768364025005652,8.001519767263007,-2.5557042272393327,0.5929601277032761
2.504,6.9768851011512245,0.8383998767548082,6.5846628140779275,-0.596033829948333,4.3272531821338625,7.830971598810681,-2.4840831023284693,2.534868452893802
2.508,5.433014141970938,-0.48848264063602187,5.882306602018385,-1.2209529217514627,4.120397177744784,7.346607318287582,-1.3898581947529638,3.9277978792779553
2.512,4.167483833656273,-1.6204517815898143,5.061482543186101,-1.7630399957926657,4.274697394265488,6.51643178928167,0.4795371314036969,4.64125143347607
2.516,3.3685407284561606,-2.3542773386063343,4.361543406002894,-1.7694063040283026,4.865083880494094,5.45519569751675,2.61880800015599,4.901083845522234
2.52,2.924722646614118,-2.756345214645509,3.9477955889013456,-1.032748213320312,5.812687245760455,4.358497302414815,4.43738657507928,5.151221227429577
2.524,2.494336101361169,-3.1114247896197567,3.8143450366184406,0.23322480455074412,6.8539414647241435,3.429150609798139,5.464587472781645,5.796410984528099
2.528,1.720437291993803,-3.718108983093569,3.805603414072718,1.4809840087387567,7.6276261496124915,2.8204155828546282,5.52548855201287,6.951693633678868
2.532,0.4617959820065831,-4.669024779549707,3.7170456063901085,2.116630229083734,7.839653517469209,2.597628777595265,4.790641744390747,8.349801837241452
2.536,-1.0505198562621842,-5.716472891822761,3.4643349173893325,1.8537370094572765,7.446066383806585,2.74471930977915,3.705343555083946,9.457688771630131
2.54,-2.2475356545386296,-6.319325697018722,3.1794692533225932,0.9028304905603797,6.736871283704814,3.181713529394079,2.8047502456409266,9.751860233875291
2.544,-2.4579108873124724,-5.868027175818957,3.1728819820541876,-0.1181949137286562,6.253391390252519,3.787012176929313,2.4844633087699695,9.010480975009376
2.548,-1.2329938861421361,-3.9800174465258653,3.7799289408116117,-0.49845174941673065,6.553891230446586,4.4132591648929225,2.8326741105917126,7.458288823969535
2.552,1.3736122912990716,-0.7431373573071784,5.142285007044239,0.18195447652316332,7.919043541817948,4.88984111869569,3.578887348272155,5.69472426566375
2.556,4.744789117302447,3.2297694840045104,7.075990729561118,1.8291251804518875,10.154322153847836,5.041943426271457,4.20726631633295,4.42174471689169
2.56,7.895543940529873,6.963594576044393,9.081570435466386,3.8761678870433602,12.599864921195039,4.727599046359005,4.184387169383858,4.1136788632418515
2.564,9.852288436408438,9.446607124484048,10.521167339642444,5.558581474249527,14.374871727349156,3.902288482698097,3.213329408831578,4.802187657097676
2.568,10.05139577697226,9.995563556746133,10.882367038294472,6.268531820244183,14.747525292653961,2.6827915284727806,1.4000576249474324,6.0646838939480245
2.572,8.553323892916625,8.496647291064566,9.975537123398496,5.793251000075401,13.455547595764054,1.3691761973797867,-0.7592973571898978,7.238571095405199
2.576,5.994019855153778,5.44819350225411,8.018419965579964,4.365135829976955,10.835813476748493,0.4070628524634081,-2.5530355835950265,7.742379156091069
2.58,3.2794472260104532,1.767799871749217,5.533288281208151,2.5053380679574184,7.675981843168309,0.2541344760158517,-3.341351411297807,7.338213729837401
2.584,1.1807015479338792,-1.5476911489467113,3.131755052739224,0.7789310403212459,4.873098331413199,1.2011443176014014,-2.8287844352963805,6.217833625250413
2.588,0.04026615097160424,-3.7580530926425797,1.3027157071676372,-0.39697142988727174,3.0681704877317753,3.216720157179725,-1.1837476254064132,4.874107372882244
2.592,-0.2986029947349824,-4.595585377540514,0.26482952758114875,-0.8437614284710879,2.423956559878623,5.890776633340733,1.0427101418793572,3.8550992680813714
2.596,-0.3008995544847104,-4.266504036235748,-0.02832316166654314,-0.5878834033175085,2.6577325286461906,8.541723231597617,3.17689941607055,3.521591196817419
2.6,-0.43245687052338444,-3.281912693191396,0.20111009784289413,0.20648327795092863,3.270050726365853,10.436306876420964,4.715026365729041,3.924148644599388
2.604,-0.9102434435926454,-2.2102347605987234,0.6777552102500213,1.2877886903309874,3.831196665943528,11.05064114704833,5.50332342226973,4.844096724660039
2.608,-1.637936259872852,-1.4705875273987512,1.1733756659352022,2.3432324917461904,4.157658712447656,10.255607702554126,5.72927708512117,5.933360179809873
2.612,-2.358255174337353,-1.2583493494637359,1.5271252581067303,3.0192411639517234,4.294853649003771,8.33645307378298,5.727501448723555,6.867605733896706
2.616,-2.8758521193901645,-1.5685899234406624,1.657585783163196,3.0038158161431983,4.368077166555097,5.863631356916062,5.746240273634994,7.431663676910374
2.62,-3.2209441296515817,-2.2849633997864527,1.55324954447202,2.141901472443288,4.403463706229424,3.4612247061608836,5.795578128933314,7.52140009320679
2.624,-3.63019912723243,-3.247705732846944,1.2798427944618846,0.5489299017822669,4.267176317038612,1.5962409014615293,5.674095991741945,7.114265244560193
2.628,-4.347221821247817,-4.259675786065431,0.9948731642140416,-1.3535498694734978,3.762867915319907,0.46962873753289935,5.150040986569982,6.241499256433012
2.632,-5.394418438831131,-5.078206433515809,0.9053445780637528,-2.9529169790509804,2.8112531934951326,0.023056453954004574,4.160260632777117,5.001903990471195
2.636,-6.45584322088366,-5.428181462770841,1.2006084591888104,-3.6629663937135817,1.5910862126416907,0.03963100860237123,2.909336313031722,3.583873120291891
2.64,-6.9836530793904155,-5.083030455310065,1.943873134181815,-3.1658999520131124,0.5109264727641634,0.2600704603137327,1.7897569261331556,2.2474638243536553
2.644,-6.48917186559231,-3.9812152259018654,2.9970551009770436,-1.5523663498004743,0.01429351323139283,0.4733076924272326,1.1712636504211482,1.247412459843246
2.648,-4.842663281660528,-2.2935407605956986,4.0518742301074,0.7210694880707064,0.3296633416257646,0.5610067286587874,1.2017100991835852,0.711022051866594
2.652,-2.4283397354750758,-0.3950497341414049,4.744252320476781,3.0237280513348788,1.313703180831638,0.5071567661531173,1.7323122212728208,0.5666967502700089
2.656,-0.028897852466791385,1.2833135407504326,4.838120189199592,4.807939063918474,2.504613345987955,0.39411501796476656,2.4206777018424903,0.5711821790982712
2.66,1.4964449284598178,2.443360825075418,4.343083264089049,5.777488300637635,3.3495863261565195,0.3671825147457295,2.9279149767761155,0.4422042045957477
2.664,1.5809001796038316,3.0433933870504912,3.505963800399358,5.908583196835513,3.4920269127484107,0.5722109242388467,3.082407337450098,0.03730834960565743
2.668,0.19875648247775368,3.2951336999258993,2.692397489782411,5.356262592828616,2.965999489536692,1.0814072746402474,2.9289265575029466,-0.5376054157328973
2.672,-2.1502582393726173,3.5224916409378837,2.194546677432438,4.311927187297247,2.178543674566285,1.8351813652022861,2.6387015611835922,-0.9550478806894485
2.676,-4.678785250970268,3.9815077114903388,2.1135502891366826,2.9341499150992045,1.7007425965786285,2.649699573234854,2.370478204756212,-0.8428557654533715
2.68,-6.64844009879837,4.737335633475608,2.3562817788688957,1.3663104885992032,1.9774094241586677,3.2913823256651455,2.1720981472812646,-0.0158619618738296
2.684,-7.643425639011492,5.65798991036424,2.7469768072982728,-0.20026673369542425,3.116351233854285,3.5994491973604346,1.9865019983387704,1.3763445405813428
2.688,-7.663087548004733,6.5196097622076135,3.180256806798282,-1.4969256314348065,4.8519251284854255,3.587433911290215,1.7393611951229373,2.868333204686569
2.692,-7.058422836042745,7.114057077577298,3.6626958179334137,-2.2703345243866964,6.6648258561205775,3.433004399919423,1.3890109206998784,3.869902807737562
2.696,-6.354433773277195,7.3051062131644855,4.245900241285765,-2.433654701102873,7.995673248350621,3.359751459604083,0.9061281613919807,3.9271435259276384
2.7,-6.058736204935357,7.009249144984242,4.879119987053835,-2.1804166547256267,8.438198182656198,3.4718073914017573,0.19840985880094242,2.928941675741932
2.704,-6.5113689842465625,6.157311900072007,5.311672610342978,-1.942111360171359,7.8551427896991814,3.6641780570390985,-0.9247936167724955,1.1655679775290069
2.708,-7.7761670030934065,4.722289388186148,5.173402122513052,-2.1528709113314095,6.40059659560654,3.6821669662097554,-2.6503394904344972,-0.785494871142085
2.712,-9.601190285676182,2.80636874500415,4.187365435238714,-2.955664519477436,4.461741859877771,3.3093406449017637,-4.95602524037535,-2.265606456189015
2.716,-11.43727760564851,0.7363556340229209,2.4304757561692334,-4.020776828654789,2.5575576913638365,2.5813349844840463,-7.4198350824883965,-2.750638734723292
2.72,-12.572190187875544,-0.9652407207765634,0.42098604952889573,-4.654170428099874,1.189037463872486,1.8397915222810273,-9.24111976401465,-2.0107921138153704
2.724,-12.380587357625322,-1.78171396293504,-1.0648764487108107,-4.183408566413847,0.6634891736698147,1.5655885119010176,-9.553363881289124,-0.179779313442483
2.728,-10.60313535026929,-1.4948790313993126,-1.3727156741024622,-2.4082735921076086,0.9531399793796584,2.0687510777957243,-7.901169413612182,2.265795883596726
2.732,-7.552823281679285,-0.42042728269799134,-0.37511548696026864,0.1401638786296715,1.6479058897646661,3.2113105874059347,-4.631391497566961,4.618810905044786
2.736,-4.079502788405415,0.6236790990312215,1.392404024656706,2.3595514154986423,2.0770729573559716,4.382247252613038,-0.8989667058811452,6.131356948413173
2.74,-1.2650310263501239,0.6649536824782558,2.9587787724930443,3.1142196789035816,1.5881100015029768,4.780433252636694,1.803784815146018,6.26297173908252
2.744,0.04241624611728967,-0.911835442168428,3.4123895043624524,1.877082547513497,-0.1230362509154439,3.879683100909305,2.387431683852105,4.912329657351921
2.748,-0.35420786189812703,-3.9554787978397723,2.4184581583850377,-0.8849346923959365,-2.7924505779823514,1.804766480015735,0.7957809885043652,2.527235255265892
2.7520000000000002,-1.889815992388396,-7.528226525500427,0.4184673973893016,-3.860245127660504,-5.638778859909172,-0.6429425730750626,-1.8846457607767126,0.0060208097404004235
2.7560000000000002,-3.5035344948431884,-10.321273220258101,-1.591067156817955,-5.515222580423253,-7.685633750504202,-2.352345481291331,-3.94345586273782,-1.6293017085900576
2.7600000000000002,-4.180319307615244,-11.3153490336001,-2.6113409644219265,-4.882385686919936,-8.221775524789205,-2.4939109253618876,-3.9516651075088474,-1.6636473074106357
2.7640000000000002,-3.4764619638487617,-10.31197142659261,-2.1867976971701273,-2.068153491780272,-7.144303820729405,-0.9827619418608825,-1.5366839615895993,-0.014599322242117907
2.7680000000000002,-1.7114062526113516,-8.003584784486693,-0.6052771526864507,1.8286080204061532,-4.975358907436811,1.4584263051062967,2.4323905862528137,2.7189545105671384
2.7720000000000002,0.2503957273782378,-5.5535819139528835,1.3196850056695077,5.314660308715485,-2.5567115106610956,3.6715379394324703,6.346637476613995,5.534593991641708
2.7760000000000002,1.520448296051972,-3.905251896080279,2.777959587767241,7.2903335325591385,-0.5830168540714047,4.672586121804562,8.77310797603347,7.491617103932817
2.7800000000000002,1.68833896413603,-3.251899183911183,3.43716694369722,7.552609995847094,0.7406514380955262,4.130748290705095,9.223628983499042,8.126335155923343
2.7840000000000003,1.0010569709378974,-2.9961447272085513,3.5682126465682247,6.747808523736622,1.7118955938530793,2.4527081872553635,8.309449025908979,7.591506861748552
2.7880000000000003,0.1418936781739104,-2.2019675513226593,3.7772076497818947,5.848732457448648,2.8237127074427066,0.46095135014630895,7.2290403736578295,6.457490267656718
2.7920000000000003,-0.2522242680968363,-0.26977209190007345,4.505821646532418,5.4953617131119135,4.338387113478042,-1.1157206491976623,6.924226303237169,5.33425838988884
2.7960000000000003,0.027985253576151337,2.632420913779398,5.701654343518821,5.662746302917278,6.062249428765429,-1.9844734972374996,7.490186212371625,4.562306322022779
2.8000000000000003,0.7183450428493225,5.653679138253249,6.867714716674573,5.834103599140127,7.478024847817247,-2.291509365581386,8.218607283751785,4.158957650584071
2.8040000000000003,1.378323619712086,7.801415660218607,7.460585509961975,5.525694527117821,8.143916850011543,-2.3262125878336093,8.223295728753293,4.013686591848602
2.8080000000000003,1.8166812419786673,8.594785101717312,7.362195949159576,4.775103953561251,8.075255596048462,-2.186135556813179,7.206567534438891,4.130247824872238
2.8120000000000003,2.2833680009203707,8.362658557963742,7.025687841399783,4.186482888141616,7.788981743675681,-1.6964606359705305,5.772151881276565,4.683863786687854
2.816,3.272769721095186,7.97528583419706,7.1690163540376775,4.478799794197348,7.926921267998856,-0.6465522187268142,5.021351716297934,5.787784343050831
2.82,5.025039955422659,8.147042159496301,8.13700626368752,5.799873219266972,8.651449896302536,0.807651842661707,5.639020297323877,7.106857703227201
2.824,7.0769821536229625,8.776128952798947,9.368345401751078,7.30047762406617,9.2385898002426,1.9173619948595686,7.087926363951491,7.64743650050486
2.828,8.250960148084946,8.804196872294039,9.400852297427644,7.352679895880561,8.228438743447807,1.5419547951382604,7.542471968956869,5.98050497524024
2.832,7.182404208423418,6.751897334116477,6.50819851205047,4.374953417544064,4.165063317880199,-1.2610561698248413,4.744570231582225,0.9300883748884703
2.836,3.1731910794178013,1.6948448444128157,-0.2659301890804655,-2.1340282962032013,-3.406139915430474,-6.550493268945675,-2.5928760061577565,-7.583934339672048
2.84,-3.142287031357732,-5.912651685169137,-10.27334095258317,-10.988498295698014,-13.27544072413544,-13.164758773941399,-13.656359613900833,-18.04866220705618
2.844,-9.78032266124817,-14.0996388376797,-21.14742296958945,-19.55243631771431,-22.70279403537256,-18.99389790516982,-25.406706359963678,-27.585228198580978
2.848,-14.143180916327335,-20.08340305331784,-29.566200593217303,-24.779921268686245,-28.4100097099354,-21.797567200406064,-33.66343764320232,-32.9437436276432
2.852,-14.21683716894204,-21.52957106577216,-32.625428187518736,-24.594335721860414,-28.025669681412985,-20.20069532656245,-34.95295752849583,-31.85874041098652
2.856,-9.583147084077696,-17.68950910279534,-29.11963933872692,-18.86403106878763,-21.24103269890867,-14.331638648720403,-28.155323629520048,-24.109601511086858
2.86,-1.6947858857898543,-9.816760376413873,-20.116240298460504,-9.481331507776611,-10.073290649411671,-5.79167729547558,-15.099029034736276,-11.734675978209573
2.864,6.754352272547514,-0.6353726522682002,-8.532925408681567,0.4904429238665724,1.9428546391121135,3.0263500156445153,0.21080917667465648,1.7464635838456428
2.868,13.069992925165288,6.885263930738636,2.0957419278030476,8.17017154611507,11.259944888416081,9.931190558714793,13.347947402507,12.749637964407635
2.872,15.741028790908693,10.79526753875038,9.021995906911204,12.002734279032733,15.768600626680705,13.727518872240811,21.28510910252605,19.017257866707027
2.876,14.984409845290429,10.866136126570595,11.244137920577131,12.187725205473296,15.5151144938882,14.485045246540754,23.42060115849671,20.333876894493784
2.88,12.398110474857244,8.416340691066646,9.603755150961202,10.249171630100792,12.372479441792175,13.22665662904947,21.383384571086786,18.286926860805224
2.884,9.975869592059208,5.440787433362308,6.095491436170628,8.078856722246158,8.919524970942247,11.290519926182288,17.861197561442815,15.2891456805867
2.888,9.072738992661916,3.5747775544801064,2.8326777508804803,7.013009539066129,7.157992438495695,9.726691123869555,15.171463403739343,13.394340242894772
2.892,9.835125265228427,3.3994248465501653,1.1450886573568604,7.35619623819573,7.68788087647657,8.97543313397132,14.284552165893057,13.482562334134371
2.896,11.356957298345748,4.401971078551316,1.2251708053062438,8.527446252050288,9.697194240201902,8.90882229003967,14.71714509733586,15.134776414221836
2.9,12.367930055849218,5.487711485511381,2.347362549384598,9.60599396595349,11.640380590043998,9.098528904286322,15.170642587746588,17.135662763469913
2.904,11.996166693993345,5.679628450613779,3.435427806599271,9.903929396319812,12.16459812607972,9.112320969583383,14.442383542424446,18.248045478751706
2.908,10.186056650135228,4.615946065069585,3.6528535646281077,9.26779473865872,10.77759664671279,8.69674072549607,12.098507695547077,17.827075132617345
2.912,7.5736959246073745,2.6025212998721132,2.711405307603711,7.993982727411176,7.948475123565881,7.806896895097454,8.593346186107613,16.01430332133411
2.916,5.0222925377591086,0.31522613713307557,0.8798312927823555,6.538401507977374,4.718069712066446,6.567009816136695,4.92286227020042,13.507095222652461
2.92,3.129055859964642,-1.6139524396735168,-1.2568965707003934,5.223891320886841,2.095265571947622,5.202964062519015,2.073050416107723,11.106866511653191
2.924,1.9876477605725809,-2.88109014153816,-3.114154495414179,4.116026298460141,0.58741960625398,3.9739785953212126,0.571271033834063,9.320157174183821
2.928,1.316679826163071,-3.5187334075670225,-4.319420978015769,3.1090906751874043,0.08769055994599917,3.102397906763112,0.35358209444847555,8.190123848602884
2.932,0.7689446486611455,-3.714390238219803,-4.803453707409881,2.088711676487842,0.0883942613986779,2.68134435812364,0.9096277426790444,7.398323038131493
2.936,0.20555737133983243,-3.5854892822780338,-4.732679964420826,1.0660274376370484,0.0584687633892198,2.6112504528461367,1.5827040854382128,6.527878475443837
2.94,-0.2545646557147636,-3.0879511508319433,-4.384019493004448,0.1817520257212326,-0.2594637483826219,2.604471186207115,1.8540047519424232,5.32360828913923
2.944,-0.3987402131649045,-2.095279038061384,-4.012183873783568,-0.3821470364705295,-0.754127725806292,2.3153726014971454,1.5134238038797336,3.8456272769283526
2.948,-0.12524764956987866,-0.5492628647500348,-3.7370751626291803,-0.49224791984335425,-1.0485379491782378,1.5497858238019768,0.7021092081252949,2.4517350285933883
2.952,0.4525704520530791,1.4152942847907317,-3.5292804192390967,-0.12030239987470104,-0.7285742688796635,0.42194590440076674,-0.1859269167548212,1.6329392246805208
2.956,1.0952815819970336,3.4849132575927078,-3.2442876814484336,0.6802731053426148,0.45226887315805797,-0.6382849856065715,-0.6754157591128997,1.7735134262393477
2.96,1.62285037888845,5.297117001500009,-2.721962235571688,1.8120009978500913,2.45441681245393,-1.091024992474717,-0.41752419377624284,2.929126428331909
2.964,2.0438360257928108,6.600115017333403,-1.8986078579966232,3.151178732878201,4.956769284179197,-0.593833535699889,0.6413869757630877,4.740330762734748
2.968,2.538060302005274,7.3578605671157975,-0.8543414305585513,4.550766206907451,7.463772657582155,0.765900179912707,2.2150840377873413,6.520663258010762
2.972,3.277460741462878,7.719540689859846,0.19799433812491174,5.830113600014729,9.46068255662883,2.4591808139341538,3.783893395624006,7.5157848340709945
2.976,4.2439538561483605,7.912091783670686,1.0257738572338364,6.822762318197887,10.586624241526867,3.77934836164896,4.844952918736234,7.242344027734722
2.98,5.179355730087873,8.122956759003623,1.4993582222614412,7.45818385006317,10.758896747306299,4.23361453134742,5.177512752813902,5.750903515247293
2.984,5.705572582113829,8.425747612628367,1.6450175147689725,7.827597764121883,10.20099051078589,3.838372291612866,4.959423402868108,3.664634019644441
2.988,5.561237096839637,8.783521496240457,1.6078943372558498,8.182023763466919,9.35753401181282,3.136387189401752,4.666651660383599,1.9349599090382474
2.992,4.769580429111399,9.08212863096436,1.5092933919803713,8.811631305034592,8.706935050601576,2.895740669224632,4.777624061214984,1.4040301013782415
2.996,3.644482825618966,9.17966604232813,1.3379597859077323,9.88119397423676,8.570096187022433,3.674870495832127,5.471463907144587,2.3787098310996697
3.0,2.6058730178987837,8.930893963138534,0.9289893378166392,11.291159636905467,8.986772827749654,5.481192932124283,6.494981170577287,4.434247135613462
3.004,1.9382608601574827,8.210446864733743,0.07768427981690351,12.679579673325446,9.740536879673538,7.750188197506434,7.301996883655079,6.590201417744021
3.008,1.6752367388572735,6.975416674926752,-1.2439362764634967,13.60110694641931,10.527313638037892,9.662033450598038,7.406709196826912,7.781459823857039
3.012,1.6306133891572698,5.3142479703537315,-2.770175315416041,13.748976865039548,11.138100671753037,10.57791473298365,6.6954678149650775,7.372877134574782
3.016,1.5773259283504073,3.480670082805359,-3.974322579483781,13.128275098028855,11.570238746429101,10.372454552566563,5.518223090508943,5.45316923793027
3.02,1.4296865488212607,1.856641697037933,-4.297908083796543,12.050818226487952,11.97989896307013,9.450151507885634,4.476313540232098,2.743788764286151
3.024,1.2769185514116899,0.8201553581100693,-3.4731487230443605,10.939336345983104,12.503027632402475,8.449530268831797,4.027282724236393,0.1750987470194083
