Timestamp,O1,Oz,O2,PO3,PO4,TP7,TP8,Fz
0.0,4.263256414560601e-13,-7.389644451905042e-13,1.9326762412674725e-12,2.2737367544323206e-13,1.9326762412674725e-12,-1.7053025658242404e-12,6.480149750132114e-12,9.663381206337363e-13
0.004,-62.52970191623888,-53.637387971409055,-73.00896113973005,-44.67996076396253,-19.412938630174153,-8.297025551911474,-46.115482935638,30.71757074715896
0.008,-108.5997314067362,-93.44176111394006,-127.03618246554402,-77.90488077689247,-34.198401514146894,-14.331096276725475,-79.66148475458635,52.959092326187715
0.012,-128.9941021191193,-111.6011501715524,-151.39331965645408,-93.20743047209527,-41.66067402484447,-16.80506272055584,-93.63249330647068,62.05368064864615
0.016,-125.27220647286026,-109.2705291865299,-147.7397040043375,-91.52684059282558,-41.98982111454484,-15.869125550196827,-89.30479709736619,58.97550207882654
0.02,-107.92395278790133,-95.06768644989145,-128.02766292020573,-79.93266600670262,-37.81223060409286,-12.922667682795122,-74.82283047261234,49.3477174191371
0.024,-90.31336484362384,-80.07104583036843,-107.61021873400983,-67.44567772365792,-32.60713032308121,-9.820119045037472,-60.52847148828465,40.25111564076997
0.028,-81.90843744945997,-72.21004365417934,-97.5196112003054,-60.3942852755456,-28.949079889676113,-7.944685601529386,-53.73251517145792,36.66932005309519
0.032,-84.4332244370963,-73.05426931232984,-100.02650229217761,-59.81441817330773,-27.510083420956562,-7.622692892604505,-55.731076444804614,39.48823475028587
0.036000000000000004,-92.66114329196319,-78.44131526768408,-109.44500014451518,-62.07015065236061,-27.24554610373235,-8.13344748364068,-62.396372898453194,45.94215300257207
0.04,-98.84931692837932,-82.13559053035326,-117.107535744188,-62.01003289941684,-26.52227404525695,-8.289097781477722,-67.60608282749422,51.92329512027834
0.044,-97.75450068326839,-79.98158414659846,-117.01771145301797,-56.48151020471022,-24.341203494900753,-7.1741390630114665,-67.16772631036059,54.57897989922242
0.048,-89.34810831739284,-72.14939947941627,-108.94273142150541,-46.17199087843409,-20.937348579556215,-4.655917691107447,-60.98349662262996,53.699530376474
0.052000000000000005,-78.06392635399817,-62.482325281367395,-97.60592332897511,-34.9340448281427,-17.50583946225248,-1.4286837862536004,-52.5026943105849,51.29858980130274
0.056,-69.5656796788916,-55.74991356224106,-89.06798721131344,-27.29247397409705,-15.342683772342241,1.3960654838782602,-46.17689210845924,49.94582935483669
0.06,-67.30839090200027,-54.72517857935463,-86.90423553969521,-25.8250949973214,-15.030827455774727,2.8687322704306553,-44.703556530092555,51.04601767402181
0.064,-70.8608567509441,-58.76136100194046,-90.36041849798113,-29.875118734751254,-16.123701722905935,2.681553130240502,-47.62905436169592,54.08487940967234
0.068,-76.75043705556962,-64.54435250401062,-95.37819585464825,-36.23497420053991,-17.491659260699407,1.2862118613958273,-51.971221845748346,57.17337210524573
0.07200000000000001,-80.97432921422995,-68.31930058758161,-97.49866900809121,-41.19716254820446,-18.04540088304958,-0.37376619537366196,-54.27414887366018,58.40249309364498
0.076,-81.42203149325266,-68.08720155644303,-94.62386413742712,-42.620867407557625,-17.338543787208266,-1.3206870114006506,-52.682488522424876,57.09890000961008
0.08,-78.78245541835648,-64.50456939499827,-88.0276428045359,-40.868017027315716,-15.735347390308732,-0.9985187624933474,-47.815489596146904,54.19416476664236
0.084,-75.51035561406934,-60.03924228575704,-81.08106978123993,-38.126200439771566,-14.04309282457433,0.5388009382887162,-42.03674776932587,51.53689663833558
0.088,-73.84294670951016,-57.16681348537438,-76.85112645105067,-36.78239150717502,-12.933742019681972,2.7289870458822065,-37.815288859417535,50.69214079303106
0.092,-74.31002577133708,-56.86799779952116,-76.2573679895242,-37.94623957580362,-12.556287119154774,4.806737016807972,-36.31490640684132,52.05118261715489
0.096,-75.6620206390686,-58.3164952719612,-77.88253344649138,-40.982247960642184,-12.56399487794792,6.152854213743694,-37.040231524784645,54.75443295052895
0.1,-76.08104106086856,-59.78068050891639,-79.36876001314164,-44.1986558225631,-12.505487522766515,6.500029912904381,-38.58203033117525,57.35353161665472
0.10400000000000001,-74.57351767541036,-59.88849664301685,-79.11701790845837,-45.99192939121974,-12.211622961163442,5.98471204720903,-39.704445932994645,58.68040882235363
0.108,-71.58565238689508,-58.41836747282801,-77.18770553449642,-45.71293790397692,-11.926457240175267,5.022774600318655,-40.03512606370822,58.3881633103108
0.112,-68.54345760827057,-56.224890766097815,-74.96419748527981,-43.81293293521952,-12.115981088594737,4.090526991875663,-40.01535604228894,56.92853475813274
0.116,-66.76931684655139,-54.51215426389385,-73.99409890287467,-41.33524637185985,-13.114221952227695,3.5297912849516138,-40.31519152647394,55.10501730612236
0.12,-66.59628551807806,-54.04042848706686,-74.92534243796499,-39.223432833890655,-14.87311751775195,3.427133612799537,-41.24048560648188,53.556202196857555
0.124,-67.18064218687958,-54.70697068230618,-77.09146946329028,-37.817753774716834,-16.920920044802102,3.644498434074535,-42.48181746490016,52.4561583825714
0.128,-67.11733689568648,-55.72425538939561,-78.9943932299322,-36.84023756797205,-18.581343896516586,3.939564408446472,-43.36688744998176,51.55283950159611
0.132,-65.42433204672311,-56.21109623376904,-79.30012392372402,-35.78954043891548,-19.31069848186152,4.0973611760388735,-43.37456912488915,50.4631831434167
0.136,-62.22325249729394,-55.761611280114266,-77.6517448605195,-34.39844779862506,-18.93883346080736,4.032160836306446,-42.521630475585994,49.01633952502209
0.14,-58.7036403762972,-54.65296164377179,-74.85263901726924,-32.868675292525694,-17.72468449665473,3.773023798834515,-41.3822691363917,47.40349766878711
0.14400000000000002,-56.339151193549384,-53.53448664460407,-72.23107616688242,-31.679845961767285,-16.165555611779723,3.38943446287351,-40.66803945818566,46.0490617718757
0.148,-55.94052675362053,-52.90477923173685,-70.74510526642075,-31.20379822872073,-14.732700159008061,2.8954518476985527,-40.73490518052074,45.32155560296377
0.152,-57.21537299570508,-52.79654333965459,-70.48835697295266,-31.45903193565013,-13.722107833868677,2.1904395065474205,-41.406651172502905,45.282524521789924
0.156,-59.08442436568811,-52.85890965845181,-70.85662761061997,-32.16927379008581,-13.271578561585159,1.1059096544076965,-42.224923460426794,45.63315135049072
0.16,-60.49526180299176,-52.72460217585578,-71.19553626235125,-33.07886186047614,-13.494533049599852,-0.49371431015697453,-42.92230169580114,45.843854689507
0.164,-61.064747135841,-52.28767071840406,-71.28390831237175,-34.17168987715388,-14.538294336141973,-2.5674671756377165,-43.64467125772586,45.3505442151918
0.168,-61.177035271913894,-51.726921802625185,-71.38269560968251,-35.6533162412926,-16.516672116687573,-4.829684464842785,-44.79121033670691,43.756512670327425
0.17200000000000001,-61.55964090465079,-51.30751035171431,-71.90142893262015,-37.71821687366895,-19.348916183826077,-6.807227993857509,-46.622428672854426,41.020078149243886
0.176,-62.68665317069684,-51.15364839298485,-72.98525049132559,-40.27780042982994,-22.636985416721416,-8.013346011459703,-48.939572911566074,37.56646937157524
0.18,-64.41766117280363,-51.17045636139488,-74.36069030830055,-42.86539933887809,-25.71465582370257,-8.197115420057457,-51.08491700510041,34.23911953693937
0.184,-65.96470346475354,-51.057465109046746,-75.37699901746834,-44.70757202438864,-27.81857406329044,-7.47169765758747,-52.19196483189012,32.035396552180146
0.188,-66.26636503078532,-50.45097854181387,-75.30456777736856,-45.023110704824035,-28.37350067043775,-6.296558516621644,-51.59452973852649,31.68732137073448
0.192,-64.6053940747151,-49.15758294529036,-73.76368021291216,-43.44317274141662,-27.284837777176108,-5.318706324170648,-49.199083340671336,33.27333818114312
0.196,-61.09681289134727,-47.32480272898505,-70.9952511644587,-40.29386712005817,-25.037769216527522,-5.104663308766817,-45.58185920002347,36.10636140592669
0.2,-56.78340180069347,-45.46895377110212,-67.85880679051309,-36.5974163201102,-22.55757126797971,-5.929158652670594,-41.77788624572315,38.96042718404806
0.20400000000000001,-53.177754493256884,-44.25949920364138,-65.40296166808298,-33.672111887819995,-20.827739473534052,-7.666775262771921,-38.815511279127236,40.51089872708678
0.20800000000000002,-51.51780153040522,-44.17439125198132,-64.29618359101357,-32.53283531869852,-20.44017740240804,-9.84168389567435,-37.26813251826229,39.84906710317921
0.212,-52.1870384978572,-45.25264573103652,-64.49690606101478,-33.4281453394176,-21.325955164327524,-11.817293961798214,-37.07457384851534,36.85170658271318
0.216,-54.58823746800863,-47.06018491405973,-65.32445641282732,-35.74259913197119,-22.792133160774142,-13.026685167391406,-37.7042549447134,32.234978697827955
0.22,-57.498981842115995,-48.864316152008655,-65.88215995061364,-38.31273675072919,-23.854910088773522,-13.169296303949977,-38.51173514572349,27.2853175772251
0.224,-59.62371778576784,-49.89018412690024,-65.4776825841825,-39.93153617133703,-23.695512794517185,-12.267577906623501,-39.00154275497755,23.31898178192239
0.228,-60.13188217227804,-49.615010646587734,-63.92587856404907,-39.86408661280632,-22.045930108535686,-10.62811763225693,-38.946929969670464,21.153428367721403
0.232,-58.97960673415713,-48.02180155303091,-61.64074529450636,-38.171821381229506,-19.33684107609031,-8.7505931814635,-38.36780026331917,20.83486289862492
0.23600000000000002,-56.814017844435,-45.64130255282015,-59.383552652118055,-35.649745790792394,-16.52227156197489,-7.179392026018149,-37.39793791443162,21.672276584658675
0.24,-54.601345685977094,-43.39860491393932,-57.89549472048691,-33.474726916193504,-14.699033825079596,-6.368145795448299,-36.199804391063935,22.557680171913944
0.244,-53.23278652116795,-42.3469529207631,-57.64440391834944,-32.762507063311546,-14.703798719194765,-6.580140754020249,-34.98963334236896,22.4303020074841
0.248,-53.24087914047084,-43.33604557332876,-58.75166812224245,-34.199420125789516,-16.855015939837926,-7.855430999800774,-34.093370026238404,20.661935936555324
0.252,-54.62104050487011,-46.63689273239788,-60.974610836676334,-37.78456217894427,-20.85176743240288,-9.997646022811523,-33.849810468116175,17.25573170528412
0.256,-56.807806415171456,-51.689841284643876,-63.72279805728624,-42.75412077139322,-25.81742280422054,-12.56530503474346,-34.37694364681886,12.855876708160167
0.26,-58.92330773671506,-57.2256553093963,-66.24590720513834,-47.82016360348723,-30.537659364870933,-14.976287870399801,-35.42891624582762,8.57927837696559
0.264,-60.14971841930691,-61.70640660932679,-67.87639199149896,-51.59078079214066,-33.7826527053428,-16.685305869052854,-36.43705597900919,5.733910493855319
0.268,-60.02027454161686,-63.87303976885005,-68.19190383537773,-53.0079311918679,-34.62538450002796,-17.362732975507697,-36.72211481823945,5.424908050985437
0.272,-58.51067946442532,-63.16870379581894,-67.04217402455902,-51.66072352831384,-32.71137528746067,-17.023642553446507,-35.80864727599385,8.08466899875998
0.276,-55.94900887246558,-59.880690252085856,-64.4869648636843,-47.88964286170585,-28.41201130068771,-16.03532727353104,-33.69283143498046,13.123133032184
0.28,-52.900750958710375,-55.02609771188543,-60.82541981185818,-42.71897403561502,-22.825578060229986,-14.997053012214565,-30.962293901151156,18.940913965641926
0.28400000000000003,-50.08277014091618,-50.02024096589457,-56.67212251320245,-37.597654938531264,-17.543835250034704,-14.509534689975453,-28.6670435785843,23.413856403970044
0.28800000000000003,-48.239192614757485,-46.20504150050965,-52.92349411974931,-33.972770955915735,-14.185124446710006,-14.935474800142856,-27.92059002157157,24.672013371575304
0.292,-47.9014759365769,-44.35059341841338,-50.46745967822733,-32.776046953859236,-13.79774100948805,-16.254559194047033,-29.33815015649361,21.84516947605448
0.296,-49.12858041419395,-44.351470132287204,-49.76040548173023,-34.03885830502759,-16.386985208971282,-18.075608734858633,-32.64134777715299,15.437888258174098
0.3,-51.42840601588233,-45.30704061359381,-50.58275665530732,-36.8828099474905,-20.832279449695307,-19.80762010834701,-36.71808920557055,7.190859438020425
0.304,-53.94232368556504,-45.97691207136393,-52.1280810253204,-39.93562316159603,-25.30409212343602,-20.91461544222716,-40.129421531972866,-0.5721222909708104
0.308,-55.79938422791986,-45.39514609116418,-53.396601401660746,-41.98391689758387,-28.044420097575994,-21.15402730360597,-41.8228279719292,-5.882326958245358
0.312,-56.420401132604866,-43.29448823598386,-53.63087232639509,-42.481581115676704,-28.11389935803095,-20.646474696774476,-41.59768227351242,-7.912226033188972
0.316,-55.66525420857113,-40.163057321163365,-52.5861910456988,-41.67341951957053,-25.74441750667279,-19.75333808268215,-40.088096921747365,-7.238455636397475
0.32,-53.85770854077816,-36.99617163025357,-50.62623956817515,-40.35275071518254,-22.17281516210221,-18.87296050910254,-38.38177550618161,-5.439669957072965
0.324,-51.67141703174593,-34.851426911715635,-48.567396228787175,-39.37074505890973,-19.018927922455305,-18.251990324377402,-37.47039999588105,-4.231923569573155
0.328,-49.89033302604571,-34.39052509726082,-47.31355348273746,-39.155468609904915,-17.52699079721981,-17.911374368941324,-37.802817460597,-4.617517032965452
0.332,-49.0792226327502,-35.5747961410666,-47.40502293615987,-39.47030595376441,-18.045634283129857,-17.698307787175736,-39.1470006774548,-6.5064287882578355
0.336,-49.317548738963524,-37.66964890273516,-48.71840706653347,-39.5519653456405,-19.989163843241045,-17.423466831850874,-40.82503653945787,-8.964603912389748
0.34,-50.19899350230503,-39.619120933042836,-50.563409690726075,-38.60499578635245,-22.273499672457547,-16.99593012716582,-42.166905051590675,-10.836888281898155
0.34400000000000003,-51.08289428603314,-40.59049258345874,-52.08350322663864,-36.34587586015721,-23.930046165376552,-16.45462859856343,-42.88570754227521,-11.354105123128875
0.34800000000000003,-51.41235517494124,-40.35805184923208,-52.67208155512367,-33.2394033038222,-24.52247584961401,-15.886868122052647,-43.117033705505946,-10.419410968152079
0.352,-50.912168474808766,-39.306720481048956,-52.13333595717177,-30.264098474292723,-24.165596283426567,-15.297989886129699,-43.08180590233371,-8.498385685044127
0.356,-49.60237332053816,-38.08567301235473,-50.553432570258565,-28.345403081416293,-23.212645546584326,-14.538574533366273,-42.67479852115116,-6.252124925328644
0.36,-47.729402397216745,-37.17822808960432,-48.1225968219278,-27.841704003438508,-21.896924058890136,-13.37783189038555,-41.35128335944205,-4.143426451789992
0.364,-45.67524037036037,-36.64320254828385,-45.05472420238789,-28.381062647749104,-20.180731697039164,-11.686115910648596,-38.45884851491769,-2.2476496503491035
0.368,-43.84102277263787,-36.14184251226209,-41.639109125639834,-29.11035056052424,-17.901641202345672,-9.603415940870718,-33.827207542343785,-0.3594350227435825
0.372,-42.4814242748098,-35.16284646260567,-38.28517166782558,-29.16209538924079,-15.050735747199951,-7.561233989412585,-28.16510627935736,1.7036991030192894
0.376,-41.55154325834212,-33.29759203476351,-35.45373749246846,-28.049768911426327,-11.930845061860282,-6.093962024142002,-22.939401752209278,3.8701653401001295
0.38,-40.71579447422687,-30.476132657814333,-33.552380701817356,-25.838429886779977,-9.08406922085328,-5.547214513335348,-19.747986591533845,5.851942375496037
0.384,-39.525268590375276,-27.031200032544348,-32.787500170870544,-23.007896510811406,-6.995529396287793,-5.828452781128817,-19.48605349442596,7.422429491680305
0.388,-37.673396474410424,-23.554645957033472,-33.04664056535694,-20.127602845587944,-5.781418478161413,-6.370342931180858,-21.789718297399986,8.68361926825446
0.392,-35.17052066338704,-20.61591647781131,-33.872748765679034,-17.540109770112167,-5.089133612535306,-6.3651999392930065,-25.082697061475073,10.084224014151687
0.396,-32.34512773417748,-18.49782562464179,-34.57387331889049,-15.233203785279557,-4.295907587549209,-5.1636756669304305,-27.283988426362612,12.135073788423597
0.4,-29.72621169198851,-17.12801531418131,-34.524438240715426,-13.001264558020921,-2.922945420599717,-2.633452370429495,-26.84833965250209,15.028615038716907
0.404,-27.8408092072375,-16.205811495734224,-33.478793176895806,-10.738990240679868,-0.9739049880038237,0.7467892860436223,-23.55560779939401,18.45832436982323
0.40800000000000003,-26.95547143212491,-15.374940533230074,-31.657278819510793,-8.611784188693946,1.0541958351595895,4.145816150493829,-18.551825538729418,21.783452972552823
0.41200000000000003,-26.839380410192916,-14.30136858832418,-29.479956657460434,-6.951871684260368,2.5395245357042313,6.845647784903576,-13.581231855941951,24.43228036583605
0.41600000000000004,-26.725002719986605,-12.668484278610777,-27.139975815460957,-5.964539125390729,3.2398791726711806,8.65127830639949,-9.885928540960776,26.302523613645462
0.42,-25.631557298263488,-10.242637592692972,-24.434508071474283,-5.54010605196072,3.538221344378371,9.946379367167992,-7.518553148184765,27.887051057386998
0.424,-22.94767631512684,-7.067352500209154,-21.013218679687498,-5.355697265038316,4.210619339097775,11.342373165546178,-5.543206959746385,29.9500783691617
0.428,-18.931627462325196,-3.6675276411310733,-16.874818313013293,-5.201340745879179,5.843271914632396,13.121497952123718,-2.952466477601547,32.92578824889324
0.432,-14.792096550013753,-1.0740822870507145,-12.73640776515981,-5.289987695502305,8.26072386164742,14.836893398073698,0.32661605161547413,36.37324589297191
0.436,-12.244681687023558,-0.5643276390615029,-9.977552500413367,-6.310377247110637,10.35290649369449,15.35416815939152,3.0117669321666654,38.83945034164276
0.44,-12.751098237455153,-3.1735684218831466,-10.130761594662545,-9.128717373719155,10.496084734632404,13.388428556566396,2.973191020094191,38.40570045743107
0.444,-16.77447005480144,-9.129485408441042,-14.080720603734335,-14.207053778317459,7.432246102398494,8.315228268816554,-1.5116325701169444,33.747440569132095
0.448,-23.40523733854843,-17.48437328823843,-21.392729225015955,-21.06109939192629,1.1096016480455546,0.7708782960808094,-10.479553251996549,25.083330839588598
0.452,-30.541189152618927,-26.161550513524162,-30.1331364369903,-28.07937076263761,-6.982930954398853,-7.3245869286793095,-21.731049760056294,14.4702120337829
0.456,-35.58964698187674,-32.49565226433742,-37.37091076210913,-32.892975097991666,-14.225005443465307,-13.396245662120691,-31.422337009036255,5.208684579418332
0.46,-36.48855403333528,-34.1848400270876,-40.314352335180956,-33.284061918945326,-17.928039216884144,-15.279068238805394,-35.684041367265536,0.5507064344981245
0.464,-32.57180338347439,-30.235681940061795,-37.53003060642095,-28.206066639096207,-16.517131326889057,-12.170068838056977,-32.43943006952418,2.324106061985276
0.468,-24.835845456449647,-21.423876212141522,-29.611385698270624,-18.3736167553825,-10.218633106027028,-4.969210190358353,-22.42609852160217,10.147058279237172
0.47200000000000003,-15.445088662435637,-9.995257362152643,-18.898576769119927,-6.073854393967622,-0.9075465605953923,4.1493990930493965,-8.856119009336226,21.580133403730542
0.47600000000000003,-6.749216801773173,1.2447371785863197,-8.394550468251055,5.7312351035216125,8.763219654828163,12.693729726352558,4.0714056654314845,33.12081016727802
0.48,-0.3703949561910349,9.966551283065883,-0.5194765284713867,14.536556152798312,16.471022517157735,18.834799426939753,13.005870792995893,41.62245603403039
0.484,3.221661070045002,15.0074968491449,3.7066711538427626,19.135780848600234,21.032737621904516,21.938426760440052,16.71154334316384,45.47999181364571
0.488,4.513750070732499,16.448070094102604,4.708346148001738,19.797411807848903,22.55840755742929,22.43662447041288,16.17477862241526,45.01937853516483
0.492,4.3819291583346285,15.194212289149618,3.7805345320491597,17.80912364561027,22.02853473373034,21.24163589437194,13.71029576938031,42.00266356728389
0.496,3.5374690976428838,12.387668178414742,2.315787411741212,14.710150883622191,20.63484183325818,19.117377673775536,11.657986944008371,38.577977953986874
0.5,2.242966375148626,8.937089179674444,1.1875849814732646,11.590246815100954,19.24886687981075,16.359235804280615,11.352540381980361,36.26816240102107
0.504,0.40815417907970186,5.368471865836,0.5740776239204024,8.79741768548729,18.259533319414686,12.94536264613771,12.824426992629014,35.49098705334495
0.508,-2.053261778269075,1.9804289794665237,0.22403450052388507,6.114573047351541,17.732656870381334,8.934392621038114,15.213744903666793,35.69109875328331
0.512,-4.868131231675193,-0.8912908144958465,-0.07002985269309647,3.231081603226812,17.67233637759159,4.763818596532474,17.54611001850617,35.875383467258416
0.516,-7.329164974393848,-2.7687537630991983,-0.14505355773053452,0.17254834241180106,18.14795125682849,1.230555495365934,19.325461829019105,35.202313469273804
0.52,-8.623806390249456,-3.2327260038421173,0.4340444585197929,-2.611128956308221,19.183082863577965,-0.8865646006483985,20.575655881063312,33.33678106178786
0.524,-8.340215304269577,-2.2679903305748894,1.9768113712805189,-4.482169451056052,20.55994359075362,-1.2706189325776904,21.482658638510657,30.48655969850097
0.528,-6.784542652922141,-0.46036829074535035,4.289493022482702,-4.9701791576112555,21.754585966848254,-0.2743349128002137,21.974063514031513,27.18972021169452
0.532,-4.8263822946343,1.2102948386027492,6.669954433349858,-3.9629211519429646,22.16735158270444,1.2918178637773963,21.641793448224007,24.057563371876086
0.536,-3.340444078410087,1.9227375389514236,8.315601219738028,-1.6215420723065108,21.549006398225856,2.6691168742138416,20.092161945896123,21.63597142215599
0.54,-2.664190326525386,1.521154889487093,8.779912187847003,1.8071277231797467,20.27237502914113,3.5907527225399463,17.38241251893851,20.369397778062194
0.544,-2.41101522238489,0.6580754462115692,8.208797705913867,6.113888476333614,19.239527762988928,4.382629353056245,14.207138049427613,20.58733177664658
0.548,-1.7760873513880142,0.4417968262333716,7.194254172295359,11.057128364261075,19.389761296811002,5.64509252444077,11.656296083546067,22.393813972048065
0.552,-0.12146685300331228,1.7795034094326638,6.361476986907064,16.190630886787176,21.071894247200362,7.719978084076047,10.645203755631428,25.477710173963942
0.556,2.5614477829709585,4.821772451005131,6.002079220656242,20.79469078900297,23.70344659835473,10.310772624402716,11.390406663399972,29.002357835040357
0.56,5.564334244680822,8.796349910250456,5.917878715439201,23.991235891226665,25.94208239033378,12.527106438816418,13.239277797317982,31.746726881682207
0.5640000000000001,7.831570754889185,12.351573321697629,5.590420531977088,25.068914567208935,26.34501949889932,13.370626586515755,15.006452109473003,32.55312045423125
0.5680000000000001,8.59551936439459,14.238812191661054,4.5761457675480415,23.87563804548097,24.189175760059243,12.328370174364181,15.62125707989344,30.901313423647935
0.5720000000000001,7.885397992246681,13.957332973308326,2.894429339819908,21.02198647663488,19.975239954062545,9.713309190084374,14.73652965682686,27.254543742821852
0.5760000000000001,6.571233198578625,11.995488237411905,1.1494877704067221,17.713285483320078,15.290962155379702,6.54562506302841,12.956517109328388,22.939024199004507
0.58,5.843175133803811,9.497725793585914,0.2259192766750857,15.211177583361177,12.053884624847115,4.010472589638994,11.47386164546765,19.5885203269695
0.584,6.43758199751494,7.576968953577534,0.7587399346396069,14.213735258570523,11.548191540264156,2.8341876831316313,11.333710059253235,18.397794075055117
0.588,8.126662529347982,6.71995458794197,2.729220083734617,14.530725808068382,13.803446087430189,2.9557748940146666,12.826204751584555,19.58342789765743
0.592,9.834398214291014,6.64325286965277,5.460700953130072,15.271706288144628,17.651168185211418,3.6705571126303767,15.350481129453101,22.306662045784833
0.596,10.336980323527428,6.646063653810074,8.02254247445262,15.455365642459356,21.40557974903163,4.127417999865884,17.815881759737977,25.097133754336937
0.6,9.079056888431069,6.163561245747928,9.732103594571981,14.633602115180906,23.752248239853998,3.8547849550952833,19.282134757418135,26.568702322093714
0.604,6.564705192934923,5.125497286188647,10.430592747198489,13.12773621839085,24.311448123404034,2.9858094145836276,19.39752509406685,26.010161729583615
0.608,4.0635146655337735,3.907519462891969,10.390504619888475,11.73685982578877,23.58631013929937,2.064519403604436,18.421409628135507,23.560338991433127
0.612,2.8245981254240746,2.962765584694239,9.97534486162408,11.129530944154112,22.393665054872486,1.6032752136497948,16.861959983878933,19.92851434443378
0.616,3.2884162694965653,2.4348574826873346,9.330594881151796,11.342776408708687,21.19822119747164,1.7249638303951542,14.99825730927978,15.8889508847476
0.62,4.740683134241976,2.0085273979916565,8.258147076155865,11.684993771265113,19.76349470998059,2.107805642643143,12.621693762545874,11.893391990418877
0.624,5.652543430114974,1.117356646342273,6.378464509207333,11.14096935601151,17.348784136763356,2.235527022722863,9.185042163319622,8.02047861791982
0.628,4.532372691843136,-0.6285677182099789,3.4582467844420535,9.032662142514596,13.304285702504558,1.7772679413305923,4.265126832254964,4.21892987539286
0.632,0.827783055566158,-3.067615471237673,-0.2993847661707605,5.536351123952386,7.680757737905537,0.8338737001640766,-1.9461324642790032,0.6035336161290843
0.636,-4.664077215882742,-5.453200275040899,-4.2128796794359005,1.7057515141830208,1.4321374903925062,-0.12130741059604588,-8.48987370674081,-2.4825039733084395
0.64,-10.151035098939587,-6.839365492150705,-7.421367073741862,-1.0708398745566683,-3.9533947737696735,-0.5792408528341184,-13.990683209670692,-4.6795667677901065
0.644,-13.770212980598899,-6.656171731893323,-9.332040731725783,-1.8446125749159137,-7.173735313383986,-0.3314604492493345,-17.340543301403613,-5.914075464550933
0.648,-14.55928015797474,-5.124210932052733,-9.954127238660249,-0.6623843077539959,-7.791947720405233,0.37860900820328425,-18.318880810667565,-6.571162209067893
0.652,-12.887932839276857,-3.192164037592761,-9.859811408887367,1.464824907218258,-6.453998493674817,0.9752465964454586,-17.7509190005826,-7.370829740084787
0.656,-10.135008262492022,-2.011788157802357,-9.780758574886931,3.168164886336058,-4.519899896527704,0.8819689940489752,-17.061359195203067,-8.986260829800244
0.66,-7.894344040238366,-2.313143380102588,-10.176955785039809,3.471899300277869,-3.3662731522334752,-0.18614599858483416,-17.51428783761844,-11.645807494061387
0.664,-7.1725407272401185,-4.031265452297248,-11.015631001960855,2.25870229475413,-3.732452097973237,-2.1284733003672045,-19.564566278352686,-14.968944030103785
0.668,-8.025463522542793,-6.418873315629185,-11.910446450621976,0.17930910667382705,-5.480589541085351,-4.6018404131355055,-22.660630207918985,-18.177143869041174
0.672,-9.754575597887651,-8.543169868001996,-12.483099423164617,-1.8887858717079098,-7.844931689874215,-7.272357024246276,-25.59057194953516,-20.582413436662705
0.676,-11.444079650494302,-9.831914382334332,-12.662621062148446,-3.440432264002311,-9.953477997321443,-9.993747157216603,-27.14500301806993,-22.041009495232743
0.68,-12.526809123784801,-10.383534715772953,-12.789761269898577,-4.6528021371706245,-11.339465746760425,-12.806158995879287,-26.76839172594248,-23.04987076615828
0.684,-13.037205064793682,-10.859275438365444,-13.436153053579687,-6.203603294945879,-12.14835420410293,-15.756573470500143,-24.860951280744075,-24.387456735805472
0.6880000000000001,-13.460333538294094,-12.055510336851569,-15.068197106118077,-8.756941797407649,-12.972609042235945,-18.716637687898583,-22.59294950046592,-26.545291015377643
0.6920000000000001,-14.32086508434628,-14.422510000596333,-17.754275009430103,-12.469065601688271,-14.466098165540302,-21.346083921413083,-21.34696978250463,-29.348657287807214
0.6960000000000001,-15.750124279551926,-17.75841314282377,-21.0337012715039,-16.78555704792859,-16.932731862725632,-23.19940024765424,-22.036221063250878,-32.012542139405696
0.7000000000000001,-17.33927908562498,-21.267929598319256,-24.08443013360045,-20.69129726179699,-20.121226304470156,-23.92792054774202,-24.667105136198757,-33.60552265550393
0.704,-18.400039721057794,-23.982353336004678,-26.12775830945634,-23.285064690923377,-23.357450038360867,-23.47560252590506,-28.377176075432885,-33.683531743818094
0.708,-18.4199025714168,-25.257110400468434,-26.816113278154603,-24.294909271951724,-25.8907850164843,-22.142380302861056,-31.871835101152328,-32.68246025025837
0.712,-17.393678318173727,-25.049070681797787,-26.36448902436348,-24.19212808645085,-27.241938291370843,-20.46467062736224,-34.00391557886246,-31.802395416261334
0.716,-15.835371503997578,-23.856073439144268,-25.368927726735137,-23.84414477851027,-27.388444092441773,-18.96754753258756,-34.2200935610166,-32.417820510140245
0.72,-14.526577265645358,-22.438438997537673,-24.50870563208207,-23.975073366025185,-26.75600816605902,-17.959827698985464,-32.769447441078796,-35.331226706717075
0.724,-14.122470296833,-21.46186147935532,-24.24825579101673,-24.736853473883343,-26.00727696216552,-17.449160712016578,-30.566842840323375,-40.2679193775723
0.728,-14.826363602584252,-21.23027274654561,-24.67934335108771,-25.62963511012083,-25.73099409308236,-17.19480885307405,-28.79203498746756,-45.903148018575166
0.732,-16.278523304818577,-21.59868912722669,-25.52080816348837,-25.789352518820067,-26.165159026620813,-16.862021464546046,-28.376568167781443,-50.44242267879088
0.736,-17.69641842134172,-22.064517846391368,-26.221927698014497,-24.45853101255534,-27.080827478086235,-16.204431623350956,-29.588811150562606,-52.47726076698052
0.74,-18.226541426444896,-21.99990176801947,-26.17679425483948,-21.40746437355142,-27.89523637261675,-15.21265431910399,-31.92590191009333,-51.64554114831458
0.744,-17.335412302890177,-20.908072824004364,-24.94499262953741,-17.068059653841033,-27.940686636571684,-14.140905414085978,-34.35692329674703,-48.736450712878764
0.748,-15.077080823989377,-18.62147642507051,-22.427824326338737,-12.364683093773692,-26.787787840514397,-13.41244874466065,-35.79757979915121,-45.23700833741998
0.752,-12.121736503946295,-15.385355550161933,-18.945383025472097,-8.370977941191938,-24.492665382077746,-13.45245153797623,-35.61356498170289,-42.60575784750165
0.756,-9.4987845034143,-11.765684918649185,-15.130174148971605,-5.927039578156155,-21.597676458734384,-14.472585283615217,-33.87598838833992,-41.61867222214926
0.76,-8.204999359879594,-8.462073432703164,-11.74059857718862,-5.423241744090319,-18.90464190852873,-16.33116246570694,-31.26642240451463,-42.109835874432406
0.764,-8.839728335641666,-6.099594522555776,-9.442461764532027,-6.790960925055913,-17.132619081868313,-18.53446824279797,-28.72978167677877,-43.20417491386377
0.768,-11.392004218394788,-5.059436719916334,-8.62353269067603,-9.627148631816794,-16.619598108169782,-20.40847798970526,-27.022754852458093,-43.85750661297902
0.772,-15.253824411105654,-5.407790085357021,-9.303654247148415,-13.357451469228522,-17.22220048633494,-21.395202424518402,-26.38983343768723,-43.41412850870756
0.776,-19.40484125412138,-6.901216638249764,-11.122527014335503,-17.324740115835425,-18.433923094915713,-21.283903264227888,-26.507945315707502,-41.88016299935009
0.78,-22.71071725997942,-9.066051049496423,-13.451223162910537,-20.831284948736254,-19.655861495158945,-20.28580910376718,-26.730654548174698,-39.78805545796854
0.784,-24.245272697535512,-11.318850130223723,-15.569483303040386,-23.189647193092014,-20.452954088116485,-18.895963376295413,-26.475978202736542,-37.77055729716096
0.788,-23.55828948495511,-13.108502897917731,-16.870070633841863,-23.85356702055543,-20.68612097689021,-17.6024846559053,-25.535927564523035,-36.126634830807234
0.792,-20.770074750170323,-14.009469068350995,-16.98702365009717,-22.574768742657795,-20.449182594745594,-16.59696061615091,-24.13168900377309,-34.63952258753807
0.796,-16.4884670202334,-13.778656284326473,-15.823343166978361,-19.528419649668763,-19.903688280867243,-15.657321527092904,-22.7021827776328,-32.774030391087024
0.8,-11.632393889917495,-12.430752371265328,-13.564230818208273,-15.359324514467687,-19.162919901639953,-14.321132997959808,-21.606644322647185,-30.104947542961725
0.804,-7.188767827734125,-10.279901469746221,-10.642586177890905,-11.043431479403523,-18.265510136417276,-12.218749963355663,-20.91289172056412,-26.69094104550618
0.808,-3.947630999343005,-7.895894655577479,-7.647389541550467,-7.587038677148257,-17.2330857629388,-9.396257273182187,-20.36417946129677,-23.14339612556887
0.812,-2.2701941860365196,-5.936222846131955,-5.1673706358531035,-5.657443389473087,-16.131474676128846,-6.407877058233794,-19.56091588819686,-20.328551879026406
0.8160000000000001,-1.946800287011257,-4.865435786832052,-3.561988416642066,-5.294267349296433,-15.039134875913078,-4.089915678045827,-18.202433779102535,-18.877041130775638
0.8200000000000001,-2.261773902043956,-4.720767710579537,-2.8122798091763457,-5.888174355066553,-13.949652620493907,-3.1458503165719094,-16.281311995978285,-18.782400168352694
0.8240000000000001,-2.2861963150815825,-5.068089905510135,-2.5415154946744565,-6.4626427958293675,-12.70027923162371,-3.7617669444846342,-14.129890022405618,-19.338033929149844
0.8280000000000001,-1.3209637244217447,-5.2202269724649,-2.237504260791127,-6.165443285949323,-11.03098563131249,-5.496430959651548,-12.304843625917272,-19.48653103221966
0.8320000000000001,0.7147901154557701,-4.626491729571626,-1.5628136488692235,-4.713199685972597,-8.77102447688867,-7.489448127863511,-11.36567179258401,-18.38631320520261
0.836,3.180981349554145,-3.2167266286019185,-0.5632231504166043,-2.5406733315398355,-6.049001812681183,-8.865450512252664,-11.610683578080284,-15.860594737547672
0.84,4.983356565102213,-1.5008891087306893,0.3365894383393879,-0.5807275593388113,-3.375385072349502,-9.141861327224547,-12.90152758564875,-12.4603800773927
0.844,5.114804631639458,-0.32914462204109896,0.5874619842629158,0.23755287676817716,-1.4806056425472889,-8.410456738229755,-14.659247452674663,-9.11950118648275
0.848,3.216674079222571,-0.41771105547786647,-0.12301434489768326,-0.4972568959614705,-0.9546466843489156,-7.226067271285501,-16.04760635994944,-6.602867250695965
0.852,-0.13590170644775412,-1.8962822464780515,-1.617567438284766,-2.4283182339987093,-1.8850896572805027,-6.289641477754913,-16.29133073499321,-5.095909049548936
0.856,-3.599364898288826,-4.140155011197919,-3.232100870879833,-4.587936282934777,-3.723148976734308,-6.104884114083006,-15.016679964931825,-4.224297631074023
0.86,-5.665865243738409,-6.0358447530984165,-4.155393811922465,-5.910512388288055,-5.512304597766843,-6.787634890693653,-12.475688423334702,-3.4385924251488973
0.864,-5.422352997278409,-6.5668438280213195,-3.926543186634717,-5.818653624693525,-6.390749104592089,-8.068662787882317,-9.52358695526442,-2.49080813027399
0.868,-3.054653046492035,-5.391326020766172,-2.795016963082219,-4.567561634049071,-6.0939058073848855,-9.447447417736896,-7.335049991213111,-1.6862538681607475
0.872,0.2092665884660505,-3.0530531763019724,-1.6700983837513945,-3.128979079160956,-5.136259139883862,-10.370284950675455,-6.904236463489667,-1.6988244755015671
0.876,2.723784094628627,-0.6746114810918584,-1.6074977728585509,-2.6452701372442107,-4.520561887891006,-10.356673342403724,-8.522929181723612,-3.058663711745851
0.88,3.2588097590093525,0.6619487721517601,-3.1788122774123053,-3.804985303903919,-5.163926458786648,-9.131222276990002,-11.586974166427183,-5.695754379884534
0.884,1.6123872079528212,0.5107921609093751,-6.0555627546355595,-6.464965065994022,-7.334322519739942,-6.720605599340786,-14.82922005614887,-8.837393323325216
0.888,-1.3265640104814338,-0.7036071570462639,-9.075864009634756,-9.710280864339836,-10.41373294307283,-3.495605760696492,-16.88431214678451,-11.330931814685187
0.892,-4.0733124032648504,-1.939136599111464,-10.797961678740876,-12.309793262876951,-13.15165101253632,-0.14506062066874392,-16.930178606413733,-12.276428543003249
0.896,-5.306647250573491,-2.1188969655952974,-10.234269400595792,-13.295711934860378,-14.268111526634073,2.4997974032351067,-15.071190854647512,-11.566466120985922
0.9,-4.4932411031361426,-0.7082282110889082,-7.378297809337994,-12.366206560086027,-13.065486156689815,3.7807718682840914,-12.236315941182681,-9.963346028244587
0.904,-2.049548144316134,2.039231748198631,-3.2152658548841373,-9.911931663683788,-9.720292947918608,3.539879044894178,-9.667040027325072,-8.674616082117495
0.908,0.9764366402577025,5.259119330705289,0.7571775207508722,-6.7284077537632925,-5.145291747715191,2.272739287437389,-8.299532672453893,-8.677883342708355
0.912,3.49307543280446,7.953600482993409,3.2463415590566456,-3.6098277059783186,-0.515323801245188,0.9666205826326859,-8.348096374593524,-10.189979538374644
0.916,4.902942650134406,9.49811323191318,3.7712296703292623,-1.0326094574693911,3.275841529945751,0.6605935888576369,-9.290691966001077,-12.588608623152368
0.92,5.279156892829633,9.862577169233873,2.78447160366602,0.8840963701478017,5.896727821252512,1.8920792908622843,-10.281203683037006,-14.840436902315219
0.924,5.151952703976633,9.477387842479288,1.3066681526604498,2.2104571482901747,7.520025085869804,4.381537762292737,-10.66027329987719,-16.09669997002368
0.928,5.079704664679696,8.877080641999214,0.30791331220166285,2.9765077295536457,8.520415279370127,7.126285038154151,-10.253903812961767,-16.084382904730546
0.932,5.27368582477726,8.349862944432402,0.18565021516428715,3.0361976869984915,9.133306724147701,8.871635503194966,-9.322333063454835,-15.10374858092473
0.936,5.5136573918954355,7.828314875188653,0.6623390148461112,2.143222719410346,9.318819200354483,8.747410133294693,-8.195727883988638,-13.663869959584872
0.9400000000000001,5.3363501418574515,7.03826147597124,1.0805622390680583,0.13342828598979395,8.864509969204619,6.6900840381149465,-6.903534446359117,-12.0632378567268
0.9440000000000001,4.346534820315981,5.771602191070485,0.8884232988599479,-2.910039865461954,7.629048582330029,3.441702290388548,-5.081211253959054,-10.206023719792029
0.9480000000000001,2.4494518196373747,4.081262900494153,-0.010107147306257502,-6.619733766002355,5.741651136660153,0.1387771853655977,-2.238978402555176,-7.753352949134751
0.9520000000000001,-0.10743554778088082,2.2814514719368617,-1.2331883729211768,-10.461387267605573,3.61043607198053,-2.2802342624386256,1.7518008756821928,-4.508803354900579
0.9560000000000001,-2.8236957337096555,0.8106426751460276,-2.1573963115180277,-13.883248059008224,1.7796793782883924,-3.4808144088906374,6.353928010115396,-0.7260244918513763
0.96,-5.134084118788451,0.012124695913371397,-2.3095869788737673,-16.462351264427753,0.6857559180962198,-3.745465210842667,10.443875247766073,2.8946177769526003
0.964,-6.585655971087363,-0.02586478225623523,-1.6542928047756504,-17.983789336551467,0.46895629845653275,-3.6449561980330145,12.77692512258659,5.5359489783493245
0.968,-6.926853701837388,0.5262984319167572,-0.609409353221281,-18.4261059281273,0.9551024222348588,-3.593363124375628,12.610275247866866,6.730050674296649
0.972,-6.117843897324178,1.3586159933613544,0.1931784983671605,-17.896901346709456,1.783252651544899,-3.5930004056790494,10.10347200462229,6.613208021366518
0.976,-4.257352610215435,2.224306859905596,0.31679435293631286,-16.52341452431176,2.634683757711855,-3.3059349021450544,6.301434626123864,5.815909829470684
0.98,-1.5011243899311921,3.0941541652283604,-0.17921637964536785,-14.356358424297923,3.425198317840227,-2.353954142370867,2.689724915503575,5.0865696965147436
0.984,1.9749619762988004,4.166308780138479,-0.7235358170235031,-11.335003289307224,4.34039312502091,-0.6164822033829296,0.523530472950597,4.857248861667358
0.988,5.964694204705438,5.732087500386683,-0.5217606676710602,-7.338805657030662,5.704498587270564,1.6791528181183821,0.2851781668937292,5.0464912639317845
0.992,10.192810797941547,7.977199126195046,1.009905263933888,-2.3330519947876383,7.7624645230228,4.1357757689888786,1.5633797692175904,5.213247989096999
0.996,14.266468860949203,10.803449378356845,3.892451201019412,3.4481580818362545,10.478182149184704,6.472544506674012,3.3645576514713866,4.9318250201665705
1.0,17.6562037420631,13.76571050034886,7.487821897077083,9.372305646813174,13.45506023784992,8.635785906205683,4.6545813245670615,4.132776137977544
1.004,19.75460828271639,16.18544676196791,10.751623424921036,14.450834578196464,16.053868297555255,10.682636362781068,4.866643555428254,3.196417379983359
1.008,20.006311245028428,17.378396896880986,12.679128707661675,17.574290342434097,17.63244740042228,12.503191830583546,4.10617017474442,2.7506864671395306
1.012,18.114450616292743,16.929383122334457,12.748664063509295,17.911433278215327,17.815344242749234,13.591620325390068,3.0022078546039666,3.3090763223374324
1.016,14.263202761724642,14.91628353459339,11.186244971529959,15.322346357569359,16.677682946821278,13.129301002600187,2.344957426737892,4.966957435606673
1.02,9.200327369394472,11.93629941628285,8.860059761663706,10.524896936080722,14.708789120669962,10.390951059755025,2.705810594437935,7.3328965174705445
1.024,4.078547581055318,8.889152857817635,6.854634477975651,4.88706481856525,12.560171695191457,5.270805007288345,4.177885605274241,9.711030923017006
1.028,0.05172896400586069,6.584344732444151,5.913592628579863,-0.11673209892433078,10.694169173220644,-1.4327812714964239,6.320576688824758,11.404615360009302
1.032,-2.1931352381366196,5.377932897399205,6.045224627182051,-3.514632199317475,9.137429362723879,-8.176018089992795,8.3495217222885,11.99209066874073
1.036,-2.700570057667619,5.058503642281266,6.547272126416601,-5.164586680190496,7.508289879762742,-13.234310382067633,9.488983327786627,11.446090943577474
1.04,-2.176311464824039,5.03077716971552,6.401569528613436,-5.646654851728272,5.290379434585702,-15.433005966380733,9.31312353303565,10.080206724350319
1.044,-1.5662793923909248,4.732482911607576,4.87490125931572,-5.750411250329307,2.252834775653355,-14.618321625025601,7.963670780164421,8.410020174583678
1.048,-1.5192047499476757,4.030956844826733,1.978683941411873,-5.889870941795834,-1.2489253829116933,-11.619475211049576,6.128738323660627,6.981628053735676
1.052,-2.0358397074410277,3.3434839829510565,-1.4778752074867043,-5.815969855280173,-4.305838918656036,-7.763756680884853,4.756313962875538,6.197699805664797
1.056,-2.4827070446476682,3.4001237157413016,-4.245371729238514,-4.794241929550026,-5.82819616423285,-4.2212492813278,4.625275855104974,6.1714189721651564
1.06,-1.99719054539446,4.751894042239883,-5.254766435672082,-2.167963362261162,-5.096364108287162,-1.5524694647392607,5.927026415154614,6.632303260464141
1.064,-0.026792716047111753,7.343013410200683,-4.117331059957678,2.0776613672480835,-2.1532873057428787,0.3499200495293735,8.109707608471126,6.961153383845158
1.068,3.319685537099758,10.427795748792505,-1.2507824677650206,7.1274070156823655,2.191997615065702,1.9511304034358545,10.12068035089942,6.416590271386212
1.072,7.311808665362605,12.916438245336622,2.4120910840151737,11.678850645449984,6.76403562746782,3.6404581566494016,10.945370041098613,4.512398911999298
1.076,11.020222310516147,14.004379815213724,5.989430484440618,14.65690934866825,10.627171261980493,5.478925808707572,10.226297393015557,1.373880905977785
1.08,13.839258785490529,13.691465048243344,9.10515218687624,15.847336044094845,13.520518102939604,7.220377349071896,8.589925161047631,-2.15032540079892
1.084,15.757078889162358,12.82846659707684,11.957864804554902,16.018548920355215,15.851105144611665,8.505749931720857,7.420360957434696,-4.79136501137782
1.088,17.156202256100187,12.579928949352052,14.924751583143006,16.376450677948924,18.211146550527246,9.035422041514266,8.091108064102627,-5.507745914165298
1.092,18.285968549181007,13.579215055955729,17.955400758717133,17.65618647268866,20.71443938067523,8.592821324651595,11.009622928923818,-4.159052141773373
1.096,18.80547370938325,15.298440208194734,20.214012016955166,19.417548354498194,22.591648133497984,6.918817899307214,15.054185081884953,-1.8250822207392048
1.1,17.755665119850164,16.078997441906722,20.260146724735023,20.025274595331894,22.36609135169192,3.625210199808862,17.798738586363015,-0.4659609080304108
1.104,14.082575633091665,13.921015857089515,16.773560298241136,17.4448775881267,18.615219167263604,-1.649233406390067,16.584024732626858,-1.9567563346045063
1.108,7.429512215429213,7.64631672538826,9.432026132905776,10.442140606880457,10.916008139374298,-8.865616726267035,9.955651661945012,-6.961030179521913
1.112,-1.2886996882043604,-2.191280592639032,-0.566490715305008,-0.4756086801453421,0.43194270418689484,-17.23371353235507,-1.2642752375750206,-14.262627157509542
1.116,-9.904264106923392,-13.163517229740364,-10.647364507178736,-12.89218887832385,-10.21926122701825,-25.11936403657728,-13.857032404289384,-20.998099280717724
1.12,-15.743409355466156,-21.793912412831332,-17.745906289247614,-23.293185011071728,-17.876680686747022,-30.444931413960603,-23.288610696251453,-23.822778684700097
1.124,-16.77758614986783,-25.00518822261347,-19.539782765329164,-28.485657389758217,-20.13024931666996,-31.47906293009828,-25.580546427426725,-20.497700749958312
1.1280000000000001,-12.593916863052527,-21.49747743951366,-15.454566013542262,-26.936603757705598,-16.37352837020262,-27.646607742627566,-19.116627147404415,-11.08361124491239
1.1320000000000001,-4.667615763383992,-12.374019499262886,-6.944758095364705,-19.381811124438627,-8.086559289172328,-19.923084944983202,-5.50629426078649,1.9069886457273242
1.1360000000000001,4.28413444894818,-0.655516211932536,3.1655348679860253,-8.389076714789553,1.8360142738356444,-10.506858546689728,11.011582136909965,14.548143512784463
1.1400000000000001,11.533947520148104,10.05701603653688,11.924255932863161,2.8400695567111143,10.366878536156491,-1.910449825411888,25.345107074676434,23.243479490871778
1.1440000000000001,15.529903440853332,17.11126912687132,17.481003996501386,11.808035532201757,15.617348615137871,4.085433394286156,33.67600413283617,26.292059051104843
1.1480000000000001,16.438126904270803,19.78730585739686,19.696923473868992,17.558098548996895,17.486191340503865,7.093360100928294,34.920255239023845,24.517139283749657
1.1520000000000001,15.784990655062302,19.29033874954166,19.86172026343047,20.653718292422127,17.391454364906622,8.030432496338108,30.82228620754904,20.63398180754848
1.156,15.478808532593803,17.880019713444653,19.791452186243077,22.47093318315774,17.31834971167291,8.384766575137292,24.776069919801103,17.734855521257032
1.16,16.750004103555057,17.61910983170401,20.774972318484288,24.238335996037677,18.681202799041785,9.262906419222418,20.01452240565368,17.69954654607818
1.164,19.568304217747027,19.39055997084506,22.940854484238116,26.36805024975638,21.603810800242627,10.779552358453657,18.118294203399728,20.367528091729582
1.168,22.802426329179298,22.617282540936685,25.308729580141062,28.359098620131135,24.93202392041485,12.099284834885111,18.5373191629742,23.851358833541326
1.172,24.952421546916412,25.73625434181895,26.43573905207677,29.231735167773877,26.92273095362316,12.075164894756199,19.28362425806972,25.75042517531756
1.176,24.99588218320514,27.098281505633622,25.281526249454146,28.182195354255327,26.204501072690164,10.071568259408195,18.303622320579052,24.54430367768373
1.18,22.881834703295453,25.785291281742047,21.77870995428475,25.052990051818597,22.47911022560038,6.45723214566442,14.721716767698126,20.394263106513336
1.184,19.465226202135,21.976509476132833,16.852081828759765,20.41275807753118,16.645320201771938,2.476228815009563,9.291727487214303,14.976074722560952
1.188,15.951096165770423,16.740557336644997,11.896289241476552,15.229668244264758,10.324487488599516,-0.44454537861838617,3.885901804266723,10.500185778639207
1.192,13.217478795513216,11.453246008746646,8.044995245254086,10.377161695138966,5.0977468630744625,-1.5206776410486782,0.38094943965279526,8.520980418968065
1.196,11.439319326002078,7.211834341524991,5.692451425907166,6.2867450168419055,1.8891144976614669,-1.0556114306427844,-0.34462011976029316,9.185461221235528
1.2,10.157247764606382,4.496556344863166,4.4651410758579,2.8830582055147715,0.7551358942491788,-0.27043554979354667,1.2165418435042739,11.272802103685535
1.204,8.700884581078299,3.185242635646773,3.63020025474907,-0.18882067563436067,1.130059711179456,-0.5802907206480086,3.6156626697347747,12.934701597781896
1.208,6.654649824100488,2.799800243270056,2.627741608874203,-3.224139037804889,2.2880030675878515,-2.7527953211347267,5.328093451282257,12.680762697030332
1.212,4.082852721921427,2.790686028185519,1.3897122925918666,-6.216398347366976,3.7148482175653044,-6.4288289915675705,5.5421495333057464,10.077084291897336
1.216,1.4324372194059833,2.725500689528417,0.30390031678325613,-8.819746947160183,5.212690786558596,-10.274012388808842,4.445445807669785,5.823537293747904
1.22,-0.7781871337260782,2.349629639624709,-0.12539863343590696,-10.517304226662873,6.74648756274928,-12.68236078985592,2.900746654455361,1.276122363577997
1.224,-2.254173435489065,1.5787454854580574,0.3373927380380337,-10.87126134043865,8.212558277311473,-12.621684494275542,1.7894811992446193,-2.2579084672361205
1.228,-3.0204734496669516,0.5015789288363521,1.4757343838555244,-9.72287046734482,9.347707499043281,-10.178611076320522,1.4455331383633165,-4.047591397357792
1.232,-3.3025214730801054,-0.609180964488587,2.7363224783548503,-7.268383039981927,9.848286861991255,-6.5134299428700615,1.4902607853882728,-4.07886871649589
1.236,-3.2788291191186545,-1.3055226427454727,3.596832770231231,-3.9726284192361163,9.621098405091288,-3.236559309004406,1.1687415082133157,-2.8437270209815324
1.24,-2.892188816295402,-1.0525170262194479,3.9293382273344832,-0.3835781610869162,8.96744601629598,-1.5752718626936257,-0.06875343462070305,-0.966678865222093
1.244,-1.8643664147616619,0.5693517874315148,4.120858021456115,3.055369401988628,8.526520168689785,-1.773527264639597,-2.12483824222727,1.079287155318525
1.248,0.08634083286415262,3.6075088446041264,4.84406725809913,6.107887000787741,8.966231240337947,-3.037411676755255,-4.223229739498493,3.065256533323918
1.252,2.969235523718453,7.5759765452703505,6.611744001796069,8.735709443490123,10.597427255299408,-4.038941898428675,-5.2941826384740125,4.947441128499122
1.256,6.372063270471244,11.518890336167715,9.405456830225376,11.00961353087041,13.144934011948862,-3.680094227516747,-4.545738501617052,6.747029559484872
1.26,9.520003648781312,14.310140384640818,12.58266036250734,12.968965290614506,15.827811583781113,-1.7249286045616827,-1.9105134435721993,8.470279465878775
1.264,11.543176621107705,15.095600902078331,15.155487889059259,14.522032172036234,17.731503026950122,1.0597518798567762,1.891247951515652,10.099021565471958
1.268,11.790551059962127,13.645469639148814,16.25747383437829,15.41240563233805,18.24349119800536,3.309201812552601,5.669063887567063,11.613489101204323
1.272,10.039173707914415,10.435115481129742,15.525916201348991,15.261619691736996,17.29251637578909,3.7746272218118975,8.263478449651302,12.991030894694632
1.276,6.554828640112191,6.43341369499467,13.243298410825446,13.720192005377612,15.290979689373671,1.9897078625108406,9.00870604622287,14.170966284941642
1.28,2.0113783857573253,2.6924474893676233,10.158604823171117,10.662919435994809,12.82844561116417,-1.4745079837539379,7.945471773766258,15.025915768881532
1.284,-2.6822567539147713,-0.0649132510848176,7.115074089056179,6.338541564080515,10.326394557312597,-5.278011564862027,5.725512413538127,15.382630577894815
1.288,-6.615974984591048,-1.6828919164786384,4.674076981791586,1.3737709796841955,7.871150988779846,-7.964033831753113,3.26717087810448,15.109085904014137
1.292,-9.115718059093979,-2.541138679383039,2.926001456764425,-3.3910767634633885,5.314736001807432,-8.645663212717409,1.3484145720540255,14.228516102672984
1.296,-9.923392078271718,-3.283450460228778,1.5879338377908425,-7.173107584346326,2.550611458894309,-7.37007333055044,0.3401943223125272,12.959286737555885
1.3,-9.287188853075804,-4.473209202987164,0.2611783531983747,-9.530396082996049,-0.2642065347372409,-4.98526984919954,0.14687208257510065,11.625481339235193
1.304,-7.888846449004177,-6.317033154920864,-1.2776272733171936,-10.489175322726624,-2.680813048116761,-2.602669176638301,0.364027451813854,10.500615915763774
1.308,-6.609071901598327,-8.593397493172233,-2.9426764266918326,-10.463095554252504,-4.172011875253702,-0.9871827175156795,0.525419809554478,9.674212134724257
1.312,-6.176704631834582,-10.788681944020936,-4.417331117715548,-9.995729883587046,-4.443947325966292,-0.1988755548154586,0.3124919879519439,9.038771676894612
1.316,-6.814246604112668,-12.328118750121575,-5.330229696274728,-9.44297611726688,-3.623040618279447,0.33650164603568555,-0.3376282194049054,8.403469584177401
1.32,-8.08143772802805,-12.80250069885551,-5.443901614075912,-8.790523255314838,-2.2061007103875454,1.379485348232265,-1.266870466582077,7.656892363304905
1.324,-9.04804582763063,-12.115269157548937,-4.749163296848565,-7.718685439775072,-0.8060194893405423,3.311312575622651,-2.2324091560303714,6.861392682204496
1.328,-8.77150187919915,-10.514253424878916,-3.4583062158490065,-5.907032799646004,0.13834208076877985,5.800501702522524,-3.07577582542217,6.215595651558033
1.332,-6.855298682179637,-8.506683698085908,-1.934533361252761,-3.3912107766245754,0.5042669982212828,7.918915939311773,-3.8220344377750735,5.91649309308923
1.336,-3.7536890895962642,-6.6835790431068745,-0.5732374565286591,-0.7212183100718903,0.41540171295309847,8.637814512174373,-4.638418580699181,5.999462792481609
1.34,-0.6202564587051711,-5.521898601305111,0.2918536647566725,1.1927053647750654,0.026697325144596107,7.42521288450007,-5.686666780322412,6.280869108998559
1.344,1.2744913730330154,-5.218321879606265,0.4744698087579309,1.5191781797639123,-0.6467424178981673,4.615118960333348,-6.9484573998597625,6.455531746181805
1.348,1.2554276158716675,-5.619523286457479,-0.010117793289282417,0.0011666324680845719,-1.7239316120958392,1.3303989129526599,-8.128779800981647,6.305254715888623
1.352,-0.33599042861260386,-6.29594839778747,-0.9572474553815482,-2.800440164948668,-3.2931580533859233,-1.0215068552515731,-8.729435657167414,5.880363663832213
1.356,-2.2712952976621636,-6.724522484827503,-2.015704684571574,-5.675908943907416,-5.2099073058825525,-1.4138183525501518,-8.259300805659223,5.504054681592606
1.36,-3.098467708957287,-6.525726059160661,-2.801989443961247,-7.318963637309935,-7.039989472120396,0.3021304954872903,-6.489052452148826,5.577835254365709
1.364,-1.969874603271819,-5.627580639223197,-3.022730178566235,-6.959221084953242,-8.204810693487161,3.3508995596075692,-3.601101222295256,6.316653375824899
1.368,0.8182167917202605,-4.287650595533705,-2.58400749091561,-4.7541405398278584,-8.26766739579216,6.437273402672872,-0.15516125903013744,7.576500717810632
1.372,3.9019239939757426,-2.9588081089314073,-1.640195089565168,-1.7210999421640736,-7.188541209974574,8.374421796872412,3.129907111377179,8.899268411401863
1.3760000000000001,5.566631703070925,-2.034671368027375,-0.4930109450006057,0.7960206993748216,-5.35136095785856,8.614303010714139,5.677609595863032,9.765773234703374
1.3800000000000001,4.698661743776029,-1.627525242603042,0.5829750994216738,1.8244363687499572,-3.354704225064779,7.393593759014038,7.29204436906366,9.905361644465302
1.3840000000000001,1.451915751769775,-1.4865101286613935,1.5174838351158542,1.2619205258815782,-1.6814474390575924,5.48161160012387,8.212861283129314,9.469536009994044
1.3880000000000001,-2.7673548030097663,-1.1264463863099081,2.4861939895927208,-0.11331707289264159,-0.4672432127626962,3.714279921614434,8.940828581886308,8.951804462330983
1.3920000000000001,-6.027791796807833,-0.12230019129492575,3.759371075204399,-1.1294034533420927,0.469691608453104,2.5695106955809024,9.914565950621181,8.893662803089683
1.3960000000000001,-6.877558998254244,1.620271689139372,5.482338155243269,-0.8843654820102529,1.3893238326127175,2.0281066674288013,11.246344597724601,9.545297910037334
1.4000000000000001,-5.054342729747987,3.7863234643255055,7.512394596406011,0.7951603210858593,2.365138211449448,1.766895273432965,12.671415832894127,10.70221497215607
1.4040000000000001,-1.5242924356207368,5.8177256286417105,9.439544682358246,3.351207129694558,3.191295845296736,1.532482360898939,13.727602524615577,11.815489435979543
1.408,2.1296162482203727,7.2210224339960405,10.777328322179528,5.9018367607859545,3.5353548015609704,1.418778109446066,14.042577444979543,12.328364481232711
1.412,4.5920794015091815,7.847274996072883,11.22227926468986,7.78550100701068,3.240356201587929,1.8762229829662829,13.567983455543072,12.049813977700978
1.416,5.463539244072308,7.979429245308893,10.845091170838714,8.909185007059023,2.549592549319641,3.4469889861102274,12.613274773653757,11.30623366193322
1.42,5.3102874572159635,8.16126414212522,10.056123221245798,9.683070071743714,2.0508579667621234,6.349797243068679,11.646342854382965,10.774425501371297
1.424,5.155132013112052,8.871535237636635,9.372692364684553,10.623421027274162,2.3523058241007675,10.197429532403476,11.006287480688115,11.092969205061308
1.428,5.739121623234496,10.204100862155428,9.088705141868559,11.886128819078294,3.6534292853957595,14.02957993524251,10.671084676063401,12.472883914182603
1.432,7.021575141148787,11.747912571070628,9.044451835878135,13.051456436412082,5.4904613611961395,16.66501556460389,10.239675062897732,14.551196702832385
1.436,8.25085660440891,12.782111928871927,8.705741052679514,13.346429840818928,6.880342579788703,17.24319958085107,9.188450666959397,16.583255373858265
1.44,8.52618887492008,12.678540978188721,7.5034310001829,12.154499201265935,6.809348984557801,15.659842211260184,7.249056007551189,17.857583669700034
1.444,7.4665353298833,11.291353008511578,5.259917770734319,9.491075439418637,4.809653291264112,12.661257092284359,4.68742276512603,18.081273890704324
1.448,5.523946896961206,9.086207622390248,2.4036571838605596,6.1081912619265495,1.2715427857256145,9.531771201116499,2.277370810312277,17.50670336316398
1.452,3.7122208627124564,6.905089744719589,-0.19557138933305396,3.1155964170538937,-2.7068943615431635,7.497723121668969,0.9344814976866473,16.724893302067358
1.456,2.941094902279474,5.508210115545808,-1.661515463831165,1.3579311952153148,-5.845801150084299,7.159773503919496,1.2231047878631216,16.25195057962992
1.46,3.3728952804485743,5.144125867263028,-1.5993057937193953,0.9112366230583575,-7.300984493236683,8.21041173629601,3.0015635468716937,16.16223324938619
1.464,4.236847617647072,5.401256488114996,-0.32547861885177554,1.030404024231757,-7.0160466392517264,9.592372038347094,5.425362455489449,16.007937057245726
1.468,4.238213989296128,5.425708982197648,1.2892894771430292,0.5953161331672163,-5.634301242476795,10.02047322387989,7.335772085094504,15.098602898309764
1.472,2.3392453429896705,4.398377769440231,2.2829930099433113,-1.2030741089802177,-4.058406122845554,8.61336990167365,7.839181134420869,12.980057005728668
1.476,-1.5171001330645595,2.0391406051812737,2.1547874914176646,-4.308662068349804,-2.915377731211265,5.348663941993436,6.783439572498537,9.820717318931202
1.48,-6.205163810250269,-1.166814736946435,1.1497311469611304,-7.732918962859912,-2.2699587524784874,1.1008514992136043,4.85280120031166,6.448372130334974
1.484,-9.883958678310591,-4.157454068257721,0.11160160383224138,-10.021761474556115,-1.732098213999052,-2.7498623488681915,3.21987753007852,3.9781402665939822
1.488,-10.913157602236424,-5.8153742105305355,-0.03244271613039018,-10.007577721071357,-0.8497290949908347,-4.946268208172114,2.9179256362567685,3.231415684816966
1.492,-8.730477998499737,-5.557081101988842,1.133860919448125,-7.434702166254283,0.4848393570500775,-4.9201569923970965,4.28105043009964,4.269755115556109
1.496,-4.166242286262786,-3.6368925013985063,3.2426657623727806,-3.085753629475221,1.9091564501432003,-3.000313089502015,6.785218128674387,6.319019921844301
1.5,0.9586912572030997,-1.0179614015369225,5.3221963576270355,1.6184907918795943,2.8038737050683267,-0.21863627998391166,9.364405425745645,8.130379887317758
1.504,4.722110336039805,1.1165097000803144,6.347207532280663,5.309823528641573,2.7031620632806153,2.1923775417417346,11.021484340824827,8.60142007597642
1.508,5.977214326233479,1.9297002174034787,5.811779935364029,7.252998952832058,1.6240291615722526,3.3432465101031994,11.358716601527703,7.333719771802862
1.512,4.759520660367343,1.2683503556309006,3.9726793773934332,7.514891436119797,0.08876230046371347,3.003338020931551,10.723896257077286,4.837695415017151
1.516,2.0764957359479013,-0.3666861480469379,1.6693774781779211,6.711784779685331,-1.161924880636434,1.5785978322710434,9.921072443808953,2.2736802188301226
1.52,-0.7499163798893278,-2.1781052666810865,-0.18893156792910304,5.526241618901622,-1.598316873463773,-0.2068318807723699,9.65709116146536,0.8646466461796081
1.524,-2.7621219394468426,-3.5213510043904535,-1.1285276084363431,4.330622792369468,-1.1954506738184136,-1.7004802238589036,10.081058241628853,1.3002133367499482
1.528,-3.7094434823338815,-4.193485437630443,-1.3254024637444672,3.1127317857208254,-0.41939473390630155,-2.5877675596202607,10.6914613864501,3.4290168204024667
1.532,-3.9456506929836905,-4.430182407293614,-1.4282425749133836,1.6830882640097116,0.06917514160159044,-2.9270413830272446,10.649258307759737,6.366308362801647
1.536,-4.0139026907654625,-4.6440686757996446,-2.0825446646231285,-0.010392384920123732,-0.19045217438906548,-2.9712948192500335,9.30979965462393,8.912300242054698
1.54,-4.2324192776040945,-5.097643442989465,-3.4747769281711953,-1.7120314210405922,-1.2039044996490702,-2.9273211162362713,6.653091356358345,10.059463248169777
1.544,-4.541337467502672,-5.709265283518107,-5.1546868698860635,-2.9425446477798687,-2.5277168663596967,-2.806580382879474,3.3608713595967856,9.355830742109902
1.548,-4.66818272227647,-6.106649536055556,-6.265520344215474,-3.2800640508121433,-3.5203116708689777,-2.439338855798269,0.4766025100616389,6.9981340405338415
1.552,-4.448048871253377,-5.872645285302497,-6.0538831716385175,-2.6406509485841525,-3.671708067287909,-1.6162218659665086,-1.142203431292728,3.6707234227651497
1.556,-4.01673701931395,-4.795219410003483,-4.313955072049794,-1.3456838246147527,-2.815251810952759,-0.24425605783471838,-1.2460625724761485,0.24659471684572054
1.56,-3.7215579559706384,-2.967584449241258,-1.5319404848196427,0.07164997097788728,-1.135236633610475,1.5768616400455358,-0.25261331641013385,-2.506613380877752
1.564,-3.8068978735173005,-0.695168751748497,1.3655960042015067,1.2106502577553329,1.0056096838452504,3.607157499274763,1.0760031431982497,-4.103015271581171
1.568,-4.143758889931632,1.6734491870474812,3.471985082815081,2.036214975087205,3.255643830234476,5.584653250138217,2.090239685592678,-4.391942343043411
1.572,-4.23717125690564,3.8525100787483098,4.288770920235038,2.832430191534513,5.3565795348949905,7.31462531246143,2.5640515804934694,-3.521375647007517
1.576,-3.526078351391334,5.617332747247929,3.885066048733279,3.927896365228662,7.113424747562021,8.692993454988027,2.7108883479286305,-1.8562097115827783
1.58,-1.817257259109283,6.723143212833747,2.7441043410526618,5.344221721321446,8.30160506385073,9.656973549470422,2.9172369362022437,0.11777865586918779
1.584,0.4506604207344935,6.859047637504773,1.44141922941526,6.625883689415787,8.635588692142846,10.127061190902168,3.4030468286728137,1.9106545978611393
1.588,2.308836459092163,5.719341679432546,0.3414636654269998,6.980530893772084,7.850573433534009,9.992362407629116,4.02659880561805,3.1629637141704734
1.592,2.7131777924178095,3.186052635098349,-0.5392143810313428,5.672020904803503,5.855619150492203,9.156589240436006,4.355358237236942,3.754380304071674
1.596,1.14087632931205,-0.4703491387363101,-1.413284583195491,2.4853183987379452,2.8812137092099874,7.631516030050989,3.964587855945865,3.830301850113756
1.6,-2.0386945574791753,-4.539288835595471,-2.4812544725054977,-2.022432701197431,-0.5015517963861384,5.593386801037923,2.7556017797992354,3.712414254851865
1.604,-5.648525993112344,-8.049764108298405,-3.710191867821777,-6.633629318044768,-3.5187311597437656,3.373442425940084,1.1033227366860956,3.7282741009239544
1.608,-8.25313611942056,-10.149892665838706,-4.7933526720644295,-9.929036454726884,-5.452618930114113,1.379862822308496,-0.28566620351557503,4.03857090701058
1.612,-8.867941442355004,-10.49384185083909,-5.317091003220412,-10.87642722970486,-5.90761411866697,-0.025009221106301993,-0.7332349778153002,4.55462578438528
1.616,-7.4302200632346285,-9.407742225319453,-4.992096886468062,-9.251347378889477,-4.951400416541219,-0.6279743338382104,0.05135669083392713,4.977354610633483
1.62,-4.827066685548743,-7.748522557729302,-3.850110054389006,-5.729087131252527,-3.096273020042645,-0.4402569591838983,1.7993575820801198,4.931284980162673
1.624,-2.4309098302273924,-6.494510020917005,-2.25755421354188,-1.5793186614537262,-1.1028265490713238,0.3189177665153693,3.8070994583886204,4.1555678140430246
1.6280000000000001,-1.397512266915328,-6.274652232644257,-0.7554190734335862,1.8772206260691746,0.3151959598708345,1.3111801537525025,5.274608635801997,2.6587182709990884
1.6320000000000001,-2.115889005770441,-7.092741900291003,0.16727323916529713,3.78818637155382,0.7520225750631653,2.1900017101870617,5.670165506577177,0.7536560584921972
1.6360000000000001,-4.037942901761198,-8.341402680835017,0.3169718216977344,4.08519223382973,0.27603406568414357,2.73970581336107,4.977630074014087,-1.0303794944284164
1.6400000000000001,-5.955019527436889,-9.098427215158154,-0.094070694893162,3.4572994055815798,-0.5841062904000864,2.9495267155034526,3.696206050184628,-2.136787824039857
1.6440000000000001,-6.558602948376574,-8.54961338492285,-0.512525239133538,3.0155984772391093,-1.0387637525818718,3.012094237143174,2.608283036841385,-2.205394151735163
1.6480000000000001,-5.0354822071321905,-6.356168037549651,-0.2936570502606628,3.7819118577990594,-0.3684358600366977,3.2225114826651406,2.407164565876883,-1.236376750661293
1.6520000000000001,-1.4515888736923444,-2.821512890914164,0.9591976902884198,6.2010271851104335,1.7217861182289198,3.791580104531022,3.3496924441697047,0.3723838700861961
1.6560000000000001,3.2699271216442867,1.234712021658197,3.182570898135964,9.923422962205223,4.912190341297901,4.693931068406528,5.122852086171406,1.9453808234666212
1.6600000000000001,7.706639824240483,4.786097069903917,5.824107351929342,13.918492678752955,8.332799573945522,5.620043121387425,6.96065471782822,2.788854617770994
1.6640000000000001,10.472162327834667,6.962451520088507,8.045667041227716,16.885942524930215,10.897414508279326,6.100144221276423,7.97087540980101,2.509577676290064
1.668,10.757325612937166,7.360276537485333,9.115713313307424,17.824373389128596,11.792063023360242,5.776723648239567,7.5674570424016565,1.2498843567973381
1.672,8.629704008555564,6.160157327885827,8.74799152326159,16.476158940820824,10.866638347502885,4.660536280418455,5.766085469454993,-0.2855728226240899
1.676,4.992899884598955,4.031282974596252,7.232710833686724,13.454217887301638,8.736521970418835,3.2143967053452798,3.202670127282545,-1.0714750067472778
1.68,1.2406227498877342,1.8689379361549072,5.294889230084664,9.982011501491797,6.509767654517418,2.1664648757941904,0.8549212163525226,-0.2236134517879691
1.684,-1.273074432681824,0.46133779371484707,3.7413655074888084,7.354514721972009,5.25730226136875,2.1161361019949254,-0.41363653266307665,2.516280079664284
1.688,-1.7194285041714465,0.2267870226778541,3.1037837250532903,6.387420050512446,5.507546320950496,3.1543304460283252,-0.26611457635226543,6.525490625808743
1.692,-0.07253369017598743,1.0964210030961112,3.4149058213024546,7.0879906674526865,7.015508097341808,4.714502119017197,0.9324746911843249,10.470258752859081
1.696,2.953143742572138,2.60664206241745,4.260391092915597,8.726325221859952,8.943578179754695,5.807689084682352,2.3039480648658355,12.875116271134175
1.7,6.275379298185726,4.15605951129146,5.068379829201149,10.26356629766451,10.344681973367187,5.551803866546834,2.924222618865315,12.822876686212112
1.704,8.939254283349328,5.295840109522032,5.452266085982046,10.903270097827772,10.672109947103309,3.7110053228825564,2.325259206665578,10.429670149256708
1.708,10.50385979362909,5.9169688323654555,5.420607488769747,10.480204290957772,10.027036399798817,0.9268744154924207,0.7641310487742885,6.801352198661334
1.712,11.093767987616047,6.199227524426533,5.272222310548386,9.450615846013534,8.981381906611205,-1.5479677878938674,-0.9440176984280697,3.4545725198458967
1.716,11.119300195555297,6.36270014535512,5.267697557170322,8.512165601661764,8.104629853420192,-2.506294295168118,-1.9592174493227503,1.4859421317487431
1.72,10.869844529101101,6.392329818248072,5.305025774930982,8.086267530068653,7.492341033967023,-1.4923528265735513,-2.0140390598535305,0.9225483947338944
1.724,10.239523983037543,5.913459032982246,4.823603408152849,7.97537158342675,6.6005556630880164,0.8336256189995765,-1.7292596934603353,0.6366473537309503
1.728,8.772503327207232,4.332520560258672,3.0467498651069036,7.4082320218476525,4.513469335372065,2.927328974586999,-2.4173417921538203,-1.091499730169744
1.732,5.996026948256258,1.1848668174279737,-0.5760258828704536,5.450139738401049,0.512115515084588,3.091082166378328,-5.433727402676595,-5.601561447594577
1.736,1.8567803008099872,-3.480294238861461,-5.939019243713119,1.5820960333840048,-5.359535277410032,0.34811190045911644,-11.364109023375931,-12.969714585302427
1.74,-3.0099331570381764,-8.907434078033475,-12.12269020990243,-3.876929065774675,-12.077614702182473,-5.005661102653903,-19.477751103117043,-21.723690736189383
1.744,-7.3606638616738564,-13.76186640677588,-17.61296770629997,-9.733775463369966,-17.906527614186416,-11.444616299744666,-27.76125961604521,-29.32561723462277
1.748,-9.76318524745784,-16.543588223355982,-20.794582861961317,-14.295713772771705,-21.03103686990835,-16.834686122792846,-33.55124541591795,-33.198618091773824
1.752,-9.199986051333326,-16.155207120158593,-20.559832336261024,-16.022385520854186,-20.28021768101098,-19.359708536821927,-34.558140346947766,-31.802206138583642
1.756,-5.541238552453251,-12.35802786613749,-16.740995921423746,-14.137240606504747,-15.586260583842886,-18.26127489900682,-29.81120359457418,-25.228812708324767
1.76,0.3612060682289666,-5.894049628357607,-10.178610813971318,-8.925216817373439,-7.980833162771887,-14.05449482898075,-20.080410186239533,-15.060602032184761
1.764,6.996748963792925,1.7650402527733604,-2.423513559580897,-1.6127867581080864,0.82557054641984,-8.1887563716773,-7.596762500201294,-3.6209338593998837
1.768,12.780511385118189,8.924338498868565,4.7962887144167325,6.100173879236536,9.064679365932534,-2.3614829112739244,4.805676463449345,6.961016327893958
1.772,16.58782471383438,14.185503652292027,10.081611635378067,12.603895704434763,15.43365151600483,2.1395089173711312,14.700792116122102,15.411051183160453
1.776,18.032298223954967,16.80696389970035,12.698221177190135,16.834054813937655,19.347386457759058,4.800942203193699,20.806728884334007,21.431997741883606
1.78,17.431331567922825,16.80909317991427,12.673989227749189,18.49198173561217,20.891832851966683,5.843859215154225,23.18980200094302,25.339327456511455
1.784,15.537499137943087,14.834379369938688,10.67171218878866,17.993706202182693,20.581028796230385,5.8841979353674105,22.917096186331037,27.51865555855693
1.788,13.217788393702904,11.884407281871063,7.746479426792575,16.23474283226642,19.10279216104118,5.555388161503288,21.406402209293447,28.068881074179444
1.792,11.18204700100614,9.006387409853232,5.0150655239758635,14.248936673736353,17.142175789635985,5.2563523519293085,19.785998961349833,26.836868699141633
1.796,9.830220463212754,7.016250960068646,3.3344305915270525,12.874913345922323,15.295689320988458,5.097395534743555,18.534257397288457,23.764910665637217
1.8,9.233470017159561,6.327598731999387,3.090349893895109,12.523609597876202,14.034589863588735,4.995508986763525,17.5154680671003,19.261382230226445
1.804,9.200115094338798,6.905161408154527,4.146948482513835,13.097208071429122,13.657629303059366,4.797002851433717,16.306816466070813,14.30216515678876
1.808,9.405335471577928,8.362029761201484,5.9998995749228925,14.094982468570379,14.239064512222285,4.367110768869679,14.610108044922526,10.156495302424446
1.812,9.51746045618529,10.137343419346507,8.024869384184058,14.84971090741601,15.58806763888424,3.6128352865525812,12.502515946183848,7.876220895363076
1.816,9.319554876810798,11.71088414649057,9.741034108368694,14.827243588427336,17.291811940412117,2.504588266581777,10.42745287420803,7.841973881251761
1.82,8.80443304101118,12.778986949534556,10.973780001520936,13.865355797061056,18.847967880779834,1.116817406635164,8.968659453725195,9.61294787888437
1.824,8.181595091236886,13.312256832708954,11.836346043046433,12.238285387750693,19.83974253182896,-0.33984887421684107,8.536069750723982,12.166942951385863
1.828,7.783097764919603,13.481647854509902,12.566859886050224,10.518145227466448,20.067855347636396,-1.5328144602972316,9.143126041626601,14.382831459199224
1.832,7.872681650222603,13.46975352156187,13.272124321047158,9.262447137590243,19.54644724177888,-2.114286147751045,10.354409197279892,15.510313776185285
1.836,8.456376246166656,13.284502716844145,13.760133349403986,8.697916860978694,18.383833935926305,-1.8861081884024316,11.438897434971295,15.404867539109546
1.84,9.204305675290016,12.69155958536976,13.57647691805414,8.574913982566613,16.626136003482316,-0.9580222128661262,11.655768761686886,14.430720020583067
1.844,9.57164457064664,11.329894062759195,12.245944779902857,8.302034519515473,14.193643618848,0.2346176411556371,10.568019983185877,13.1555935892884
1.848,9.094362490759977,8.973644136221083,9.619091633116113,7.317582245595986,10.986955756039606,1.1104864265253127,8.266660477304868,12.043514782661077
1.852,7.669993015580985,5.751342391522485,6.065137825308739,5.463543581603517,7.08744715391731,1.2165699714878428,5.373058565061001,11.315384471033212
1.856,5.6593665219902505,2.188033496126991,2.401619658729942,3.1569979476653316,2.9341267194649845,0.4811694242962403,2.8162513730712817,11.013707027502278
1.86,3.7390855145399655,-0.9655770960307564,-0.41500778145564254,1.2459982990521894,-0.679257067198705,-0.7116745082166744,1.47161212125593,11.152441239969448
1.864,2.558499919967744,-3.0451535798056284,-1.6957280089573032,0.6046680447670951,-2.8515745071963465,-1.7086426115092763,1.785627264283903,11.80461961248875
1.868,2.4026264768617693,-3.747670041787387,-1.2878602425262216,1.6912116516668902,-2.9602523220382864,-1.9329533892941981,3.5726759117005713,13.050640669929635
1.872,3.0326811268114398,-3.24170099181174,0.39235788854512066,4.281731733421111,-1.0045998827845324,-1.216160135663813,6.063720811728672,14.830471699342525
1.8760000000000001,3.810227593592572,-2.0481542123507097,2.5797743258026458,7.542616588219062,2.3013785036719128,0.09063199504817021,8.202537795702483,16.83570836191575
1.8800000000000001,4.0603485512906445,-0.7468273137292272,4.52703312509675,10.40805993190952,5.788842868892061,1.308734369578815,9.096127571243414,18.54914491506497
1.8840000000000001,3.469492270769024,0.31689654891943064,5.811939256849655,12.05751497334677,8.343217099583853,1.830608949823727,8.423790382507832,19.44613592852056
1.8880000000000001,2.292702413348252,1.1660738878426855,6.455887702928521,12.249624964442773,9.416934277085602,1.5053813814356545,6.61642370206755,19.23748136231461
1.8920000000000001,1.215778923099606,2.071973839560087,6.781634766784919,11.324663192441221,9.254130276436626,0.7592097146771266,4.678847136831791,18.0079390457322
1.8960000000000001,0.9386671049396682,3.2642367292146446,7.131942258351955,9.914901202776491,8.702003408428936,0.3715466678913799,3.717232157723629,16.161255865123167
1.9000000000000001,1.7317834676050552,4.6737059204433535,7.637236247366673,8.560438211303335,8.70693204932104,1.019051194878557,4.403431786074179,14.1881686355282
1.9040000000000001,3.2353146320415362,5.88424103044872,8.165179773057389,7.469253413826664,9.76952010106379,2.8463440647865355,6.635068318956655,12.415243799300697
1.9080000000000001,4.62818310226703,6.332568430249921,8.471427047047655,6.543057400519501,11.652614059580628,5.322861141021349,9.555350836145408,10.874474035583262
1.9120000000000001,5.047735959550209,5.61133426448032,8.381607479900595,5.58524277446304,13.47532502166905,7.469688475499424,11.917888607886198,9.365253956320885
1.9160000000000001,4.0415821635515385,3.711467560005076,7.894505116070832,4.540837926815584,14.156281772034163,8.37234483958855,12.629064647107953,7.67129611630844
1.92,1.8108981565842441,1.0679253781900115,7.147907208878678,3.5923104338935445,12.96620185061147,7.690711337911125,11.21294905765626,5.770566976887494
1.924,-0.9105717499260209,-1.6412196937208137,6.264711138122038,3.024836030366714,9.875913217886591,5.859322258723296,7.9764084733324125,3.881697387526401
1.928,-3.24965838058597,-3.8126197191863866,5.22550892624713,2.97633853959087,5.54468910333253,3.866389697480372,3.835618599355257,2.3129026225851703
1.932,-4.654505103957035,-5.190193499872294,3.8367648291005025,3.241755890899185,0.976677923968964,2.720173300778697,-0.10900357631180668,1.2331219149264143
1.936,-5.168416121103746,-5.9485492096205235,1.8487733393876624,3.292245002123309,-2.9447347724017163,2.904950787242342,-3.036222004702722,0.5219790577666572
1.94,-5.354114103398388,-6.536048044675226,-0.8302766875567613,2.5402811924550406,-5.791959085045164,4.132081769015713,-4.671050685527007,-0.19189524603098107
1.944,-5.935063354664635,-7.385225505986,-3.977350984971963,0.6962201413089133,-7.6520498310010225,5.523749182719257,-5.249018426915427,-1.319046576598339
1.948,-7.355229835470709,-8.653825065541696,-7.044621927603657,-1.9862620361118388,-8.918428695710645,6.128609925432102,-5.259969370537874,-3.0612586823290258
1.952,-9.523547668477022,-10.154070739580675,-9.368624491612536,-4.771426196683478,-9.992273971296527,5.462115926219667,-5.154282890214745,-5.28639233744525
1.956,-11.867623102516063,-11.487451859992689,-10.487660626428806,-6.795841524439766,-11.067903242236753,3.7679621030165436,-5.1628898407088855,-7.604559950214025
1.96,-13.63769555523777,-12.276697299735133,-10.37357909279126,-7.518815395320871,-12.097735701593592,1.856418682837102,-5.296217596567658,-9.606730768672605
1.964,-14.281683951789546,-12.350306085493685,-9.440680388826877,-7.01523599338725,-12.899734908884966,0.632113734849554,-5.466664872614274,-11.098655288818009
1.968,-13.67363914815951,-11.773216732421133,-8.291079603393882,-5.919536355326272,-13.295903234678917,0.59587136040318,-5.598143077355417,-12.179241866896518
1.972,-12.122998936043587,-10.753892452552918,-7.378527966777256,-5.075140055601878,-13.202380441372043,1.5880192453969357,-5.663779516841714,-13.114532869233699
1.976,-10.19701943336213,-9.510951023865346,-6.7731200256266675,-5.0737199372242685,-12.629763645068124,2.9199445264875976,-5.642791405525713,-14.093369465401338
1.98,-8.471241905054285,-8.18756689491147,-6.163541730060388,-5.942902210211287,-11.637906841502627,3.7963821239236495,-5.452893126215713,-15.048810484672686
1.984,-7.3440877704892955,-6.86386242874778,-5.1106532486037395,-7.159643220810722,-10.315260546037734,3.76105166882553,-4.945000482589421,-15.666160209668305
1.988,-6.95716056597621,-5.613728919244295,-3.37207369137559,-7.954821630602055,-8.792883393059583,2.918579215374848,-3.9774675047856363,-15.584008278977308
1.992,-7.2345807841893475,-4.553034303406548,-1.1333973226073795,-7.752142237076441,-7.280561052123176,1.8165559008166383,-2.5481976140690676,-14.65331334356415
1.996,-7.970666940497267,-3.8149338687812815,1.013365852248171,-6.489872586927504,-6.059206915036157,1.0947166633459346,-0.8837801654271971,-13.081914249281908
2.0,-8.889254185892696,-3.447549066814645,2.360637683166715,-4.642413468811355,-5.387957383082721,1.123871922412036,0.6142677867665043,-11.358403376961178
2.004,-9.67882526618564,-3.3176288971867507,2.462900957810689,-2.9580184394803837,-5.376414803354237,1.8439090595402376,1.5561815576902518,-9.990430601046683
2.008,-10.026369221019422,-3.1034459798820535,1.3979313327508862,-2.063217553044524,-5.904792268112487,2.866076679516482,1.7904502217415939,-9.224591863252499
2.012,-9.694729540686467,-2.425385483264563,-0.2706679560383236,-2.1687236422717433,-6.670269928523339,3.75997073797771,1.5108135445480002,-8.900088442603192
2.016,-8.626609047049214,-1.0647323152161334,-1.8175738526106215,-3.0179580580706897,-7.361871875946235,4.3250369288498405,1.1545258866472068,-8.533037961305126
2.02,-7.013787674528885,0.8492096535960627,-2.7720257768769443,-4.080486038785239,-7.876230790999216,4.679102270763906,1.1402702494497134,-7.594843755257443
2.024,-5.268697094182244,2.798050361739115,-3.193704966421137,-4.8619847839700014,-8.44193625425487,5.130240882725047,1.5849565918883854,-5.826286291039651
2.028,-3.8608813997523157,4.055126295512764,-3.6074284070159592,-5.128852442217067,-9.527515701119682,5.9556605451398354,2.20194183710737,-3.4063183856655996
2.032,-3.1054259064915186,3.991593267256121,-4.6622805336974125,-4.958699688044817,-11.57037370889202,7.2187176076377,2.439459741264727,-0.8734230118329833
2.036,-3.007674069613131,2.3732779253950866,-6.689033882822514,-4.603355039143935,-14.64985209174938,8.746724738887679,1.8192242863860884,1.156976852065327
2.04,-3.256073647899484,-0.4923340971158723,-9.408246674847305,-4.281569270795444,-18.292305260571084,10.25240291056798,0.29065342699823304,2.312024022285186
2.044,-3.3691961215236006,-3.833460923208804,-11.966973978606802,-4.030440770644418,-21.536189793612266,11.49190254549103,-1.6230176208309786,2.657149911498891
2.048,-2.912993022947603,-6.670727038974746,-13.274980122926081,-3.6862636817854764,-23.245779191182464,12.364276733449515,-2.977943982935358,2.665861819316433
2.052,-1.7017447679977522,-8.168250070859358,-12.511087056535416,-3.0195645584303747,-22.560680416078412,12.888142380851605,-2.8321873457653055,2.983196079289428
2.056,0.11743451328106858,-7.933885009776532,-9.536986979410813,-1.9298357290153945,-19.27294007432556,13.098971016702308,-0.7296680463678058,4.0932731690954824
2.06,2.1533974579458572,-6.135627520204707,-4.996948576975228,-0.5683258207727704,-13.94690755043166,12.967211840688833,3.020083153770429,6.050854263805832
2.064,3.9525657577128186,-3.4189205951111035,-0.08361894343261156,0.6765509706629018,-7.738117103812328,12.413250120467637,7.412193780768575,8.408225800109449
2.068,5.193474311290856,-0.6568065884034695,3.9364731337445846,1.3442394097164652,-1.9931953566238008,11.421052906202021,11.151473256406916,10.372021679629597
2.072,5.806117709838418,1.377563488387068,6.2047513462562165,1.1401001133449427,2.210914081986175,10.160876721774912,13.192332948477542,11.16092329483672
2.076,5.959740670936753,2.2808844482062796,6.543144990065684,0.12358871231299418,4.387569177668411,9.015995164042124,13.140345823607277,10.393287431127646
2.08,5.95186700084173,2.1296753800991155,5.418366252766646,-1.258325315885486,4.690875209204023,8.455315510560467,11.332273564788466,8.305171804494876
2.084,6.060767490606395,1.3942312565923203,3.6471249010846805,-2.3204204804455912,3.7116966168505314,8.797973615537558,8.579373625454991,5.7014399565173335
2.088,6.429152572257635,0.6844869611086324,2.002377972805789,-2.416470774708614,2.125905094073005,10.006296957030827,5.745734461513621,3.6102412682298564
2.092,6.991878323294941,0.41453896934694967,0.8620418088798942,-1.258654782355734,0.35029328689506656,11.622416539380993,3.351330973813674,2.777744157890538
2.096,7.492988905064294,0.5670837727411708,0.07699011965405589,0.9059252242270759,-1.6071401989947844,12.935741011963728,1.4272456087792307,3.2819523205839687
2.1,7.581342627879394,0.6785933603327976,-0.90021818778132,3.352458441066574,-4.052357380557169,13.306902213573267,-0.3492391589484214,4.449669680015177
2.104,6.960929952772403,0.08023798456247277,-2.6905764011366955,5.170936352739318,-7.301878511303585,12.48552804900828,-2.3469490494189813,5.171500031690812
2.108,5.552030197057775,-1.7016573304583744,-5.594966507789195,5.677694585065865,-11.321659036996152,10.755617240390166,-4.677181101449605,4.472113573434854
2.112,3.571128892393517,-4.6084675564843565,-9.348850685342313,4.732619041192265,-15.525274047681705,8.811893974606846,-7.08171929215996,2.065937717558427
2.116,1.4802345571288242,-7.966958453646839,-13.137588764724114,2.807210534161868,-18.85695422008871,7.426523375278975,-9.051761786257885,-1.4113090512209965
2.12,-0.1856049464456646,-10.729010141293656,-15.87677765200715,0.7551309131679318,-20.1519145061352,7.060234278901589,-10.09328783750152,-4.657567924351042
2.124,-1.0576773354616762,-11.952102022181862,-16.663602321203143,-0.6261507015087773,-18.646792533158532,7.5995056800502425,-9.994977673602534,-6.343341439213418
2.128,-1.0856577717859182,-11.242191706177437,-15.144678300207033,-0.9805006377478094,-14.366376393915289,8.39611057412867,-8.920130984268326,-5.803907244461698
2.132,-0.5405058382139032,-8.94281328368902,-11.664197957808483,-0.5473680749046252,-8.19987144521292,8.589162364206913,-7.303911797998808,-3.4032542621662287
2.136,0.1512930808726196,-5.959526933202369,-7.111301920366714,-0.0022969541653310444,-1.6056413335370507,7.548786474364533,-5.623158179391794,-0.36549260248693827
2.14,0.6731962926320421,-3.2963865699673534,-2.5282114101300976,-0.06416824074381111,3.9392880049847463,5.221215787556957,-4.169276110141936,1.8403869238641164
2.144,1.004104216870246,-1.5823198589887397,1.295906220716688,-1.1065062337479503,7.471636915481213,2.187406884435404,-2.9559577619604624,2.2188221866995264
2.148,1.4108386637672083,-0.8468675753661046,4.058832239857111,-2.9710126915961155,8.818990028319377,-0.598609178744482,-1.7972098330860717,0.6887816020116588
2.152,2.2131056077906806,-0.6775091831696045,5.866853933331413,-5.10434439485698,8.484158482573548,-2.2981023263600946,-0.5160333924416136,-1.986476880565533
2.156,3.4655661062861327,-0.6273398730204462,6.9392229914624295,-6.906876857926136,7.239341776309175,-2.6256058741678316,0.8571497276811897,-4.696345956931964
2.16,4.791079721018605,-0.5809732379073012,7.317399756027953,-8.051740431750886,5.682262506641109,-1.9951920756993786,2.0315047888393565,-6.595589504967165
2.164,5.5063067727960515,-0.8357417550748778,6.771301748599399,-8.58758105679749,3.9866290463169207,-1.288506361669988,2.5744487038111856,-7.481051550574648
2.168,5.023268866114904,-1.8222660667663604,5.00066615663377,-8.765325960192968,1.9666166703168528,-1.3453161280717723,2.1644569810214307,-7.738987685718257
2.172,3.2664704160279143,-3.6870228269831387,1.9469036596983642,-8.770125770987306,-0.6572870390757544,-2.4783184679245096,0.7831523882323381,-7.9631427709082345
2.176,0.8538794865633008,-6.017683214391468,-1.9865808108306737,-8.539737825348311,-3.958576126191474,-4.25590680500909,-1.247141203808269,-8.48899395676699
2.18,-1.1168383538215494,-7.93693158589474,-5.993036391202622,-7.823215696873831,-7.676551886029301,-5.705785346095126,-3.4010295406396835,-9.175309574935454
2.184,-1.6219193905399152,-8.562062424784358,-9.217958384880603,-6.460327754388345,-11.32769910590946,-5.855747258433439,-5.221151149506568,-9.548750696004845
2.188,-0.2692732938884319,-7.529776327094623,-11.169508258030419,-4.637860731117371,-14.426943098831998,-4.297706054102491,-6.513464480443417,-9.167419517440976
2.192,2.4454930819067613,-5.267148332875422,-11.947213652473692,-2.933875336731944,-16.66762237722446,-1.4619203707127326,-7.365699460399355,-7.9452083174473955
2.196,5.37055612144718,-2.7959139497312435,-12.100466302395262,-2.05196907860136,-17.9292258828375,1.5720300607811168,-7.985570285975882,-6.214983606034366
2.2,7.3242983894491545,-1.1417824810605453,-12.166652027199234,-2.373679777810821,-18.12455809822677,3.6226024596487605,-8.442802945616222,-4.502743669057963
2.204,7.734034673876977,-0.7119447668255816,-12.200764011468436,-3.64232921857797,-17.05428171826634,4.0045777937784806,-8.511955471915371,-3.186248696440998
2.208,6.9384594805817414,-1.009085033193287,-11.595555376524317,-4.992365333997441,-14.414136297956816,2.8719985898205778,-7.720358584991573,-2.2752635395604557
2.212,5.951479886277184,-0.9004837262369847,-9.397324899809064,-5.37963814482373,-10.018535328991902,1.075567054215071,-5.635433768311714,-1.4576161411532667
2.216,5.8233248706176255,0.6916927277652576,-4.963981414304953,-4.187072681835957,-4.117681263989198,-0.34688945095831514,-2.219252212320498,-0.36608130730337507
2.22,6.9978192252388,4.086800573863002,1.4276666002659795,-1.641225980582476,2.4224565535982947,-0.7580942243907884,1.9703300239912096,1.1121046874079639
2.224,9.052189636445178,8.547911194018639,8.416395835010235,1.2387012374313144,8.266556695547251,-0.23965851040475172,5.88726244577515,2.706972220002399
2.228,10.981577405446615,12.582109851363725,14.020960791860034,3.161027043219292,12.070298043877301,0.5322662169819523,8.415007837851363,3.891070674150569
2.232,11.841039092571748,14.678792338258859,16.523176256771762,3.2510110737304103,13.052933203034627,0.7489716374914224,8.881844910397604,4.1768378625176865
2.236,11.344209673487967,14.075438190543082,15.321270323363251,1.5199935168741376,11.384099611005581,-0.01881136280053397,7.405975467862163,3.397938819922274
2.24,10.054271619734664,11.132836518349905,11.277759722501287,-1.1562321088014187,8.142694324536023,-1.57539022361334,4.8577714675902826,1.7974729912791645
2.244,9.04238034530556,7.119288499858271,6.330837769623713,-3.538321255105643,4.830202588974203,-3.252555541888796,2.4359797330556603,-0.10499382301054538
2.248,9.245566815596135,3.5634500496860255,2.5922887933145375,-4.688709129138488,2.6932572708223006,-4.339242183851184,1.0957737841481503,-1.7765369178207493
2.2520000000000002,10.900098224122473,1.5306277205774563,1.3628910946292763,-4.4252241111584,2.186855987143872,-4.5125237335455495,1.0991925705664016,-2.8881253528406887
2.2560000000000002,13.387620870524756,1.210270841122167,2.582275895621706,-3.3117461804201866,2.852989373525361,-3.9995660304417697,1.9513657843501733,-3.3762651376894155
2.2600000000000002,15.591090049781087,2.000159328267216,4.995523228192724,-2.217309796002496,3.6728584673918476,-3.3882635074116934,2.7481941131036365,-3.351511359688061
2.2640000000000002,16.512354835508404,2.9581751577454725,6.884519858793965,-1.762159448770717,3.6678194255906647,-3.230945268051073,2.7189353714102253,-2.956870782619262
2.2680000000000002,15.796236887427881,3.345309170244775,6.985561940451134,-1.9752701294272583,2.43141256407489,-3.7030425016155277,1.6778248897946924,-2.2724752892053175
2.2720000000000002,13.846692249462194,2.940473518340184,5.084044293254237,-2.372223520825628,0.304449656666975,-4.539639041018745,0.11391565270889714,-1.3290235089743874
2.2760000000000002,11.502042802513756,2.001896692261653,2.018277484949863,-2.3618793917648873,-1.8719931420949933,-5.262371861945326,-1.1027993822625604,-0.19123235322535947
2.2800000000000002,9.516833360054193,0.9843103452582227,-0.8358957405222895,-1.6854811595052297,-3.2469891738065257,-5.537990685605791,-1.2176270747005447,0.9718366916304149
2.2840000000000003,8.16988816163692,0.22376107876993956,-2.2922001788653006,-0.6088833835801211,-3.4036878136497535,-5.418200842737974,-0.012825473193061043,1.8986538056995528
2.2880000000000003,7.230327088565474,-0.19986722667169943,-1.8712190467492178,0.2591708359821041,-2.5036623454050186,-5.302826037250725,2.081113884070078,2.3128301779315166
2.2920000000000003,6.2479800070921385,-0.37964610482652006,0.09619921597499115,0.3822434893705804,-1.0934626961307572,-5.6562903538338105,4.222950522508484,2.0309712831361253
2.2960000000000003,4.954743619544985,-0.37982595140363173,2.7734350345893404,-0.32667105621487735,0.2891845595545419,-6.658911525483518,5.609186738782739,1.0429101738270674
2.3000000000000003,3.506606148643556,-0.08636647172144762,5.3000643865029815,-1.4125121311206499,1.4395809455100448,-8.027523354865764,5.870251847914119,-0.4931979807503808
2.3040000000000003,2.4000537873023973,0.7633377561954262,7.1648098566338945,-2.1255179866682283,2.5421685316212574,-9.14074018832821,5.2027879358596465,-2.299053566039902
2.308,2.14646569326797,2.389738687363746,8.315397313929282,-1.8471985113661162,3.927670262853951,-9.383941974279196,4.198934048245121,-4.060948184858091
2.312,2.9135206628508,4.726746916919467,8.971313930917518,-0.45803523345404074,5.682907557673275,-8.52762842219147,3.4775946536507263,-5.5288966413629055
2.316,4.365802578808172,7.290572234003093,9.320083524413349,1.5695901461062363,7.38445016396895,-6.9058234373191,3.3330176650462136,-6.588608856320263
2.32,5.814519506534509,9.277954379506753,9.318422637891786,3.4027525873490276,8.160954721292057,-5.288800166822284,3.6025658568770496,-7.293397726273042
2.324,6.573096352244079,9.865328910386722,8.699006997772301,4.250591467332583,7.090722821194902,-4.519219446477678,3.786930576935845,-7.844577623768885
2.328,6.3304221967865715,8.610461787736995,7.2058609838814505,3.7597246197663026,3.772340540018888,-5.068702385784036,3.3913863993934683,-8.470350832248073
2.332,5.326448074282268,5.747424454311044,4.873658143122782,2.1949258930822566,-1.2658186740871429,-6.758411647740104,2.2959319878871156,-9.24433096520886
2.336,4.228736592712352,2.1971027937472627,2.1640206372730972,0.3281806722410465,-6.58883028369371,-8.78450820142234,0.9343617067332843,-9.935541294698396
2.34,3.7957397840107205,-0.7375907246908469,-0.14413881415532614,-0.8946705516157181,-10.378290505039615,-10.051036533940646,0.16019436905105522,-10.026497913431399
2.344,4.469769404310284,-1.916640997059801,-1.3265787692109825,-0.7894994407316744,-11.267376968259896,-9.677445833468028,0.8239933910764421,-8.960492908957463
2.348,6.116139661442901,-0.9065895076031438,-1.131360963005136,0.7163406026365351,-9.071500854719659,-7.466481717452325,3.254811732607209,-6.558986257626998
2.352,7.996644656276658,1.6954343116919404,-0.06559863528673304,2.9338927154743715,-5.051941576496233,-4.13243587494037,6.858579983645541,-3.4106573340745854
2.356,8.989091474696522,4.351302373680312,0.6519482689101324,4.547646554726953,-1.5072871426757501,-1.1445120859925737,10.082919519615189,-0.9435744267988184
2.36,8.004904563438231,5.141474440864499,-0.45851202970141003,4.058158227169486,-0.7960767358954399,-0.20729515504569918,10.871411210022188,-1.0106958808120226
2.364,4.447273573336531,2.5941542187491677,-4.466309627293072,0.395727318823333,-4.226227685398271,-2.5572788756813907,7.47781778472131,-5.0726096495398
2.368,-1.4373216307867551,-3.542466313973364,-11.39791663922938,-6.49827507825546,-11.32294293394284,-8.330705905412287,-0.6459206435292799,-13.33090696973477
2.372,-8.484354465685215,-11.967231530684899,-19.98121607472035,-15.406784301351138,-19.865878412388838,-16.309165667808657,-12.319276443247531,-24.28180767328763
2.376,-14.875959205341587,-20.14453746181448,-27.928593346288608,-24.059657194193335,-26.706542830646868,-24.2050586895607,-24.748820167483473,-35.00238156515479
2.38,-18.70765825205632,-25.22341685935146,-32.70891656201286,-29.85884726143263,-29.039438447189127,-29.433734101821074,-34.36920849687931,-42.15760058946012
2.384,-18.68143864171543,-25.195157753070305,-32.516284159241536,-30.865025780713722,-25.558595588640173,-30.09550208916903,-38.12026560053664,-43.301957285760864
2.388,-14.629823498043038,-19.757074733542083,-26.98546830678788,-26.597405584859985,-16.960159601527607,-25.732892225605156,-34.60527482468706,-37.861577364441246
2.392,-7.645366272940009,-10.491582253767035,-17.366792838674996,-18.28033989075209,-5.592038311824922,-17.524232386025005,-24.642213508879195,-27.31372538403525
2.396,0.2851894880674877,-0.2466866133921144,-6.067697172564294,-8.380721526273305,5.550922056380159,-7.805127781139504,-10.943712184154833,-14.49047284703272
2.4,7.031077438805426,8.020448458233886,4.2355606458816055,0.38424261982925145,13.990807354191702,0.8813532313691894,2.9465570915721173,-2.376784847121826
2.404,11.10002809899538,12.380013945380426,11.48806669550811,6.087136055698579,18.54193913271297,6.7470596260554885,13.940487175193425,6.978457706234508
2.408,12.13687439887616,12.569113075774851,14.826901417384988,8.22408400707161,19.428115658980232,9.31537822163591,20.369153142405253,12.942565977317827
2.412,10.8947076934341,9.85196457467407,14.609283112810772,7.650879583792175,17.78804071265813,9.322832675259406,22.231452916688227,16.036623661417366
2.416,8.723431053539628,6.228815801425299,11.98268129640826,5.926323503271874,14.926882726810618,8.085592663104535,20.713252521103755,17.20425176100707
2.42,6.881447779153632,3.4595342717333324,8.3020362748166,4.472422305130635,11.761991806839205,6.717743271948166,17.351469630027623,17.12394401337417
2.424,6.011521975733729,2.376110826700369,4.657590295042837,3.9868123290234507,8.691397121823911,5.630656031960825,13.325148384121803,15.953030012272166
2.428,6.040321635195141,2.7864809399078467,1.6988316704092767,4.393463396491825,5.851621540142901,4.554357270842047,9.212565218509667,13.582805582915626
2.432,6.467570752205745,3.900884393211072,-0.3002476898260511,5.226089307321558,3.479870763956228,2.9716976458628324,5.20468134391524,10.12378204553022
2.436,6.809260223998933,4.956024810693407,-1.282193627372635,6.118509038601246,2.0732587130916045,0.6721324043987806,1.5010046438653717,6.218844542363399
2.44,6.903588493483596,5.65113994556782,-1.3149618162009347,7.0462930982739636,2.1964761599774647,-1.9696027417871846,-1.4551985529462854,2.909956426793883
2.444,6.894112623325668,6.160461077061655,-0.6246755428653614,8.169680509685236,4.072997993593958,-4.163056330342442,-3.1175832299132935,1.1368488244719401
2.448,6.973633626598598,6.808232172948692,0.37053367501732737,9.462829001535738,7.268677844207787,-5.173994957365949,-3.2056333153755077,1.2043403173156548
2.452,7.100937676098852,7.668357104015854,1.1136589017236247,10.442787913766324,10.715926328643718,-4.802250361495908,-2.0218392247021484,2.592262045748271
2.456,6.922406125286784,8.386432141354476,1.1139163966986416,10.26704660803614,13.13707897676602,-3.5396358634970966,-0.439955111008544,4.258641250184155
2.46,5.980233779507387,8.35060974922601,0.21261248802625232,8.204712253345178,13.65018849980197,-2.2999185753701568,0.5017250406588118,5.257242507214869
2.464,4.066826019056862,7.090321121862985,-1.2720016539975632,4.20307128021966,12.223081089046559,-1.8721849461792317,0.1804376007958126,5.305182304721598
2.468,1.4680359883506071,4.6330321723444285,-2.6352669635382426,-0.8402206305252093,9.686568800260147,-2.445197651504941,-1.2328184414127463,4.913423319185995
2.472,-1.1096651810598814,1.5728141571787546,-3.1367249065056058,-5.34691067326753,7.276116105654637,-3.502358727316505,-2.8667741028054934,5.006731095652185
2.476,-2.90665695998905,-1.201237217215521,-2.4240016143730827,-7.769078028670037,5.9603976063995106,-4.143046076577548,-3.6852528900874404,6.268663864009341
2.48,-3.5359919061233995,-2.94221339989042,-0.7681575267304197,-7.342857283868284,5.935485318014685,-3.637852850652962,-3.1281659100641264,8.62773461086772
2.484,-3.2128701827028863,-3.392703482763295,1.033413294336924,-4.4698155621214255,6.562997463451893,-1.8927167074382396,-1.4673643030403127,11.205924297662023
2.488,-2.608243690725203,-2.8351928784871916,2.0706824066580793,-0.48064805007390987,6.778563634232228,0.45678356930170594,0.35113306301900593,12.761284732028344
2.492,-2.4143390883787106,-1.837891274880917,1.8152537291855424,3.0826832657136265,5.726050536454068,2.3653051935343683,1.2806613458355969,12.36671309118924
2.496,-2.8979216589290218,-0.8726904067990517,0.42140287864958736,5.244556712963799,3.2590001420747967,2.9282722863072195,0.816815373805639,9.925541043462772
2.5,-3.721483506999107,-0.0538159734975352,-1.3442665510663119,5.9916057484294925,0.02961659092136415,1.8409973549635197,-0.6949448123432376,6.219495052363527
2.504,-4.178157369411679,0.8304730688698783,-2.542899360706997,6.0617809667686515,-2.880639052354695,-0.4871006504477009,-2.296490295348576,2.483469847368042
2.508,-3.670371458322961,2.0574614927178345,-2.583235718651167,6.31826112078943,-4.536925872093889,-3.1846936807960446,-3.024183575320194,-0.22593274132623264
2.512,-2.1505904275049943,3.6540163391467786,-1.5614277131564904,7.103167823207286,-4.623937945256785,-5.390427107543246,-2.5186510960147643,-1.5081807407520955
2.516,-0.22635947124933864,5.260578656618918,-0.2058309341352924,7.992241427934914,-3.549215494287637,-6.668396335647913,-1.2420980608596892,-1.679941796605135
2.52,1.1522197294314083,6.288831195732428,0.5438890725190504,8.103906535647525,-2.141721216430142,-7.120601868949734,-0.17117901147139492,-1.4357727714668727
2.524,1.2095240139026373,6.256665390777471,0.04635727342451901,6.7173886435779195,-1.1702310834612035,-7.195959086149287,-0.1705064662271525,-1.3613262320927788
2.528,-0.22231456116287518,5.1031244362826556,-1.6951028865596527,3.8171135308543853,-0.9563697560938635,-7.329973511584285,-1.44180968257092,-1.6037322723975649
2.532,-2.6254375386740776,3.27306420929699,-4.047585311222747,0.1976554403541968,-1.2839299995177953,-7.658307491823052,-3.392302743665141,-1.8680129137496806
2.536,-5.115289197612583,1.4998421380058744,-6.101420835724866,-2.9456509693561657,-1.6305624345775414,-7.964716903988119,-5.007779625344256,-1.7187405756421867
2.54,-6.947607058609151,0.4072286706623345,-7.146375090992251,-4.687050162619016,-1.5596406166814631,-7.881240892139203,-5.499631172010368,-0.9745429129036438
2.544,-7.907919882777037,0.16353413689603258,-7.020663146646257,-4.88166016229502,-1.0287786629789935,-7.200580524281122,-4.819915223888302,0.08353724641506233
2.548,-8.332259612980351,0.4139871631371079,-6.129189524887124,-4.185864677428299,-0.42638088060766677,-6.074639059414494,-3.69864869107937,0.8069888356185402
2.552,-8.786787756456533,0.5212376453226852,-5.176769424988834,-3.603239392014302,-0.34088759097812726,-4.985357531344789,-3.2037653532850072,0.5182076580349531
2.556,-9.619382459577992,-0.02581990532587497,-4.771401517730965,-3.837366975322311,-1.206971553484891,-4.494024326030967,-4.0855728997585175,-1.0974932014846672
2.56,-10.672658914614317,-1.2748830397144957,-5.12376099553353,-4.852997951337784,-3.0416971277909397,-4.911990984484191,-6.290465993724183,-3.787981641057968
2.564,-11.356912071453053,-2.7516915421030035,-6.00735238505149,-5.925710599748754,-5.410405657784622,-6.1014663743676465,-8.961130603981928,-6.823756190911354
2.568,-11.006951736458632,-3.702581278664411,-6.944064764982613,-6.115624084284491,-7.621830039869565,-7.518780157915444,-10.901731016774193,-9.329223981051655
2.572,-9.319072623494549,-3.522892614881698,-7.517223077002427,-4.889966536990869,-9.064292125078055,-8.503243738411129,-11.261472097767864,-10.695220100372353
2.576,-6.593414921788735,-2.123163325554515,-7.614257533437694,-2.4963347578393495,-9.492525067065117,-8.617019764265478,-10.022520123957065,-10.855356239543426
2.58,-3.6248167558501336,-0.025181473924931197,-7.472024106467643,0.13971639080682507,-9.137864742389866,-7.860342001499248,-8.014451402038503,-10.308896721860492
2.584,-1.33045434743849,1.8457669601257294,-7.543040462339377,1.902107913732607,-8.600758652520199,-6.654182036678321,-6.469907227431122,-9.880562481431525
2.588,-0.31273830004931824,2.5814106261937013,-8.237394926692104,2.0766149337437128,-8.580435768218877,-5.578010251061187,-6.348522982451641,-10.347286031460726
2.592,-0.6079526038973881,1.7007954093619446,-9.701539032241044,0.695006337851737,-9.568749564166183,-5.0269441953137175,-7.811306030368996,-12.094574449457923
2.596,-1.7580118299115384,-0.6656891837333205,-11.748727347351405,-1.5620529134926073,-11.644363464283288,-5.010828071437572,-10.161820117150228,-14.956954378391856
2.6,-3.1111769876036988,-3.8601933624420326,-13.934125215318545,-3.796215239385674,-14.42632623073655,-5.1913969958877715,-12.236105566277956,-18.287627282325957
2.604,-4.183238514525669,-6.998497316775229,-15.751639774352725,-5.3931387872278265,-17.20234912767387,-5.1358478285105775,-13.042603351595744,-21.215089106873847
2.608,-4.867440579493632,-9.321559887242302,-16.83353333046398,-6.295143249206376,-19.17946549973317,-4.62361312244866,-12.28321454535353,-22.98904826057901
2.612,-5.408453806681678,-10.442857575316566,-17.083014381070143,-6.918130174535463,-19.7709338448592,-3.8189351899336543,-10.490883283572884,-23.2588525951428
2.616,-6.184986413699562,-10.401431435611585,-16.67669133108234,-7.8012222483394,-18.805986407173123,-3.19009330184781,-8.71048557496033,-22.162058101879893
2.62,-7.445025673545274,-9.541017351244136,-15.95497419928438,-9.22606462240833,-16.59523850821529,-3.2161707390546326,-7.912239687733745,-20.210753718462
2.624,-9.147852707461993,-8.309952867716447,-15.269635140658693,-11.03644094657966,-13.823634749356415,-4.040302319730927,-8.46602209415937,-18.022323567390686
2.628,-10.963516383322144,-7.0665707789337375,-14.817087047552377,-12.720829317726157,-11.291784537108242,-5.2974832143568165,-9.940409008821007,-16.029744203942528
2.632,-12.427708143111886,-5.988000191515766,-14.56052925596532,-13.698248832735771,-9.627894823972383,-6.2646797661700475,-11.345753518356332,-14.312489118361782
2.636,-13.148226734379591,-5.086303698138636,-14.261283489566267,-13.605744457408264,-9.075084984133127,-6.233734486965659,-11.666127524616286,-12.617270607208638
2.64,-12.946995441998297,-4.2796181301432625,-13.589953835506776,-12.416398050266935,-9.432177211757107,-4.901311036153402,-10.397168887821863,-10.558955695503073
2.644,-11.911208112199574,-3.4915415141667836,-12.30056302335447,-10.377906678439786,-10.188452116784674,-2.5654608519921567,-7.806906985760634,-7.88657279999984
2.648,-10.345883905199003,-2.7241523308468913,-10.363939191376403,-7.852653330327712,-10.779705077326525,-0.005540727583138505,-4.7872311404812535,-4.6864996584508845
2.652,-8.671207157717163,-2.08459096966385,-8.02165005545885,-5.184195007727112,-10.850678338524176,1.9181590834205053,-2.3867508300681948,-1.4013561049537202
2.656,-7.3088454254314,-1.7608956462968308,-5.726187827272952,-2.6562167540325845,-10.401932220394201,2.7218040787856808,-1.279716826551521,1.3457868492009766
2.66,-6.564592726275805,-1.9393448713728958,-3.9702376323496082,-0.5144307690084133,-9.74745802048119,2.5443636760151094,-1.4531119104831305,3.028000474948385
2.664,-6.546551844826126,-2.7052807373695487,-3.1013096228166432,1.005982650476426,-9.322927795574287,2.0422935063179466,-2.2817509913029426,3.4435734206217603
2.668,-7.116618949334679,-3.952297437129346,-3.1739223083391153,1.739971782018074,-9.428224623352662,1.994992004991218,-2.925286013002733,2.780051029123115
2.672,-7.916338283769392,-5.359305696610363,-3.9349314574833443,1.6992537783571606,-10.055541326251387,2.840348025736148,-2.8280567805600185,1.4863697050882365
2.676,-8.469248264609178,-6.458039761572991,-4.9337348701265,1.1485840868174364,-10.882408001569502,4.414020943574087,-2.0275009389929437,0.04201387534430978
2.68,-8.335361759086936,-6.774552569407433,-5.69484098024077,0.5641432299471489,-11.421735060755509,6.045158340476519,-1.083701314486916,-1.2488772294054797
2.684,-7.284412065842616,-6.015506689771655,-5.902632909118893,0.4337918255987461,-11.2679802046016,6.941624663145831,-0.6913167891448211,-2.3197097200145436
2.688,-5.4065347420032595,-4.216156730446755,-5.49312854349273,1.0004873941986716,-10.305191086549712,6.655007195208327,-1.2012275650376978,-3.2481267274270067
2.692,-3.116811227021117,-1.7911523362702155,-4.640364561631031,2.0785301331868595,-8.779918021930143,5.341573045163386,-2.350202553671352,-4.092005040354707
2.696,-1.0164109440599987,0.5681358070460192,-3.6344404842752738,3.098402677442891,-7.185894019259422,3.687535733697132,-3.3479612093146898,-4.75312145306998
2.7,0.35171878181563443,2.1356552757260943,-2.7043311161310157,3.3916939019072743,-6.0173363628650804,2.5451615727456556,-3.2757039075763714,-4.976426786829052
2.704,0.7249741047569387,2.4169023816473327,-1.903397785186371,2.5568068532604684,-5.522679985167088,2.4870200650584593,-1.5978285951518956,-4.491587847026949
2.708,0.2427938734081181,1.3445979811153848,-1.0830276490996766,0.7252609337870126,-5.572201030525321,3.5435809922068984,1.514147863371818,-3.2068956587540924
2.712,-0.5928218659469167,-0.683960931100728,0.017650279755343945,-1.449768420273358,-5.7171815215110655,5.250450236454526,5.220422556961239,-1.3372343339183317
2.716,-1.114421293453006,-2.946499121718034,1.6221850183242168,-3.089230751080777,-5.399451122400478,6.9546296646472,8.4073427934768,0.6338647463567213
2.72,-0.7619031135402565,-4.660308240202539,3.774784975321836,-3.5145747990484324,-4.213751160205447,8.175240716034295,10.213503062708241,2.140978719747636
2.724,0.6739438573169991,-5.272937158611512,6.2531619269202565,-2.5933446929050206,-2.1011546943377652,8.789161548012544,10.380226934189068,2.778704702752748
2.728,2.9635968292091093,-4.641403025380441,8.61748689550177,-0.7913735251977414,0.6362704516031954,8.978575162573634,9.270302854029524,2.478375199727907
2.732,5.535471993819556,-3.041573925575449,10.356834904270727,1.0887012888229037,3.4881176621788654,8.996050260714583,7.575679944169224,1.520283553885747
2.736,7.712105615941482,-1.019387276017369,11.082843272313312,2.33670157514166,5.960523475008131,8.929157722829586,5.893625389813224,0.36866508311572943
2.74,8.986923429245053,0.8378791180771259,10.687232161262045,2.6966692615494594,7.739426381277781,8.642597614838905,4.4310260511883826,-0.5908782074739065
2.744,9.208781413955535,2.094085019013164,9.368018945392578,2.449651166357171,8.704954277682418,7.919201094159689,2.9880392406016654,-1.2531998094830215
2.748,8.606381408950597,2.556723837449681,7.536209114173744,2.1960585006770543,8.825098192419773,6.6891923735825,1.2005503943037183,-1.8377303224935986
2.7520000000000002,7.632898108318955,2.2415149226255835,5.615764047862967,2.4450703116540353,8.011037957782719,5.1584508858054505,-1.1381561012885868,-2.7577593682765382
2.7560000000000002,6.722400220501754,1.2696055226649605,3.848419215001968,3.2568105204495623,6.074567292158008,3.7318862165298015,-3.872195398320173,-4.374465914695065
2.7600000000000002,6.096461769690791,-0.21129088889574632,2.2198057618847997,4.161576058902483,2.8593435729517296,2.774056372844825,-6.505275858272171,-6.763501977591886
2.7640000000000002,5.679602533821708,-2.069437774640164,0.5065683805898971,4.380404696405549,-1.5490767236772172,2.340266605153829,-8.448349207141291,-9.623433020177572
2.7680000000000002,5.193776665879568,-4.15405196568463,-1.5325069618579619,3.257577959209584,-6.651330185534562,2.1032092141203975,-9.31145861303412,-12.371328717008055
2.7720000000000002,4.360100264937387,-6.244805062800879,-3.9507821446879916,0.6566502498142199,-11.567447197162437,1.5363927227613203,-9.083744290876439,-14.366676349509817
2.7760000000000002,3.087497587129974,-8.05605268362774,-6.505480909595235,-2.895198430720484,-15.31724776528381,0.26427276256436016,-8.092616751754122,-15.158335320666993
2.7800000000000002,1.5587232915009963,-9.312790136921421,-8.70711778365012,-6.394075872280155,-17.22700831197176,-1.6351497623309115,-6.782255457464089,-14.64120272207083
2.7840000000000003,0.15727711270460532,-9.868867019976506,-10.028978268784613,-8.793348569186719,-17.246257611616784,-3.582874698714477,-5.4688983043067765,-13.048160291129307
2.7880000000000003,-0.7115048488318507,-9.776892707985553,-10.14243790580258,-9.453145140345896,-15.963900877931337,-4.766994598850488,-4.204512694091363,-10.815004799066173
2.7920000000000003,-0.8232910365709358,-9.265539614788622,-9.076235950917408,-8.400946681531195,-14.293761420650299,-4.601522671891416,-2.826118228125324,-8.396142768612663
2.7960000000000003,-0.2414774767619292,-8.607287419691147,-7.197463162973918,-6.270650242645615,-12.97295178131094,-3.0981604286193942,-1.1420822935951946,-6.12151301726044
2.8000000000000003,0.7278044838805044,-7.943797212754816,-5.023659819161821,-3.9651351811246514,-12.160131316755269,-0.9281884582528619,0.8698632534983517,-4.166004516288467
2.8040000000000003,1.681230193363831,-7.195942868293741,-2.9957686237673897,-2.2430918712489074,-11.388234062265155,0.878796817395596,2.968554472656251,-2.610820776124683
2.8080000000000003,2.306527701560867,-6.11690412196117,-1.3055165276146,-1.4161088839518925,-9.891741127147725,1.4565097880235953,4.7448192901938455,-1.526075458346213
2.8120000000000003,2.5094926452590016,-4.479783182695201,0.10891116062998663,-1.3044255128324949,-7.145877535792351,0.5417553841803056,5.838365808531307,-1.0067514662025587
2.816,2.42244446916402,-2.2914019269890105,1.4236363070124298,-1.4412376595360001,-3.290602579528013,-1.3876703467753941,6.15432365088509,-1.1329289674449683
2.82,2.3159067097445813,0.115501744982339,2.7580121498438075,-1.380850572792724,0.8351692499854835,-3.357228169576956,5.951926523707698,-1.885952852875107
2.824,2.4448905956851377,2.1664716640655115,4.052183921266533,-0.9625435228613242,4.0640488508772705,-4.39432103265608,5.721132591231253,-3.0953947351026727
2.828,2.9273494880972066,3.293417161098205,5.088924707360093,-0.38615528583682135,5.482129625699372,-4.004228584420616,5.913737148486916,-4.476422264657003
2.832,3.7017596836857365,3.2214000623498578,5.624023220912932,-0.08193002711914232,4.884543834854185,-2.3824388227249074,6.6681206249670595,-5.744687685468307
2.836,4.564850818620016,2.129845289734476,5.545124099905252,-0.4571930130441615,2.8530837748182876,-0.263233512107945,7.683352888126365,-6.745026546544523
2.84,5.270488033386869,0.6009227446656951,4.967920911199826,-1.6582562913556558,0.4259334681605651,1.47080139127047,8.343553088817998,-7.515236913555782
2.844,5.619305897007166,-0.6457249224978341,4.176488406953922,-3.4894348085969114,-1.457325657027809,2.209735550896653,8.025670917885577,-8.232462952254082
2.848,5.509265646261838,-1.0872585031714834,3.469655993228571,-5.511760347435256,-2.405179672846657,1.8620813135858043,6.434905361528422,-9.078507942338206
2.852,4.938898853159799,-0.6195017164141063,3.0007066267305618,-7.259977200318417,-2.6698446019443054,0.8215544867002791,3.8016336811213023,-10.0850479850194
2.856,3.984520797120922,0.44238089418229265,2.715623642307037,-8.445348363503854,-2.8633437992068593,-0.28116641849237567,0.8181789574882714,-11.05802452042849
2.86,2.77846970928681,1.5740651277794768,2.4317139532847705,-9.04099208263915,-3.4944236322075994,-0.8882523798938564,-1.6576966403608822,-11.644209715873103
2.864,1.48531026178091,2.325573652222033,1.9795623088834873,-9.230447646485118,-4.618348751761914,-0.7333213040515147,-2.9879718691317976,-11.494477873672167
2.868,0.29772222225756195,2.5415768083929606,1.350975760431993,-9.241765043745545,-5.788657051013843,0.11567097561351147,-3.0060952601259032,-10.437410780096116
2.872,-0.5853039971138969,2.3888329399436543,0.7230182151668032,-9.195886324982212,-6.338330679625187,1.347765913120611,-2.0302947060874885,-8.570813549857348
2.876,-1.0010417612955962,2.2064381061052245,0.36851276748870987,-9.04439920003938,-5.785889988396548,2.5831635487666063,-0.6342681185276433,-6.2075867591374845
2.88,-0.8561768585964273,2.298512545461108,0.5274399616921528,-8.61178168843378,-4.111759943703419,3.5399244102227385,0.6877702533001866,-3.7179320865504906
2.884,-0.16970229446587837,2.766915379877787,1.2850911534508214,-7.731678654744201,-1.7739687189032338,4.11834890356522,1.7496855653512284,-1.3600990200652632
2.888,0.9214818102212803,3.4872071524185912,2.5648572304844492,-6.367020815157275,0.545984249501771,4.402061669237128,2.6845239541980845,0.791605173240896
2.892,2.1968658626955175,4.22188955893364,4.211298773794169,-4.648024512621873,2.3014706353360452,4.59003286540883,3.7578225733689123,2.798583736929686
2.896,3.4157639486916196,4.781798839635712,6.095029215833847,-2.8160489970487106,3.3372018251247937,4.8806544227870745,5.105489785211603,4.716904120648223
2.9,4.380866416228628,5.1326397436812385,8.169318457845065,-1.1228743566732646,3.9085988294598337,5.339631511318203,6.568807677770337,6.442425036059376
2.904,4.960106967017055,5.3712554978808384,10.404433751651823,0.23549565863436328,4.4698326525096945,5.80216633472287,7.726302606475201,7.663347692875959
2.908,5.091997416322215,5.620011635204378,12.684049312059642,1.146004480773172,5.391710185103307,5.894113239316312,8.121684174421489,7.96270508246721
2.912,4.778623971994534,5.913837804666173,14.736421890000884,1.5621507446746818,6.755732442908652,5.184116896099795,7.544364226088874,7.0302833939108496
2.916,4.070855635058422,6.1523810690275695,16.17327319462038,1.485799204459795,8.316986105137403,3.42986640723484,6.179900265153037,4.875896130128922
2.92,3.0668227864074993,6.153156933581727,16.648610446943962,0.9910397601636305,9.638629624798455,0.8000111059207029,4.5416325450551085,1.9131537576013216
2.924,1.9056052810349229,5.762853712160222,16.037406264407423,0.2636431509037038,10.30129438019867,-2.0596533412349345,3.2311639357606055,-1.1220217477916776
2.928,0.7576606221874727,4.964889964767963,14.541412133612539,-0.38493213804213156,10.082021971276731,-4.206045455126969,2.660363430541679,-3.4184370144487275
2.932,-0.21941142396229907,3.891267824822762,12.605689556795937,-0.6089208326541211,9.001650736817737,-4.799814910156101,2.863122099340899,-4.406807432320647
2.936,-0.9406851572607593,2.7315249583889454,10.683246258019494,-0.21177543083615546,7.246360504927225,-3.538952382431944,3.5050058809313214,-3.9944790015536
2.94,-1.4197580540696322,1.613497170587948,8.998776416958435,0.6814733865147673,5.039097505260429,-0.8901736445668575,4.081844865789662,-2.601335463055875
2.944,-1.7518744666859334,0.518678442798091,7.437466265232274,1.5830895172802002,2.540569397555487,2.0595198709634133,4.18493046439005,-0.9508212753893304
2.948,-2.0405889011188947,-0.6854449058060936,5.667991947415089,1.8306787672679548,-0.1530073337748945,4.108507773480596,3.7092614075412484,0.293504135277999
2.952,-2.32225462262727,-2.120140618478217,3.41632316705045,0.9322330662770355,-2.936831047493115,4.5422744699214945,2.892449359186344,0.8635333035068697
2.956,-2.531883261824703,-3.745699497551641,0.7391012551769336,-1.0835615377425256,-5.5908293031718586,3.5189591098931032,2.191921017641448,1.0339509130884608
2.96,-2.5282534852044023,-5.275370153649703,-1.8734396247152745,-3.5267809411000144,-7.7108966440578115,2.0028413059567356,2.0740815323686093,1.4885473411989096
2.964,-2.200912979983684,-6.248817514971051,-3.6864897637734657,-5.2767865148213104,-8.761050741778604,1.2375538263627277,2.7973297373860078,2.9567035417373972
2.968,-1.571300476080296,-6.227944512616659,-4.085523087120237,-5.2943866925077145,-8.241283110173981,2.054533804770358,4.30139064979744,5.785750630071675
2.972,-0.8187255583497404,-5.022711414569756,-2.9201034760129687,-3.1774653708471305,-5.910209854899222,4.3898208208701135,6.2438229682828705,9.681086234180043
2.976,-0.18418459371685003,-2.809602845469385,-0.5930614833266645,0.5687109458053783,-1.934749387511829,7.304664877388404,8.172804889408894,13.789430926824593
2.98,0.20970230483663954,-0.060653000018419334,2.177949334423488,4.7284167072158425,3.1159792389704535,9.518766441501043,9.75775150317952,17.079932609418165
2.984,0.4778579814813497,2.663145446952285,4.764604574662144,7.935660590049167,8.428416691395341,10.129795893624419,10.927833631700423,18.83056299349971
2.988,0.9418227160614947,4.948021369306389,6.966120689516174,9.314322440397689,13.188497069627601,9.101248414287852,11.837345695313957,18.94154522513861
2.992,1.9264406008394417,6.647600701474914,9.033998264639877,8.830493947814148,16.78621291805473,7.222917797222863,12.664894973997548,17.88437920772708
2.996,3.4609541409653843,7.801467344331115,11.336784931652119,7.143085607639932,18.870675054130913,5.558851244640778,13.324496733834621,16.30084367624204
3.0,5.079939908665722,8.417484339246869,13.876837655095983,5.048038304444276,19.25253697341941,4.707806617349888,13.251566489549418,14.477294942402409
3.004,5.861785621188346,8.24971396613455,15.952273614510545,2.8531215501677707,17.737761530600096,4.323160522495755,11.441286711790212,12.031209917293495
3.008,4.771267038038502,6.7719750577415425,16.272692389794997,0.11794752907661632,14.068079228455645,3.2311911672874203,6.810305216511665,8.047030768264904
