Timestamp,O1,Oz,O2,PO3,PO4,TP7,TP8,Fz
0.0,3.836930773104541e-13,-8.810729923425242e-13,3.865352482534945e-12,4.035882739117369e-12,2.3305801732931286e-12,3.865352482534945e-12,4.945377440890297e-12,1.4210854715202004e-13
0.004,4.9987069754376705,-0.7594253198626006,-11.811706683336467,-20.96978853285097,-36.585232237116486,-29.690932628504925,-8.352038008110526,-17.300181546088083
0.008,8.101066955328534,-1.9406302725527667,-21.00428428763928,-36.97403410280819,-63.88891782011751,-51.74620166519344,-14.916596955868783,-29.809324679306513
0.012,8.322084047104454,-3.61642540374217,-26.075361093497577,-45.20241499755534,-76.69240990095227,-61.8307292552646,-18.598356495884275,-34.828194015897154
0.016,6.037291062950317,-5.400437655346565,-27.17426428111429,-46.045554469341596,-75.80179441416334,-60.54944572891702,-19.36833319243334,-32.77977427613426
0.02,2.7749671924979253,-6.636035608470166,-25.77506558680375,-42.511468423119425,-66.96942447453864,-52.64100603089321,-18.13234610674772,-26.68869473287488
0.024,0.43737833048936636,-6.800710647731648,-23.754777106091524,-38.42783130979669,-57.50939898453527,-44.28754978196832,-16.207319615783717,-20.469451865618993
0.028,0.3695192117561561,-5.868453093626016,-22.40686780654221,-36.46579278700946,-52.56317977077617,-40.06305666541937,-14.664490065727819,-17.004391184341998
0.032,2.7509118938272223,-4.396932318526041,-21.944045355687763,-37.06499492616203,-53.03817621063706,-41.14390118502081,-13.874556981352498,-17.02776250901708
0.036000000000000004,6.6057867126917955,-3.263884121030827,-21.709323897047454,-38.73574107079878,-56.1312285326008,-45.55433944186461,-13.47281390439207,-19.280499647747916
0.04,10.40249948146473,-3.1711642498020467,-20.83076518859565,-39.361074466915454,-57.7766377315877,-49.98482672074738,-12.706323431366059,-21.63799797840717
0.044,12.847506676110427,-4.225086201052136,-18.872173454459073,-37.62994266012589,-55.34962938846513,-51.93616010554979,-10.963434954127536,-22.42985365140622
0.048,13.481643069605752,-5.832009238316715,-16.05673471974319,-33.73474087535121,-49.03802464848121,-50.919282729301585,-8.180170839959487,-21.18262557338643
0.052000000000000005,12.79088403350758,-6.999456892612955,-13.012786566444959,-29.051906017337416,-41.322969468921656,-48.234564777214814,-4.938010380428977,-18.51013425267034
0.056,11.812549285755765,-6.90060603086863,-10.317398946612798,-25.17916275173846,-35.20455921197197,-45.76996136381797,-2.231497084189243,-15.440471921002768
0.06,11.518879928585505,-5.363553688027167,-8.158620954129617,-22.990748336885957,-32.41415419611485,-44.71893777185062,-1.0004616812513518,-12.719002905798476
0.064,12.305779247859093,-3.009155184247078,-6.349283460220249,-22.270277943560018,-32.653701928173035,-45.010706195238754,-1.671319928443154,-10.518348929991987
0.068,13.870487537056661,-0.9267963213329153,-4.6017183068719305,-22.04364259931316,-34.13174865371349,-45.6592136015214,-3.8954497673041146,-8.630975322466597
0.07200000000000001,15.496127559844552,-0.06503468363860065,-2.8390172512027334,-21.31920047480665,-34.86701268545133,-45.65920716444742,-6.625120461861741,-6.897545203155943
0.076,16.52616684852056,-0.6999979888815915,-1.3170991259146376,-19.73047229722141,-33.8597458655062,-44.76258316251972,-8.52710273635546,-5.501324335124693
0.08,16.759035630198795,-2.2764686494488444,-0.45129384952377904,-17.679760757037627,-31.43767298607085,-43.605045793547106,-8.538745627881838,-4.904900226292355
0.084,16.5085620673011,-3.7307941417059567,-0.5116129994227663,-15.97238362192246,-28.713763607192163,-43.17146206711084,-6.34494923870335,-5.4931177580221515
0.088,16.341969489878068,-4.098269079175736,-1.4021867606431044,-15.236062066589596,-26.687932637208974,-44.02247857402085,-2.545856897161457,-7.2147330423368885
0.092,16.688816244983272,-3.0657703370299885,-2.6969966655273367,-15.534540450460213,-25.672092855773627,-45.85370153903864,1.5713246539732495,-9.517922189680533
0.096,17.57428497804365,-1.1546605145092599,-3.9124023267476673,-16.409119539469174,-25.356386276812742,-47.6864260385243,4.564535024806503,-11.63087698356945
0.1,18.645379563013456,0.5834533520590099,-4.784422265778943,-17.231951815532256,-25.306630442739362,-48.48926417169258,5.466870306555478,-12.979248262740299
0.10400000000000001,19.40907762754641,1.1347525448576903,-5.374758353448328,-17.607041694290018,-25.391536295993603,-47.78928565644435,4.198829891721601,-13.450519346199712
0.108,19.52383378653981,0.035177758810903015,-5.927841381541157,-17.555703620809965,-25.800551225677765,-45.881631312578804,1.5712001462071044,-13.353535208542269
0.112,18.958796619515887,-2.4587721835528527,-6.616965532869614,-17.422441629561348,-26.717113361439516,-43.57509912092854,-1.1390879498454183,-13.149062689469744
0.116,17.95157235101081,-5.597469006486932,-7.3851824366500125,-17.615459904275184,-27.980583961997723,-41.71150580389076,-2.832442032583714,-13.16254353570119
0.12,16.844950094821264,-8.560461993068756,-7.960612208316917,-18.338272477163983,-29.035989519189286,-40.753578076916426,-3.087261572759104,-13.448209632554622
0.124,15.90667205032036,-10.81029097954071,-8.037868039206472,-19.45375198487558,-29.2101932590775,-40.63543744636053,-2.270308259831154,-13.832181246268107
0.128,15.268694577153497,-12.172114438270242,-7.453350897911491,-20.512052286184172,-28.107642136629636,-40.88280450585785,-1.1968498926830193,-14.047722201816455
0.132,14.999277494114565,-12.666387872920424,-6.248153888785424,-20.930102768312878,-25.85609444121681,-40.90294854080895,-0.5720638379560228,-13.854150028441879
0.136,15.190213480684974,-12.31394123815555,-4.630930077142892,-20.271251986127027,-23.060002083873258,-40.29042658936294,-0.5858240364191829,-13.115519297371506
0.14,15.943781871664058,-11.102765420877574,-2.894673644939587,-18.50453364251564,-20.50724962844754,-39.002451244071835,-0.906936971371664,-11.85740686992537
0.14400000000000002,17.197490609719097,-9.180824156854214,-1.4173186467645564,-16.14334320189363,-18.84889917619776,-37.37668341422068,-1.1024437049990752,-10.347655815455965
0.148,18.51613435164812,-7.106990050069101,-0.7268455258063113,-14.180328657979743,-18.48044464427636,-36.02656226214742,-1.187647515489516,-9.192636518746156
0.152,19.043929032702877,-5.90833759169368,-1.536522528904868,-13.808948935433278,-19.670015345273242,-35.67924776410507,-1.917725049444357,-9.35070675487492
0.156,17.766894366574533,-6.772965328786967,-4.607381435615707,-15.977247381608663,-22.728241160966377,-36.9736701569617,-4.5515922603184436,-11.918897839193392
0.16,14.030870453077839,-10.444719297623834,-10.3615240189269,-20.90130251244051,-27.944512376217403,-40.197951470096086,-10.116130451625736,-17.651624229741543
0.164,8.030502016025324,-16.65819495601346,-18.416630580623405,-27.768395211611704,-35.194922719346664,-45.031737897752464,-18.572156044591736,-26.36992226657884
0.168,0.992346143650451,-23.961220031361563,-27.317109565685826,-34.82354921042179,-43.4659539518363,-50.43430723918948,-28.36362284539348,-36.596290129108525
0.17200000000000001,-5.142124933338522,-30.130165409966537,-34.76185456936906,-39.925407568979494,-50.75053741803168,-54.86472719512335,-36.71307390344714,-45.76131482539441
0.176,-8.449609732291947,-33.045151393546234,-38.379267736196425,-41.39265237374602,-54.59529058359419,-56.84030930640017,-40.64052200887687,-51.04285990036371
0.18,-7.821819799239407,-31.581835877821106,-36.707870055210606,-38.719156773471894,-53.11946514072224,-55.56674581455172,-38.22836990425765,-50.50640369381638
0.184,-3.478641442731245,-26.09035862950077,-29.915182947582196,-32.78657157628359,-45.97369882614606,-51.306742387651866,-29.517582078588475,-43.986527894576696
0.188,3.103947772611747,-18.208751449686787,-19.829070685584554,-25.435298396788085,-34.68634746883072,-45.25844905408894,-16.56877368361893,-33.24056691409473
0.192,9.836133112158436,-10.119421944923886,-9.231274698887603,-18.616420187447204,-22.15805956901221,-39.00759347748806,-2.667201620646722,-21.268768805174034
0.196,14.896805642269669,-3.6551575174953257,-0.755853766646851,-13.586757857392342,-11.530037622900181,-33.85340726938716,8.932374409120314,-11.123503548683487
0.2,17.42848201208406,0.3159166650664247,4.0984195883345365,-10.537994283336957,-4.966494263371089,-30.337988192787293,16.145852777613527,-4.768797776930512
0.20400000000000001,17.686341405315545,1.957423724371722,5.350970403475571,-8.813570737268776,-2.9388398405801013,-28.203451321486796,18.565308822563793,-2.5132353742828855
0.20800000000000002,16.658719276102175,2.077186120225633,4.210146130120961,-7.505987525544356,-4.326565715404115,-26.745739929409183,17.212936126437967,-3.2231638317676357
0.212,15.41976503562239,1.5716154374765097,2.254108387511451,-6.074102632786094,-7.240096688335882,-25.357316639605187,13.764018631488852,-5.136233552748422
0.216,14.581220155022294,1.0127688989886678,0.5885711105024711,-4.627057421632685,-10.074070671934123,-23.940228799117904,9.704288304551255,-6.793721221184512
0.22,14.135835354036516,0.5654160262371306,-0.5462257119197602,-3.7101875795780757,-12.183098425032654,-22.914281583309958,5.857605786331646,-7.591073254854621
0.224,13.68003667154403,0.1530206412110715,-1.5983620144896804,-3.7863037340417804,-13.839219178787573,-22.83994598149502,2.4104595781823264,-7.728126082375923
0.228,12.841830340729757,-0.3070653609904639,-3.143280172317759,-4.778760303943329,-15.632453607966738,-23.92977181987351,-0.7007261469975674,-7.718801953575621
0.232,11.608063961726117,-0.7957288234853195,-5.349388109309643,-6.013331318244923,-17.7966660534006,-25.798699983816277,-3.3835803045744797,-7.860676444696566
0.23600000000000002,10.342439833685347,-1.2627604283117648,-7.804128448321194,-6.597808611828498,-19.88418940436702,-27.603464987690813,-5.257576827835919,-8.002153136958412
0.24,9.531937737688793,-1.7498775923658627,-9.748732896229626,-5.987965966111119,-20.987852140022937,-28.48732537403589,-5.85056659533916,-7.72086673989736
0.244,9.436940404692166,-2.4325936851531083,-10.563070165694285,-4.399281701995392,-20.36400117496987,-28.090951967530373,-4.971873297041611,-6.756938947627191
0.248,9.88879163834045,-3.5052562566655183,-10.147580478615282,-2.7746142132263003,-17.997299183294558,-26.789126461191927,-2.965496451620538,-5.358524633803654
0.252,10.354988772345934,-4.978887293787693,-8.959163098954946,-2.288463691784557,-14.709565999969755,-25.477139822726713,-0.6478245688171,-4.269335924309189
0.256,10.216541016211067,-6.566483938976148,-7.716112653567848,-3.684963846082269,-11.748458386550396,-25.04546641862953,1.0621591541998896,-4.352061397618115
0.26,9.09846130451777,-7.777553334130175,-6.9803008973292435,-6.848235248407093,-10.143856631955941,-25.87192507767577,1.6077095295992194,-6.089509706231411
0.264,7.064330105521407,-8.193898783242105,-6.891377203843149,-10.856693569451693,-10.217065976551226,-27.63963167826637,1.0689220710335121,-9.270348933323362
0.268,4.580135833311829,-7.760064378720131,-7.179347350752778,-14.450446950447372,-11.502143997918779,-29.54359474232092,0.09809235035606889,-13.041176484619825
0.272,2.276370479901118,-6.894036138571948,-7.410148981219436,-16.626677027420897,-13.077953720219398,-30.73614221063508,-0.4559625902861626,-16.285548506800126
0.276,0.6436320374069737,-6.317705036400582,-7.28989660357945,-17.052819445024966,-14.098613197989835,-30.765538654804004,-0.029438943568493414,-18.12865884749698
0.28,-0.14123408072890697,-6.662222385951452,-6.825780882939398,-16.103258527263506,-14.234746550127852,-29.785823195747525,1.3403749390112125,-18.314698735777256
0.28400000000000003,-0.20852237917739558,-8.086035333871905,-6.290659621030954,-14.562688207691394,-13.794564538070404,-28.460695205116963,3.02388696818889,-17.285674789527434
0.28800000000000003,0.14167077105105363,-10.13395407775596,-6.029352997679098,-13.18040340509242,-13.453853595003693,-27.600343111639404,4.1442319571505095,-15.934559566547875
0.292,0.600646714729919,-11.935867381816195,-6.245048537576281,-12.318134957139478,-13.761768844646554,-27.717628715501405,4.062411845316888,-15.16388187037478
0.296,0.9550041478748881,-12.652221853142805,-6.912905615471118,-11.865607686017597,-14.751115865990528,-28.762225884989903,2.7247752215598666,-15.480819209029391
0.3,1.118603007097363,-11.919745631098635,-7.853170759035265,-11.440592730721619,-15.917516763790331,-30.185743203102675,0.6769739813628348,-16.831284809202657
0.304,1.1062746099936476,-10.058500232613596,-8.900663531523605,-10.729381378522135,-16.578391610964786,-31.29883314975632,-1.2618208777221298,-18.71545733411051
0.308,0.9983843360352012,-7.905762955243347,-10.01379429542476,-9.728269946512,-16.34998877417138,-31.67159644014623,-2.4538572839501285,-20.459661523345403
0.312,0.8966083358714343,-6.375869669245844,-11.243926855911923,-8.744185532019628,-15.417677728002786,-31.34058735295207,-2.7765748163326407,-21.48262999238659
0.316,0.8853876912234853,-5.989145689532165,-12.610736513225902,-8.187915313132066,-14.436422285180925,-30.728613408497267,-2.6497099924268923,-21.45499791309743
0.32,1.0137190027830343,-6.620201867073604,-13.988394767146247,-8.313986785981001,-14.150239874137696,-30.35439173311397,-2.7441240797946875,-20.338484625503213
0.324,1.2624504646178707,-7.616733993617686,-15.127417056166564,-9.0882995929029,-14.974531288572962,-30.537288437635425,-3.566750785744034,-18.359276579237587
0.328,1.5221750030563612,-8.208278121310855,-15.802184933141575,-10.233660031556838,-16.764646901691435,-31.235417293190267,-5.1534078547815625,-15.949371556207211
0.332,1.5945250462735316,-7.965993271143361,-15.975764517414973,-11.388215647461607,-18.873641372593397,-32.07571489445513,-7.040901661499447,-13.655872286279418
0.336,1.2365224083100088,-7.0541501047526936,-15.867214236852988,-12.289440277565973,-20.47550144798811,-32.55988316975572,-8.539053845089938,-12.023031687206185
0.34,0.27954630978962314,-6.120062244624705,-15.853679941977816,-12.88125789107994,-21.001959781021924,-32.342435674198214,-9.138502567545629,-11.465324053662357
0.34400000000000003,-1.2406479855376347,-5.8991092423768805,-16.263201314596017,-13.306647227892654,-20.44898057232888,-31.448047267545917,-8.824498678342138,-12.158972739404646
0.34800000000000003,-3.015390314049,-6.742833632213149,-17.155354344240095,-13.786879844658927,-19.355927598682115,-30.26749026552352,-8.099274372765422,-13.971201065581454
0.352,-4.52773355197823,-8.350529886740446,-18.237430797282627,-14.459121534363021,-18.46191657875579,-29.325118136809124,-7.696191316736304,-16.468234195298237
0.356,-5.2439580426373595,-9.883179678085185,-18.988195636436785,-15.290063780352284,-18.25400443473734,-28.9692080817872,-8.156510102395714,-19.039745201488927
0.36,-4.841204518882478,-10.400996506609772,-18.927904573237697,-16.11957356026528,-18.70710400449093,-29.174396645792058,-9.509421605440139,-21.122078498750113
0.364,-3.380270766791398,-9.40045175099965,-17.90470407823193,-16.80744500350704,-19.368713202696426,-29.58595950646668,-11.256784202433892,-22.43522979484959
0.368,-1.3366004441984387,-7.14994040696979,-16.209887068678427,-17.368839984676924,-19.70662128325955,-29.751534864827136,-12.655585166838364,-23.100428958159057
0.372,0.5448447943495012,-4.617784005454382,-14.446583993440527,-17.981132414806666,-19.477645360285123,-29.37602770352214,-13.132605665347683,-23.552120593453537
0.376,1.5237300449849727,-3.013560393537091,-13.235774762047868,-18.85479529777001,-18.89062175881918,-28.467247048176887,-12.600184887983005,-24.279751089125
0.38,1.174782366915565,-3.1741642520603364,-12.919978242921616,-20.05218271931676,-18.492209678377662,-27.30912686217789,-11.493065543888179,-25.545691091596268
0.384,-0.4219381943271401,-5.129360072695135,-13.448171153513158,-21.391772643957665,-18.86698558900116,-26.295545863353937,-10.534818526038407,-27.236595792937464
0.388,-2.703508022586618,-8.072924924007907,-14.472692191285432,-22.495543886230394,-20.304066677083824,-25.704071890464547,-10.355711734636316,-28.91045508426282
0.392,-4.868721186801281,-10.759340880999957,-15.581841443119174,-22.95942111340912,-22.60957238280082,-25.5244588882872,-11.17321152836439,-30.012908365383225
0.396,-6.242252599009134,-12.118912462204548,-16.5262752282797,-22.560650120107766,-25.181789454019054,-25.448519544842384,-12.711509914254066,-30.14434357963836
0.4,-6.5660119802538475,-11.756240821256029,-17.304194435992713,-21.384027091214534,-27.320910675697178,-25.043104086737458,-14.387489259088852,-29.240129508771247
0.404,-6.081202650633998,-10.088628375412782,-18.090844170368882,-19.80238400681128,-28.606092677393576,-24.01680857372321,-15.645866002578032,-27.579925713172372
0.40800000000000003,-5.352432884495158,-8.072588571052393,-19.04711577611556,-18.285974795301513,-29.090534318422215,-22.39650230943903,-16.23086294857535,-25.613182177836393
0.41200000000000003,-4.932819803892642,-6.687255427871946,-20.140375081145066,-17.14124749733878,-29.181571982357127,-20.502649346380167,-16.257103978509804,-23.697876775046893
0.41600000000000004,-5.053850669555686,-6.472866316995351,-21.10630571229308,-16.35315647271898,-29.29577111576748,-18.751216382356688,-16.062166428228693,-21.91748129391516
0.42,-5.498150690318369,-7.356049756947641,-21.571644106430995,-15.639108632326838,-29.53651196814394,-17.417121793891965,-15.94498838473828,-20.092194118500856
0.424,-5.729530194815993,-8.810362433589034,-21.279535270265114,-14.693126210382616,-29.606215258013094,-16.51083290132192,-15.974201298558455,-17.97086578039915
0.428,-5.208553360249368,-10.200370815086444,-20.257642593122227,-13.450546302771613,-28.989860982799428,-15.811185780099095,-15.959941474167636,-15.467863653619304
0.432,-3.7388906478145145,-11.090581840139066,-18.824134627415788,-12.181797326764467,-27.282585608833642,-15.0110569726844,-15.595188279264221,-12.78602849945878
0.436,-1.6408906027694456,-11.355536542009418,-17.43733158471241,-11.337749126163203,-24.47694393726192,-13.892335105422717,-14.686715354701846,-10.34615319394004
0.44,0.38216592162791585,-11.074712919477747,-16.464145945916925,-11.23435766234661,-21.058983974596003,-12.442789365578847,-13.323046602405611,-8.567293052264176
0.444,1.6052911556205345,-10.363942717550458,-16.011532505735886,-11.795671990762798,-17.854877717685895,-10.876137063918577,-11.887436910917813,-7.647578944352176
0.448,1.68272411481189,-9.282734864296344,-15.892818655818019,-12.515739080996127,-15.689978098673237,-9.526529608854162,-10.897058341853153,-7.478309716363015
0.452,0.8631458313325311,-7.880774620084139,-15.73555220201888,-12.687686243734333,-15.018587092203006,-8.666198517516932,-10.746593284608934,-7.729230634034252
0.456,-0.1298930828853031,-6.338141970198308,-15.173938356365625,-11.801693706142032,-15.71913241264292,-8.357473338377531,-11.493373564831472,-8.05246005669619
0.46,-0.465808654638181,-5.032320348035114,-14.01879467923709,-9.875895594968824,-17.17139827481583,-8.423097363438956,-12.79949063754134,-8.278404680675749
0.464,0.3593356841848845,-4.435836652461717,-12.351943800121717,-7.512814253734632,-18.57978373110882,-8.54981721914919,-14.078334484933293,-8.480366825744682
0.468,2.2405586714211836,-4.87045695899053,-10.496874386091122,-5.611482645553906,-19.340724141605506,-8.440625523681774,-14.756893636478935,-8.847490297500826
0.47200000000000003,4.4899583817331745,-6.257720733860197,-8.883416093217875,-4.863402084987683,-19.242135055986864,-7.919491911512523,-14.522118801596434,-9.43584597223446
0.47600000000000003,6.1576070999511785,-8.04484830267279,-7.878982645105907,-5.323021931786343,-18.42419224131436,-6.9536085798217755,-13.446862024720076,-9.974918434157871
0.48,6.488276517485758,-9.395198422876774,-7.652855186551278,-6.329099804958105,-17.185564839225663,-5.6152822725644,-11.933057279560444,-9.890007216081699
0.484,5.274521162783799,-9.584092877494527,-8.135756057630715,-6.857954376273369,-15.78639876539296,-4.047872734536213,-10.52459341999429,-8.567168291674761
0.488,2.9443578368451995,-8.378928952115757,-9.057641344959393,-6.112289041872259,-14.346281746214572,-2.4377199711002504,-9.666269950929063,-5.720878760071457
0.492,0.3347883867483006,-6.198028377064247,-10.046986019767928,-4.018345433042782,-12.875085101512013,-0.9883992767554446,-9.527321828543563,-1.6490468812735912
0.496,-1.720309934195484,-3.9536217757508894,-10.764068704949068,-1.3422068875747755,-11.39268080550346,0.10327037385513904,-9.965462014752575,2.795278212244284
0.5,-2.7504808166894463,-2.634646667680613,-11.01379324141385,0.6476667230461999,-10.057960595437976,0.671321483760039,-10.625352298402277,6.518024203844959
0.504,-2.7937099369126486,-2.85228326660706,-10.816438649889506,0.7929151142631099,-9.213509706313971,0.5971109190741117,-11.120402486166995,8.636798857023734
0.508,-2.2793054139993956,-4.5766700722928135,-10.389512614245405,-1.3671921469717745,-9.279636780086207,-0.15597710981455748,-11.197749778258185,8.853774527347468
0.512,-1.742612294758544,-7.178811161125623,-10.034060407600236,-5.333034698455322,-10.52439980447923,-1.4896974106404741,-10.817984466791358,7.561771761997761
0.516,-1.5569504871752429,-9.74798771439157,-9.983086543557647,-9.859151851385832,-12.846173115851911,-3.1489971936696293,-10.125321284290521,5.625946612004782
0.52,-1.8018547093651023,-11.50738842915132,-10.279301101787041,-13.53660384395232,-15.725386202643108,-4.767136599675496,-9.340674697888744,3.945549258590461
0.524,-2.315905028251393,-12.128507848377126,-10.75908795393434,-15.447241130151156,-18.400716845923967,-5.993645796322426,-8.645917462233456,3.0199088789230473
0.528,-2.861877695911346,-11.799162251037501,-11.138467906820551,-15.547475273021519,-20.178396943869302,-6.633580383524986,-8.094587950929963,2.7511431114671154
0.532,-3.285028552720121,-11.040619627669798,-11.152378097553083,-14.592006953205441,-20.702849369657656,-6.712877506924087,-7.577441179061452,2.57943319217037
0.536,-3.5741210656556177,-10.401635244823979,-10.674357191593117,-13.662395276802044,-20.05111651893378,-6.438990826220106,-6.84879084981867,1.8539701790342633
0.54,-3.786292987686693,-10.180783583816378,-9.738788778267235,-13.568682639878602,-18.62991574176374,-6.084008518858127,-5.604209557354352,0.22077691537299415
0.544,-3.9211442244882733,-10.311102822513249,-8.48466780562103,-14.456623629151636,-16.948670678624808,-5.862268930800383,-3.605474994396218,-2.182065903023954
0.548,-3.846579998372704,-10.43795621775132,-7.057157580382409,-15.79844862263053,-15.384640910183407,-5.843245655171813,-0.8159791594173385,-4.805255565331208
0.552,-3.364182086837161,-10.140208216182941,-5.537746585479226,-16.744978397317027,-14.050909587149135,-5.941797417923681,2.5007220335542115,-6.968831057608099
0.556,-2.386951773678618,-9.181979404039907,-3.962828952758173,-16.639702613783697,-12.83311732121956,-5.992169357646162,5.763903716771438,-8.181941798885418
0.56,-1.0849616498698538,-7.657265820317207,-2.4085634034653367,-15.40150976946154,-11.573831486706126,-5.868040616546068,8.197563842299132,-8.329362188139214
0.5640000000000001,0.10518964040318224,-5.9716444890203775,-1.0811462527917683,-13.587504207986058,-10.288265982380722,-5.589863216354615,9.077506073655968,-7.651180845430304
0.5680000000000001,0.6531662297390994,-4.670428354860064,-0.3076834369297785,-12.097100428793851,-9.256159736325912,-5.33289130922185,8.033952718804812,-6.552203199537246
0.5720000000000001,0.202814759846774,-4.20403001333716,-0.40174834916899727,-11.686343653669724,-8.912484451417185,-5.312761396239921,5.283498066196216,-5.366550351296212
0.5760000000000001,-1.2164010664833995,-4.743702149425076,-1.4639134857686713,-12.559370249584617,-9.593266250705028,-5.616766893835575,1.6499724035480767,-4.205851051535831
0.58,-3.155770475058887,-6.1294560700108605,-3.2363988287261236,-14.261482960484841,-11.298421299277948,-6.093199688880986,-1.669376514357623,-2.9741309946008982
0.584,-4.94577518619522,-7.977149021280297,-5.139449766377993,-15.942106101486388,-13.62336366498505,-6.402106778788266,-3.549471186436108,-1.5171311807684447
0.588,-6.021777570589023,-9.862611032696122,-6.485721193052427,-16.816191012328773,-15.896130386842287,-6.203170468623512,-3.399097591064674,0.21323320328838236
0.592,-6.201681493374821,-11.483843012955958,-6.779034601655212,-16.547165772200742,-17.4362557824453,-5.36411819490354,-1.4201158223862649,2.0834441458969764
0.596,-5.754371506717888,-12.714126480850098,-5.941050638166644,-15.342889722015343,-17.803236359086213,-4.071411729069041,1.4597374484272905,3.824071451804741
0.6,-5.193494965833054,-13.518305852915944,-4.327119825988916,-13.720974491023412,-16.926238453401993,-2.7673644324706856,3.9799448841805543,5.143794545823198
0.604,-4.923981337564015,-13.819806005930332,-2.5378658740032733,-12.11491214195837,-15.070044762008251,-1.9476775285888834,5.077961229668176,5.825401444888428
0.608,-4.94660425810082,-13.421616950789883,-1.1094997060713467,-10.564208441065944,-12.66083901793445,-1.907620190255784,4.325563954689187,5.757805602272811
0.612,-4.814280527502376,-12.056869055923471,-0.2472297565803956,-8.684549472260983,-10.070493066056315,-2.572559694446909,2.0826019140457674,4.924821504840452
0.616,-3.8837755274833228,-9.56556021226669,0.24670298814316993,-5.945119820657169,-7.476758619393536,-3.524815184677891,-0.6879561961917489,3.3966509262755267
0.62,-1.7158228287088093,-6.080212470809272,0.8259852124045892,-2.095183814152392,-4.8823479164429955,-4.23231978939998,-2.839185097243785,1.3422460303890489
0.624,1.5998152071472589,-2.0880095924491116,1.9085138403563633,2.518515699493264,-2.2727373906775483,-4.369253305351322,-3.5092705084665567,-0.9472463409204579
0.628,5.400405757149059,1.715662990169335,3.628018772058681,6.980747048330841,0.21711127991136436,-4.020915555784313,-2.4202764607842937,-3.0563522148386824
0.632,8.716542367532526,4.718325445196058,5.756510099684419,10.191269938590722,2.2543574206126777,-3.6440088996278064,0.09063916588934262,-4.511194769110546
0.636,10.701685788155487,6.662255213314438,7.825263791518182,11.39511656419586,3.4186779431175864,-3.799276350139735,3.2773914593299196,-4.9288801465037295
0.64,10.998328533052131,7.728174553966085,9.368216124545256,10.554320647187694,3.4017810297435744,-4.803917343402873,6.316363080866836,-4.192197768869221
0.644,9.852106665654645,8.362890400504341,10.137767931451094,8.336876358948814,2.180268616486501,-6.517347896200135,8.611600264722483,-2.5508167738004204
0.648,7.924990265997309,8.948507478728175,10.201092509579325,5.744579499896304,0.07703139906880097,-8.376596132110308,9.982172410395151,-0.5607317415535249
0.652,5.92270700465906,9.508674948698854,9.87575438819249,3.606262691388906,-2.320624887661438,-9.656477706374062,10.668634945414965,1.1441250398620468
0.656,4.263129324733967,9.648709123200888,9.5481029115914,2.2323505890577167,-4.354421447716277,-9.815349288067637,11.162557186772915,2.143768436502029
0.66,2.961205032632165,8.787200731561484,9.482372389024135,1.4124990623443523,-5.531801178894966,-8.745465590759977,11.94754279400263,2.421537830866896
0.664,1.7480162374538963,6.537623053158313,9.686208297880057,0.7211760012993977,-5.712919131734111,-6.812124642472327,13.234825192543212,2.339414658872613
0.668,0.3365686364099645,3.0237639684298188,9.904456636951522,-0.07888514536705316,-5.149436468762701,-4.648805181931721,14.804874513813843,2.4174747407653
0.672,-1.33940791392223,-1.0677068785709025,9.736909842996624,-0.7976634924723953,-4.343253705904658,-2.824367842022866,16.055066964197408,3.0489425304491533
0.676,-3.0722656776214308,-4.767387493680587,8.812169784428306,-0.9135498885985953,-3.798782249260455,-1.5799104858635928,16.257106656394967,4.309559933470098
0.68,-4.49090119523828,-7.27288079752708,6.971421152707649,0.06423145299652333,-3.78541462936073,-0.7680847133362931,14.940995684136396,5.960141061327448
0.684,-5.2572815150311385,-8.323112404829999,4.371310684536411,2.1967430832942227,-4.225815525191763,-0.02888641230583744,12.212924883886103,7.618974705316248
0.6880000000000001,-5.224880339941365,-8.281618937481483,1.476401715566567,4.9520050522710335,-4.750061868918124,0.924824896308337,8.830689830507708,8.985371905386842
0.6920000000000001,-4.478656687478946,-7.886969830085491,-1.0621579893828539,7.407610784087865,-4.876744773974565,2.0940570001238257,5.94666880531031,9.974540966447933
0.6960000000000001,-3.2659843411844065,-7.819513092248428,-2.6198574758294626,8.709852207784763,-4.234065357627571,3.1733494299433005,4.594961121802385,10.691863769272544
0.7000000000000001,-1.873673761832947,-8.33324022224383,-2.823327064401269,8.522332947148357,-2.7350368968522503,3.7252157378602533,5.1782068541709805,11.275851752291317
0.704,-0.5500031153276836,-9.17135568451232,-1.7145783291423413,7.176404173903109,-0.6391891773320708,3.427885724850057,7.220146053709868,11.732662710606547
0.708,0.5178091927322725,-9.775785962820066,0.24749832836027963,5.439958129086563,1.5398759548288012,2.2617529148020594,9.558107198064363,11.895270666116858
0.712,1.190662108617829,-9.644534743566282,2.3670045953740555,4.052257583709036,3.2429541932116877,0.538155425113132,10.915600881349292,11.536350187659934
0.716,1.3707901087041137,-8.624447761251304,3.9917558079107494,3.297915775106503,4.090532893431828,-1.2446449333925784,10.559798554710824,10.559596478033058
0.72,1.04386704413065,-6.9656684787377685,4.783880401656916,2.8715076143382703,4.011658828248642,-2.6323904671523906,8.690922200884302,9.126546585156888
0.724,0.32849815658880743,-5.141799146061089,4.829745713139744,2.096921682888876,3.216556004376173,-3.423106903739381,6.322947431257944,7.612743270970952
0.728,-0.5078611704477112,-3.5738098527552324,4.544502953783422,0.37366197222968367,2.046266096630063,-3.7297593278938166,4.7120374648263805,6.4142327708922835
0.732,-1.1041635004061447,-2.437475541458241,4.421338626294073,-2.408983339971769,0.8075953940693239,-3.8598818495860314,4.652708663317185,5.737265998526851
0.736,-1.1357550324763679,-1.6669722807677658,4.7528227255209,-5.7352203729287226,-0.3184593213670155,-4.0948994205324425,6.038309768069098,5.509486648042127
0.74,-0.44056545515022094,-1.1150906046028695,5.490901349630008,-8.679747583364417,-1.2624032072199043,-4.501713992386954,7.94956414444971,5.47487881828863
0.744,0.9195329978425377,-0.7452042218012593,6.2994969859952334,-10.360684988506875,-1.975754776940903,-4.895417543570488,9.202285103674399,5.406791033659346
0.748,2.6850785411919844,-0.7089863325239776,6.766401853834566,-10.370573544935382,-2.3434276244849457,-4.965448212898309,9.048037104226694,5.28629695879701
0.752,4.494142058380277,-1.2399064745372925,6.651527760211934,-8.945926403660678,-2.162559292241326,-4.4794994170177915,7.613492787021528,5.32415015796181
0.756,5.986281361508588,-2.4404217544903872,6.023039402750726,-6.795370819904349,-1.2119726314384138,-3.445471802430461,5.817626765705938,5.805338047801001
0.76,6.893636713054207,-4.106465940961357,5.220592281963036,-4.696856169768125,0.616762119563532,-2.133774667108014,4.831749334519145,6.852098484612924
0.764,7.0951323050186375,-5.72628502737237,4.65741717340552,-3.10882632935693,3.1947614951445757,-0.9545383295436523,5.39128941436212,8.262678234537589
0.768,6.654168560939297,-6.669425348720154,4.60130337747546,-1.9991850411910264,6.131636341240835,-0.2500689280705046,7.3676560796478725,9.54960373613605
0.772,5.823161719103922,-6.483625574531715,5.056464927278967,-0.9797733286080756,8.888829081329504,-0.12035117582161092,9.839301614656051,10.158407980050697
0.776,5.002922703134814,-5.132468393702311,5.805128191726681,0.3524759534864188,10.99142745292545,-0.38170660000514545,11.605167421835688,9.742780272727316
0.78,4.656248584817746,-3.0254093411291763,6.581900692019133,2.082337646573592,12.229362547322523,-0.6778974031401503,11.83585037524142,8.33032041247381
0.784,5.158752304037705,-0.8385644929167597,7.239616020315793,3.838678442245225,12.728094083542544,-0.6909333799787873,10.482084880407058,6.276162633151614
0.788,6.635387485609257,0.7812782960105835,7.811347028980549,4.947443709100071,12.850616185560682,-0.31921063816639617,8.237719427455488,4.048701608177993
0.792,8.856433094528114,1.472427873458372,8.437394529075902,4.799016957346055,12.987638582799377,0.28572785162805303,6.109952072717078,2.000574982787043
0.796,11.252397911200362,1.2354130804136219,9.197969796687516,3.2163083543092625,13.33257447260695,0.8359717677732306,4.853510472704215,0.26264768933222626
0.8,13.083433450403845,0.3173728654785464,9.972075808292118,0.6091831237758925,13.748764848329131,1.1002430640070315,4.602028599301889,-1.1978029798879959
0.804,13.705348624110258,-1.0048162563284677,10.402328560062415,-2.1986829293196024,13.79385992685377,1.03292368818461,4.859131795776136,-2.427259578197493
0.808,12.81500876705195,-2.5942313497077976,10.014470316557265,-4.376534263114252,12.909384835957837,0.7722810029104039,4.819041341578156,-3.3718520194390464
0.812,10.557922970505729,-4.466121993045562,8.451987506751266,-5.494375381446787,10.714909413498958,0.5200145209793163,3.8295721264486815,-3.8866740838394094
0.8160000000000001,7.45077224856,-6.642076296078557,5.700887696148811,-5.69958412608932,7.27711364684194,0.3946857910568724,1.744249484616148,-3.854672831099947
0.8200000000000001,4.192593841602118,-8.946337371999363,2.2054188583898053,-5.550226724025691,3.219499272218968,0.37085871259898795,-0.9854775619262455,-3.318670860012844
0.8240000000000001,1.4465776480072066,-10.90815120823126,-1.2119669523533503,-5.607876886177166,-0.4119286901917576,0.3278651863424784,-3.5091868334242804,-2.524406504661343
0.8280000000000001,-0.30326412924975443,-11.856618733884005,-3.599460583381017,-6.025802887003948,-2.4996159244431624,0.17931733900900326,-4.944303538910788,-1.827754455308721
0.8320000000000001,-0.7927536414523644,-11.195876214231902,-4.203291171147725,-6.386075610102665,-2.2892053135806236,-0.011485707909400844,-4.7491813873677415,-1.5178317935774004
0.836,0.032736177006853495,-8.729822535625175,-2.752111057778791,-5.907820203818289,0.2730517287038765,-0.029686832367360694,-2.9562323294187536,-1.6822210469856884
0.84,2.0353025473850437,-4.846399186120777,0.4267139908881177,-3.917799537325436,4.456908990350257,0.3625262530337068,-0.17757402281711165,-2.2122687436821167
0.844,4.888367793794515,-0.441098768496488,4.500707802621605,-0.31970195403127377,8.98845234035224,1.2378244322343335,2.6030507367136693,-2.931392561963193
0.848,8.097593271496649,3.4169512193272737,8.420368595382229,4.226729912964771,12.53976586098645,2.39970056874472,4.4033938203854746,-3.745480767759716
0.852,11.086156004647592,5.919378552029258,11.289338262358683,8.545037606388036,14.262912542529818,3.4573470554632877,4.637940891606377,-4.69491455573241
0.856,13.348568584476013,6.829559931227124,12.653965146118367,11.488759147013894,14.129481109164146,4.052704091954183,3.3601596950420003,-5.862612064346507
0.86,14.626749532918666,6.5207228975917815,12.604739228958465,12.498336238152604,12.89463191476483,4.102801709285814,1.2449581985888472,-7.208353757184312
0.864,15.000968430597553,5.7125903111525815,11.63164452526297,11.842305659350984,11.676282595314689,3.8800102067071975,-0.7267620509222184,-8.468595151423983
0.868,14.818337915703012,5.057895664675016,10.31828380353329,10.411066059515349,11.3517382160137,3.8604139410172706,-1.7524844003044109,-9.224434333853921
0.872,14.48509380392045,4.825372527831945,9.050408764144379,9.199560146142346,12.09813770251597,4.424417192113594,-1.6164827094715406,-9.103823135954798
0.876,14.221951812901835,4.8398840025165555,7.880766759273968,8.773818167895882,13.324077924075965,5.594908979397815,-0.7987715034762459,-7.997628691959022
0.88,13.942277202207237,4.709835378942415,6.626443473456845,9.02966864157105,14.023486037619051,6.989709601587492,-0.19221137902343344,-6.146862191701331
0.884,13.317704602443982,4.173331332131852,5.104386865088401,9.337201844367371,13.345562773546988,8.018544683437085,-0.5798939918572046,-4.04246638914104
0.888,12.0026775825677,3.3278566957054636,3.3504911156460935,8.951795611481657,11.064895033701418,8.218227923273105,-2.159551238377503,-2.1996639130218227
0.892,9.870454071044094,2.5927808330441167,1.671930044316639,7.4363103125489545,7.69615275196557,7.526529817680171,-4.407955009489228,-0.9528307769011661
0.896,7.103677768053984,2.4217199659378252,0.48847673568934624,4.863141967769735,4.204792580833299,6.323058940270641,-6.375382281628845,-0.38660926117337624
0.9,4.110399460991218,2.967312904523226,0.07824146355403627,1.72952751571583,1.5116909916703776,5.218107346809461,-7.224198185472687,-0.4124984263284688
0.904,1.3310328647784218,3.9477638997670397,0.3992029789074536,-1.3033031988696848,0.10177827088773483,4.711721065272513,-6.691556946819446,-0.8936084268067077
0.908,-0.9153821942671811,4.842795440655948,1.1350862424260413,-3.6406113124652393,-0.04601005009669734,4.945038915204577,-5.179919850064152,-1.6931453689178966
0.912,-2.4592007470754993,5.303947707198063,1.9502380073446375,-4.832981982712056,0.7983577597696581,5.695864817391794,-3.4193620508058302,-2.6018231977166693
0.916,-3.21012507766676,5.491420920015628,2.7664242340408123,-4.544263613064345,2.467656304181901,6.583881796527976,-1.9506043946855698,-3.239120286510854
0.92,-3.0863022954718815,6.063854795551578,3.845731152163353,-2.5461143200743663,5.033118476434765,7.326343338643483,-0.8033306385417518,-3.092432674922179
0.924,-2.079604505348584,7.723746166834985,5.541605315228026,1.1273997785620509,8.561490216293691,7.835902926255585,0.3557503801156372,-1.792558739275762
0.928,-0.44352593090110304,10.55359454468396,7.842290781042834,5.915835432156655,12.639136844256996,8.095095199849652,1.6936429407461446,0.4769798674835499
0.932,1.1494202120659338,13.58169875038709,10.015215848806918,10.57975371782868,16.051783481071425,7.929488636372753,2.6844116268833886,2.715994841626298
0.936,1.6645629803589657,14.950927502312311,10.650132103256055,13.385454321959514,16.974559626964492,6.888489979648284,2.0148773324881404,3.2619039004767387
0.9400000000000001,0.07253550796980335,12.754181640521097,8.23050320021025,12.708674548102408,13.74281485544509,4.3965216967027345,-1.8553979161400775,0.445096595684106
0.9440000000000001,-4.096260026302701,6.169305630138069,2.0065644232261093,7.839987481895946,5.867954027671033,0.14178855420982472,-9.702827715388935,-6.489833861771501
0.9480000000000001,-10.30157811308294,-3.7281202692115585,-7.289844933635777,-0.4297853001325507,-5.283497366526717,-5.511897804298087,-20.679747078498167,-16.67437906390947
0.9520000000000001,-16.9599035284904,-14.030664824825749,-17.35054206889572,-9.825270579423488,-16.63855358063438,-11.382671191508507,-32.16821057115726,-27.572438382160442
0.9560000000000001,-21.952902882690296,-21.069601853992708,-25.00142892767724,-17.328070679907114,-24.477166271043757,-15.770587148236928,-40.59090647125299,-35.763544859540616
0.96,-23.469731794939975,-22.038520482222452,-27.45329858801358,-20.363882304947367,-25.973906341545444,-17.107295638307278,-42.853593330985746,-38.270043168030725
0.964,-20.793398248295944,-16.378796250468326,-23.529130687110296,-17.89473872227188,-20.475337363507606,-14.66619377253096,-37.73119795438856,-33.8223517795941
0.968,-14.618080364909787,-6.1730947657975435,-14.23431125128252,-10.859974795652079,-9.839977713411827,-8.950208165816548,-26.467044366320124,-23.43007375813795
0.972,-6.72252208664915,4.730439579694462,-2.3542955947614246,-1.7203921710952272,2.3748481062443716,-1.5250803555641141,-12.254242995844834,-9.953878127104986
0.976,0.8157060508827954,12.471133605683235,8.731416381920553,6.664689877255796,12.493551145593301,5.632611368582275,1.1301786777771667,3.1121441583896967
0.98,6.4533574660395345,14.941000055469203,16.44716888444634,12.264291484347495,18.27213339246805,10.949449826743148,10.855730985406808,13.045789500542128
0.984,9.645923321527846,12.650747129285492,19.932560457026966,14.599094899046236,19.644693423791068,13.812014700886266,15.972128537490107,18.80881901961908
0.988,10.778317572661422,8.265558856027837,20.066722684768934,14.651367016368113,18.359655671527662,14.616904101801993,17.366704417474466,21.08578932685657
0.992,10.695972160764711,5.08933503734761,18.687209826952085,14.091908508743245,16.801480947497794,14.350315380846723,16.90741077062694,21.545383202432163
0.996,10.155895847757506,5.317853140802981,17.476727196113757,14.295044285398262,16.696273937760452,13.964084903627281,16.315879014769052,21.802267488571147
1.0,9.525200717851988,8.997250486733492,17.150977549095842,15.696075457909501,18.394697461886267,13.913051239912647,16.39536230873955,22.653076534547495
1.004,8.83420447178105,14.206091303307858,17.326102708776943,17.776872411151544,21.020389636659843,14.063989719303663,16.93413436802757,23.930609871701563
1.008,8.050790193436228,18.29488601417927,17.049646091952127,19.597020227921803,23.258615739394372,13.964163517669704,17.184852808280993,24.923390593535032
1.012,7.302860448683077,19.439827395351358,15.596710892040164,20.474120287643927,24.226342024004452,13.248183719212193,16.515725846630403,25.00427095788109
1.016,6.860509105600272,17.625724804320384,13.014499528642318,20.38304593945759,23.897765185824255,11.912473497335668,14.81646551541644,24.054824723970967
1.02,6.918770300050653,14.548882031498351,10.123260685977584,19.873682749448335,22.90346659449142,10.319836042805491,12.478124381651924,22.468400387620534
1.024,7.365433219116483,12.541404860744706,8.001852613370374,19.60986124477779,21.92704646967468,8.954231184816763,10.050727288154121,20.805799114150034
1.028,7.738396371842555,13.174338491146045,7.318943724440032,19.864287965521044,21.156605466660267,8.107571158207975,7.8817346081232245,19.388060478066905
1.032,7.451506569986918,16.354351922918795,7.938384199707798,20.31237480071627,20.176564201093697,7.705962636248842,5.983045688719585,18.11692249846817
1.036,6.145949600620156,20.398853331306327,9.011233675475978,20.241982239082972,18.344606163255094,7.369901170606681,4.163952871500896,16.620727176217656
1.04,3.9450288628185035,23.016666600869485,9.491256380017603,19.037609399949247,15.357731082700866,6.6625352269043105,2.2969961708747633,14.601399196195302
1.044,1.4206416163299878,22.607012156745213,8.728375030623965,16.59889554713186,11.582557997722915,5.3505583278970335,0.490349286226774,12.122179766656132
1.048,-0.7092845022884262,19.14354666997974,6.791787647567162,13.430047537417522,7.91230076818465,3.532817096564031,-0.9473733859620097,9.640184856007863
1.052,-1.9799456233788533,14.158049069256549,4.347177598530379,10.338479491174894,5.232712832479137,1.5713921712876981,-1.7108843408836947,7.758985896213517
1.056,-2.4360743135842426,9.873672799865744,2.185311609121527,7.929337524719813,3.8566615676943456,-0.1119337492905288,-1.7207659956711723,6.869801786091216
1.06,-2.5769582849563903,8.004803910715395,0.7269890273764759,6.228177535338773,3.3190142719290634,-1.2395502279237007,-1.1931108611261152,6.916335353590625
1.064,-3.0428745187462596,8.882259052753398,-0.2065832493221933,4.666655712320107,2.6747585787759363,-1.7865878877487376,-0.5250655391866985,7.418210086761746
1.068,-4.2371325411671705,11.361784689623846,-1.222327273603014,2.447513529587013,1.1195081202915844,-1.9542258453993782,-0.08486257451295387,7.723345538708713
1.072,-6.100796761829429,13.52332631150091,-2.901393123878961,-0.9180799181738166,-1.4506990200461587,-2.040123697900981,-0.052740719929943225,7.335201447788677
1.076,-8.153128868432532,13.741071336637333,-5.351468093052063,-5.215062460609488,-4.290668619760254,-2.2861387053726503,-0.3959756767355884,6.12619636480747
1.08,-9.741977184262623,11.5362972811713,-8.033443953955612,-9.508533461317938,-6.1727092201304,-2.7749857261378565,-0.9567361913229888,4.322338340623332
1.084,-10.360567070125171,7.761131760424178,-9.992669876029368,-12.549007257353878,-6.062821000588201,-3.424288246789274,-1.590087591500378,2.2950942927899405
1.088,-9.833311480663156,4.072621252699491,-10.361309048432986,-13.36717367803567,-3.7146378130667017,-4.052712029050781,-2.233398917363502,0.3112321992671241
1.092,-8.30658568368915,2.0294253971608214,-8.848403020232354,-11.736778171629567,0.16698937776686762,-4.474066412778484,-2.8660777352615696,-1.5986004946872754
1.096,-6.123639317424022,2.2937190273728447,-5.961686199943188,-8.27012625357952,4.270130670465505,-4.580195868124974,-3.4348073074443164,-3.576871637165368
1.1,-3.6758956998430676,4.35330594739321,-2.8216328515377427,-4.1110265254505975,7.31004138276694,-4.373224653537818,-3.816607081692837,-5.737984196448565
1.104,-1.3221391164277065,6.857320474985045,-0.6710490410159764,-0.42536507383397293,8.593892752778402,-3.956715060665829,-3.870914207732312,-7.975885240281741
1.108,0.6233469837595749,8.342787651390381,-0.33074918193142366,2.0358736555213,8.21083719033254,-3.4945618839524286,-3.5586261451076098,-9.919863103584703
1.112,1.8865954684953294,7.9464043604154995,-1.870013642120739,3.09330583299743,6.793552833149988,-3.1527022469417716,-3.03839116789095,-11.079859099785835
1.116,2.2699720542206023,5.746843990604702,-4.645981628686059,2.9850219638244653,5.05450671347262,-3.041537183060427,-2.664113860048019,-11.11176219859692
1.12,1.7389837614607586,2.610309422320597,-7.665710040309023,2.05599823150078,3.391380850865744,-3.173587225303436,-2.8574454490421886,-10.057498496294102
1.124,0.4817933026558876,-0.34438230576233764,-10.08626020651991,0.4972154807114748,1.7699569675448856,-3.47066660597784,-3.925383357316605,-8.420003522448269
1.1280000000000001,-1.1286430720610952,-2.3456137385135207,-11.58525841649498,-1.7094146904130412,-0.09582870714075398,-3.8087525494629517,-5.912168990701957,-7.004489245076911
1.1320000000000001,-2.689447530154439,-3.31773294693312,-12.431531611140144,-4.64904636841311,-2.427070271152388,-4.081202419070905,-8.56192763454328,-6.587166061154676
1.1360000000000001,-3.963034605917642,-3.8208522247773544,-13.23529801252107,-8.2564294532649,-5.142588763744698,-4.243664660178183,-11.41803399563787,-7.564116945265823
1.1400000000000001,-4.982031256925211,-4.637894049324586,-14.522646661737326,-12.182520346803585,-7.839184209755786,-4.297966144766178,-13.995545520247106,-9.750988148616102
1.1440000000000001,-5.99867009672505,-6.270810583486764,-16.391485208553604,-15.858656911521848,-9.992061836605899,-4.248114445378633,-15.956132772012097,-12.450739945420992
1.1480000000000001,-7.284832348788996,-8.620937088603796,-18.42540119282239,-18.72338009736586,-11.23518808544759,-4.056662850895009,-17.206450767633214,-14.774820003611467
1.1520000000000001,-8.890169759309288,-11.017369356376093,-19.905694439913532,-20.46297704426911,-11.543064791604593,-3.639517526095915,-17.883261228123047,-16.05916347142579
1.156,-10.532959208020657,-12.57964126064553,-20.21457751470325,-21.122574473794884,-11.223609322170432,-2.919024118659763,-18.259109390910908,-16.17268636604217
1.16,-11.692649987294203,-12.697326217747786,-19.186036941190196,-21.01443045456017,-10.734233172995573,-1.8973996891982097,-18.601414939545066,-15.559923472476385
1.164,-11.876344483758771,-11.370930894261392,-17.22057837007287,-20.497188953052046,-10.444809053053177,-0.7125446123591246,-19.049257864530773,-14.993774050000411
1.168,-10.911707275532308,-9.228592198539445,-15.094486199472158,-19.772294994053937,-10.486330523000106,0.37196112836500106,-19.555063412868094,-15.163362977216138
1.172,-9.08626865348674,-7.2130937593744875,-13.56641383908891,-18.820133053005975,-10.742158854177433,1.0596789396568056,-19.912750620163933,-16.31139415831558
1.176,-7.0390028263910835,-6.106184498045195,-13.003850546077047,-17.500620724560576,-10.952055882753939,1.1647919216302398,-19.870461621252616,-18.101233002387062
1.18,-5.454424174147789,-6.143521905108173,-13.224591958950896,-15.724936497538238,-10.85297023997964,0.7345130663206874,-19.27084652413987,-19.775925297246204
1.184,-4.726335666665705,-6.93457846918227,-13.648690139737027,-13.583565984492907,-10.294012767253207,0.05946363924522302,-18.17185492048293,-20.5236220071356
1.188,-4.763937358858016,-7.71765916980371,-13.661391828334672,-11.335182649831495,-9.292621553909612,-0.4403062485052942,-16.86756975648268,-19.84910657465707
1.192,-5.067961674705998,-7.818806011328206,-12.989400106233916,-9.277143866954248,-8.047110914960285,-0.41583943310433824,-15.777300611544888,-17.773248824184975
1.196,-5.043146297758426,-7.060181849147057,-11.88627892522527,-7.604754282161139,-6.918836138603183,0.22012325235118624,-15.258127945653541,-14.777978166383946
1.2,-4.365665060880133,-5.883756478619034,-11.005096125607452,-6.350645379132857,-6.365998198592024,1.2263773551703707,-15.414569687410676,-11.552391927464214
1.204,-3.2087218621891225,-5.127430093722296,-11.042506005443556,-5.455495062567479,-6.8263768031920335,2.1299041805568777,-16.01731384921777,-8.702029177311033
1.208,-2.1794317126241367,-5.561666724999668,-12.336820686300598,-4.90331743434399,-8.55877921469937,2.452149971378276,-16.59403180645222,-6.5685197932768915
1.212,-1.9875935778343319,-7.445124209299593,-14.645312820755862,-4.811376675133943,-11.498877961959806,1.9485468700759156,-16.670355255394952,-5.226499351833809
1.216,-3.0326614258176505,-10.349333858796399,-17.227642664674477,-5.397823733749647,-15.20006261956405,0.7396933742875262,-16.041226513393212,-4.610452383071561
1.22,-5.115817423200724,-13.330234978161116,-19.160682611626726,-6.814797105694652,-18.90980590983645,-0.7211204199475105,-14.903755575136529,-4.642756758690211
1.224,-7.440111645737943,-15.365832875700107,-19.73490492966539,-8.96259956109725,-21.791752489949886,-1.847714023264416,-13.774486814021202,-5.271512489382758
1.228,-8.912549341075646,-15.825737343920991,-18.728607661350452,-11.42134251831294,-23.2232459298134,-2.1882122708047973,-13.211641599891664,-6.408325648329765
1.232,-8.616447214640857,-14.720568378749704,-16.43312368906163,-13.563314029481262,-23.020906821191602,-1.623760066561772,-13.479511330179776,-7.834596765321521
1.236,-6.240404217721107,-12.624479644041458,-13.45480596017569,-14.809190272178057,-21.466857232245275,-0.3999197006005488,-14.361021555834668,-9.177179829907118
1.24,-2.2362447966322634,-10.326186800537926,-10.402955604981798,-14.869369698551054,-19.110330070963755,1.0316147481944427,-15.218656886028839,-9.999719699554817
1.244,2.338272417972348,-8.429390709507516,-7.6527230770698225,-13.846396567892498,-16.465113187451152,2.2566908920443893,-15.315922680432777,-9.978300489361345
1.248,6.234264529464099,-7.112414913704924,-5.288516704151334,-12.140531142710643,-13.776509727640587,3.1000131502987642,-14.227873174158958,-9.057400856314416
1.252,8.494241786291468,-6.165343795089029,-3.2233990583326886,-10.224435729383458,-11.002376286237904,3.6751165214727735,-12.118349687232694,-7.488549148595666
1.256,8.776355600591614,-5.2505526298305085,-1.396412986347059,-8.425402522151217,-8.011543651130523,4.261235139248129,-9.719282111089342,-5.712306892020479
1.26,7.40521519050958,-4.1980458787884345,0.09743307566168369,-6.838907060866404,-4.865158730884104,5.0959596535667515,-7.999383863953881,-4.1421689358683125
1.264,5.142164722088637,-3.1580942964824317,1.0122618274417619,-5.412183095257205,-1.988190279684659,6.203372383231908,-7.688504842181828,-2.9723482451047403
1.268,2.8102226780297315,-2.5173975104780766,1.0936678213292907,-4.117222023376598,-0.09596083120550247,7.3595280603067295,-8.90008312639111,-2.1217035228974055
1.272,0.9629948794738539,-2.644385760369005,0.25867348629162734,-3.079834335298983,0.11642815106642956,8.215269964826803,-11.055962791426282,-1.3356954937846695
1.276,-0.27901393058141366,-3.64205016503729,-1.3088789107496268,-2.5737276543868575,-1.6477864803109696,8.50227461184113,-13.165734503415479,-0.3833412861340548
1.28,-1.1718492701140804,-5.270032551650729,-3.201708905015039,-2.87752538055247,-5.07019741086242,8.20589073407973,-14.308747910826241,0.7648488724030358
1.284,-2.133773213686254,-7.099507875949712,-4.970273431616988,-4.095963130265773,-9.31483646338711,7.586966292979923,-14.080990019087949,1.878389699782474
1.288,-3.4857272752592507,-8.791343129417783,-6.3306096071200955,-6.061226896475546,-13.400562635882125,7.0289360216611385,-12.777934159425968,2.557221249329814
1.292,-5.271184111244565,-10.309408621927105,-7.2675347008953395,-8.378257268979269,-16.632960883334817,6.801209805220424,-11.222406136886093,2.4195260200883695
1.296,-7.227070146299411,-11.9141593326367,-7.97474321044956,-10.581549223332786,-18.836365390761785,6.8827873390018794,-10.338761356747455,1.2926903040545312
1.3,-8.890572393027696,-13.914525009557565,-8.647683466838316,-12.281555871104501,-20.240196374201332,6.971939124920027,-10.678880008114902,-0.6782755988419922
1.304,-9.80204980694839,-16.333794739429322,-9.268300167842426,-13.229167219935334,-21.107440146772205,6.670436731814334,-12.149462544133712,-3.055354714942041
1.308,-9.70575754804031,-18.703585150305116,-9.514893146731993,-13.296841694453178,-21.37513206908079,5.741938754441435,-14.069572899683408,-5.253504498749862
1.312,-8.667057205468609,-20.156909740017,-8.878561003209143,-12.431946093358874,-20.569449053702556,4.2921140610033035,-15.51150950909414,-6.753155399403568
1.316,-7.066054108440312,-19.81560732521848,-6.955643694861465,-10.6548923973196,-18.08541320247059,2.7516182537892746,-15.740066040306374,-7.287981414846854
1.32,-5.461239622315134,-17.276574556281048,-3.751146473168774,-8.121532968841166,-13.679374218937483,1.67092094540385,-14.518118686206435,-6.931793528413436
1.324,-4.383400539014929,-12.927053967133816,0.1714332772698981,-5.2041749660274945,-7.865262380988497,1.422708497973872,-12.16089746236139,-6.057768686484451
1.328,-4.128713151064858,-7.875852200899317,3.8182243612463935,-2.487075206409827,-1.9254062105228513,1.9823081796821498,-9.332522699497531,-5.18328320383489
1.332,-4.638055471945563,-3.507110237550478,6.131801885904679,-0.6210695258823762,2.5360566805529743,2.9095614963916887,-6.717697377488548,-4.7645716698921206
1.336,-5.54382133047352,-0.8879091890125892,6.424070283159381,-0.08245183838653247,4.292506555404543,3.553207455026495,-4.759875684377221,-5.019900858198525
1.34,-6.364850581010614,-0.33245333282911815,4.678121539723179,-0.9520262635696781,3.073526829549337,3.3833889695379185,-3.5740657725073106,-5.854579092901076
1.344,-6.758465139371083,-1.3649797656485134,1.5451729312717362,-2.8530829941937554,-0.3090980528431828,2.2672483296737482,-3.0448822264261253,-6.923908289648352
1.348,-6.691153491568457,-3.0770164231039416,-1.9577160802482467,-5.101952202104258,-4.3733627087331115,0.5487472523218457,-3.001777860024049,-7.806600230970616
1.352,-6.43030689079319,-4.653357051462081,-4.890389718568258,-7.007119290850824,-7.693389981529435,-1.1113273671762727,-3.339902535341025,-8.206050184308879
1.356,-6.343707889816187,-5.758202602045458,-6.752012844712226,-8.147715625953424,-9.531614158626326,-2.043429034503788,-4.018279893635736,-8.07662311412787
1.36,-6.600296816311584,-6.5554487099320795,-7.575465290311513,-8.465410227498069,-10.027775294777712,-1.862447538471315,-4.945613828001115,-7.606658644532672
1.364,-6.969877744238602,-7.385260255290177,-7.745514654885483,-8.151487893518606,-9.877537361943723,-0.6207794408255722,-5.871181650866674,-7.08134947376675
1.368,-6.847007821285615,-8.328741527441707,-7.659325017556512,-7.412835065029867,-9.728217950625549,1.2498472843253694,-6.382946877414724,-6.704985786213456
1.372,-5.542795284419071,-8.986530415912966,-7.4438216048347385,-6.295195714550573,-9.693718287608135,3.1558386880315084,-6.054638143507873,-6.497318233010901
1.3760000000000001,-2.720887260851896,-8.649835314528445,-6.8953161259150875,-4.689288194813344,-9.280886613320945,4.604492500218839,-4.672421114792087,-6.321172035010932
1.3800000000000001,1.2846764258397343,-6.765296705810215,-5.641737220612413,-2.4997433189391813,-7.747352319781385,5.39908023064163,-2.396444337282446,-6.018765036599234
1.3840000000000001,5.457736288142314,-3.41200070346531,-3.4396008946914662,0.13606001109474164,-4.663294312697872,5.667021868761367,0.2460566454446962,-5.576037027486564
1.3880000000000001,8.455944946249929,0.5483907877655838,-0.4020876370741462,2.7571781851129344,-0.3150249414420614,5.730832471654139,2.5686991844922886,-5.200541785207861
1.3920000000000001,9.19150890155538,3.80530644757755,2.9725745929581535,4.704928758830647,4.313328722595543,5.900299215991254,4.041366222354554,-5.252707181353799
1.3960000000000001,7.349452140370204,5.265550027499103,5.98493749451427,5.412252439740769,7.990349841301395,6.292516217610682,4.545598666032674,-6.054868665120921
1.4000000000000001,3.5809661111288733,4.6894783657344306,8.04682976208096,4.700775519575473,9.861954770534794,6.779644688740518,4.440156142001797,-7.678120441168176
1.4040000000000001,-0.7478050512868322,2.9074632619804106,8.925815688518014,2.890065682469867,9.882934147412925,7.066800983158828,4.375904246335267,-9.839004286840918
1.408,-4.117829367532067,1.4677461734700046,8.81143322679236,0.6577796619885703,8.805731887579896,6.858787194303659,4.960640992868321,-11.9725936488353
1.412,-5.4554469610070555,1.8709388268907787,8.185970825995355,-1.2703169083024477,7.7389731122657395,6.027106144774734,6.45131518380731,-13.450703423723098
1.416,-4.4984266255883085,4.785059910997916,7.572692394292062,-2.426828266632583,7.538611611716988,4.685531859786352,8.62347884128485,-13.83486312131572
1.42,-1.7759106140497352,9.665213510690592,7.310747533658287,-2.7275859439532724,8.381038804284799,3.1529083044442814,10.887594501535204,-13.034370955972008
1.424,1.7271237074851342,14.97515492680941,7.444006657580758,-2.3832187280486323,9.740947013909135,1.815165401196282,12.571094516981248,-11.296066323383457
1.428,5.008008118148155,18.892705319201923,7.754636891228984,-1.6802175890079525,10.750929147380702,0.9586880472343182,13.221898568690449,-9.048932971876184
1.432,7.36150838199319,20.121361787962996,7.892957738864425,-0.7827123865881731,10.710151897221294,0.6597266401167872,12.779754121225778,-6.705093023287191
1.436,8.461968560498462,18.396466328829774,7.528105824688282,0.3231001658141395,9.45375085935757,0.7809129606812348,11.543675082020854,-4.519233919531416
1.44,8.271661650156148,14.488235582706693,6.4737255684904085,1.745633866847129,7.399100315851683,1.0842325645062374,9.99520437382489,-2.566006415497668
1.444,6.903529736973724,9.75530790908033,4.737110225647484,3.544165587639327,5.275010923675836,1.3820342273011192,8.57286018918603,-0.8307367656479983
1.448,4.5739579584274,5.531784100680852,2.513776866178887,5.638840329459526,3.7181499886737583,1.633924205583753,7.530960394813519,0.6612554770672432
1.452,1.670985659305643,2.664554827308166,0.14714792054473946,7.829683823513733,2.9813301864342066,1.937040019689448,6.9363667231555155,1.7722541523285145
1.456,-1.200230347215438,1.361955169333669,-1.9509772897072253,9.877462099093464,2.900946445378395,2.418327410639904,6.7518047967660095,2.28335599921229
1.46,-3.3160828505597237,1.338522825808468,-3.392499942900031,11.56789473070603,3.1128317968823467,3.1087010252449545,6.941446427561459,2.010543313616381
1.464,-4.097962207787532,2.0929765477421824,-3.911653449626101,12.704601089957578,3.3501548773820105,3.873217737136656,7.51425676243889,0.9365354042583931
1.468,-3.4090482364244963,3.1523968848869117,-3.436222559053931,13.066746818303727,3.625775439474637,4.4528117437475885,8.488824176782146,-0.7237774374830224
1.472,-1.702308802799962,4.189420049698128,-2.1034835108839616,12.403111387194258,4.187343682761821,4.592454408326375,9.8162434485821,-2.5724001277226307
1.476,0.12005104372292408,5.024131632006174,-0.2121221553261421,10.530718751475433,5.294124581045253,4.179541644241908,11.321913567502634,-4.168024604713992
1.48,1.1253147652378175,5.594678519596528,1.8824418084259378,7.530333764259922,6.978820284415633,3.319945894585544,12.724160093090177,-5.1803192007078
1.484,0.8307404489487453,5.931120988722796,3.868263241931345,3.904224645592876,8.940659745662742,2.286591375072021,13.707332475725707,-5.490294269651713
1.488,-0.5300015490447549,6.1332841277289845,5.533311416947981,0.5405851941795845,10.64047756274158,1.371390298141705,14.024144882059772,-5.1876478949579905
1.492,-2.124421359723783,6.330662860862503,6.7653756449399225,-1.5712409351681345,11.552419155221287,0.7309436052946694,13.578148537302695,-4.469069000485433
1.496,-3.003230149186493,6.590560845259461,7.505546719810809,-1.7809564972785665,11.4229622175244,0.3228659882552165,12.446816858524471,-3.4981555919957827
1.5,-2.6688048040814465,6.827981406119761,7.707890881811181,-0.15305230895046407,10.388264331380014,-0.018270347702127765,10.858433564873849,-2.3110518760177
1.504,-1.3999544491680354,6.79011683166209,7.325161218543144,2.448049840638305,8.88597291505539,-0.4301207648932177,9.130674447793353,-0.8229361906892336
1.508,-0.12018360467027378,6.159316171465434,6.334856097178999,4.670903073172667,7.407910560283199,-0.8937088111924822,7.601661230219179,1.0671976944927337
1.512,0.1347050078547909,4.732515847874311,4.773944155056597,5.266263410274405,6.232721446915093,-1.2207759295033611,6.554269250109428,3.3273290896722756
1.516,-1.159014631053651,2.5659795989413396,2.73767764418335,3.664800870392355,5.295163724746999,-1.1799863317901327,6.121693227230935,5.692840630078081
1.52,-3.6589104511936057,-0.005345177966773917,0.35632398330744763,0.2644375367081011,4.2664656353481405,-0.673137944759219,6.208066624863932,7.695949671550807
1.524,-6.302666118228444,-2.513594306388768,-2.2462711916214175,-3.7403503427231044,2.7897458844636276,0.1432917232705222,6.457982249386987,8.82106856270093
1.528,-7.873231264806691,-4.586286828984157,-4.9756966099994315,-6.912291866669875,0.7289439853993827,0.8783679788393783,6.327184854166262,8.718215445723672
1.532,-7.655727290396499,-6.116247069347082,-7.739183393061467,-8.226928248608601,-1.71068703660967,1.0715192063216818,5.275068886789086,7.370417231273677
1.536,-5.820528194466533,-7.25994669348529,-10.39289271609232,-7.511207075204766,-4.057304389357341,0.41625997572555207,3.024730598937822,5.120600047592234
1.54,-3.3045733131843917,-8.241386503169451,-12.686941936273797,-5.44552816371106,-5.790807806453813,-1.0799644644430373,-0.2139443937830947,2.538656683675981
1.544,-1.2873163709618893,-9.103880179988664,-14.281751192102092,-3.169949891541364,-6.5889541590440786,-3.1056973588893015,-3.7017127475210145,0.18914361493034448
1.548,-0.5632695291342316,-9.576554545559702,-14.839502784707292,-1.727509809892581,-6.469093462212186,-5.217373010233132,-6.376482230622059,-1.5944098673462577
1.552,-1.1671642081760183,-9.167562608079606,-14.167918150698824,-1.6312184691978473,-5.756945707144041,-7.074180575167702,-7.266358995586415,-2.8159587802374517
1.556,-2.464254936989164,-7.466206928789688,-12.35064711798259,-2.750205988642847,-4.901369109911684,-8.591902911681245,-5.944198525243337,-3.751611627873899
1.56,-3.609160537232583,-4.462322118488373,-9.76098981656105,-4.512361170590339,-4.229080950197385,-9.90875243037226,-2.7769794914802333,-4.742041896432056
1.564,-4.066658385834671,-0.6698407927924563,-6.95567951180783,-6.271755394182037,-3.776434344723384,-11.190318509739882,1.1613189521194727,-5.963023833245188
1.568,-3.8613499497159864,3.045786036132995,-4.480738191972705,-7.6202968357602,-3.283313214793452,-12.403509340460005,4.519271693110568,-7.297157817849438
1.572,-3.442473247431735,5.851924202821465,-2.6744856209279533,-8.49057048834311,-2.351725624392202,-13.210892888298986,6.262256188014362,-8.365336538055544
1.576,-3.2792515250748693,7.338036984335304,-1.5713149155672,-9.034719962233794,-0.6782515202794457,-13.069035645530676,6.144419797206865,-8.691244811067008
1.58,-3.4677790022096815,7.6916641064499345,-0.931791893857735,-9.382486465323382,1.7678861109452555,-11.484551757734152,4.829606532861362,-7.906310528810536
1.584,-3.6259874699494503,7.541055160372707,-0.40172198547770677,-9.456995254760841,4.697413016583596,-8.306780165745295,3.566245536392671,-5.89891282188546
1.588,-3.1450455786498424,7.554385504716265,0.27746926566396724,-8.974252530573722,7.5904596347718325,-3.8945396078852355,3.567045125797449,-2.853774041342149
1.592,-1.6385262552998938,8.030076499650022,1.1124090544599312,-7.626565728996866,9.880208273493736,0.9444401336349983,5.3992851753046125,0.8137217775047247
1.596,0.7109782347113196,8.721275413178319,1.8281126524098,-5.3248181710059725,11.16273326933333,5.229091964963118,8.688559410709786,4.596042312308327
1.6,3.149515233150737,9.0008629705585,1.998218458653355,-2.3322314281294894,11.351522927087444,8.175931969724843,12.297209358639975,8.046165707090267
1.604,4.711005342132921,8.270036840067405,1.2697421354660037,0.8025377717003721,10.715209165614397,9.480561152022347,14.884681237304903,10.88926637081886
1.608,4.746618140540704,6.371351731513641,-0.41526893530681264,3.501209901891343,9.78310612374844,9.389243571094994,15.570257460181892,13.07260379600757
1.612,3.3016442480725345,3.7488245723470754,-2.717573815540163,5.454031424702407,9.142940355652172,8.533916487573151,14.345013590726012,14.745302217123026
1.616,1.1083347972412412,1.2484666820510029,-4.987675442984255,6.7764539626714395,9.201360024089809,7.61434118022953,12.023314093332374,16.169932729018
1.62,-0.7938368763916515,-0.3202383839625327,-6.504657112143832,7.930820313478762,10.012042596810716,7.107595784400473,9.780842822678096,17.59613778527273
1.624,-1.605875635978009,-0.6198808312474284,-6.785472640040098,9.426043423766714,11.239573768318223,7.125377700136596,8.517362248294376,19.12793952730499
1.6280000000000001,-1.1649898229125029,0.037033223066828214,-5.801140589259376,11.462028236350307,12.294465716973718,7.462903372437722,8.409906549095467,20.648679344777975
1.6320000000000001,0.040302650003013696,0.8803659623808926,-3.9737146638181002,13.742364488574822,12.612776149366255,7.795820108269254,8.907049875495431,21.864094152326288
1.6360000000000001,1.208160051177856,1.1204350595089636,-1.959992522813991,15.582160094094434,11.963482019773437,7.908640249588643,9.145615632596673,22.467324935170836
1.6400000000000001,1.7087381386713787,0.3912380714491519,-0.3129773456712428,16.286247288906452,10.630459066389449,7.836397074381239,8.539405641200574,22.359179823033628
1.6440000000000001,1.4062677321189767,-1.0819137055141255,0.7700354694861744,15.564134505313632,9.3300323370986,7.825182537366345,7.159187665922218,21.783266567373175
1.6480000000000001,0.6423763553380013,-2.688560201537257,1.4561888879525213,13.72295862691044,8.842621526020594,8.140634669030987,5.662609089828038,21.251839833985287
1.6520000000000001,-0.10425574402916027,-3.8934941478692053,2.0233679648208636,11.485904946157461,9.502550474984673,8.832084160982049,4.7823396602198045,21.241624274212427
1.6560000000000001,-0.6742415129101573,-4.69846236263038,2.469044805642625,9.492656065309347,10.806676561363929,9.569921665799484,4.660808915125017,21.790673367921954
1.6600000000000001,-1.487360327065744,-5.8059320532456695,2.244374410916862,7.7767701099364785,11.385947340982966,9.66410753683158,4.474682947306064,22.231518576665167
1.6640000000000001,-3.4295537765110566,-8.353829995988235,0.3309156555424124,5.569836296139329,9.456742981774369,8.28527290470447,2.6422323781443993,21.278574724257396
1.668,-7.3801966833934785,-13.320772938109258,-4.283485501238829,1.6434947338084385,3.6343876415430714,4.825770587813167,-2.4033028041230864,17.53464098053746
1.672,-13.611644275205435,-20.89188195623774,-11.926772584132777,-4.911087094481445,-6.25321205439468,-0.7541746675669856,-11.23299607665831,10.24227019363525
1.676,-21.396113416024036,-30.115075321291442,-21.722902290883212,-13.863588500641526,-18.750967490945186,-7.7552326946824905,-22.76583193942497,-0.07767326492648863
1.68,-29.051516940756756,-39.05597772008241,-31.5589826689029,-23.469446079783665,-31.015673881479415,-14.825109662284376,-34.35030101895245,-11.474491548184233
1.684,-34.44998693418984,-45.412811920688,-38.66157916193515,-30.847134568934962,-39.68017766882349,-20.297753182669112,-42.63295196920444,-21.065626395872187
1.688,-35.800683097774254,-47.34261050753139,-40.601168448518365,-33.05053633149237,-42.03841282032954,-22.68610452783105,-44.86352153918051,-26.044750297672635
1.692,-32.367863638678955,-44.13794902454447,-36.29340485900502,-28.378291232993433,-37.068257244351116,-21.161332679756015,-40.04112898995663,-24.782484093141647
1.696,-24.807834220774566,-36.47267086453121,-26.525560420379406,-17.283728905340467,-25.852160773772084,-15.852065824781675,-29.35132763598085,-17.5169339783547
1.7,-14.969279144715074,-26.127157490665013,-13.725948434141173,-2.385777343644804,-11.206546781157158,-7.840955800838856,-15.68677913655847,-6.2947644693831535
1.704,-5.242356673791619,-15.32912246262913,-1.0606993989167677,12.480631089731105,3.336676138907933,1.1438694004737044,-2.487692299306218,5.819443664525352
1.708,2.2789559571851896,-5.998680714122202,8.75130953950611,23.758589815677624,14.771558614233072,9.236814275427605,7.553207085637041,15.897454528802427
1.712,6.488252796769757,0.7992668149936435,14.378625486007877,29.511287096443994,21.56363671237432,14.961992147147612,13.335835277895967,22.137384287700115
1.716,7.546013241212677,5.0046092033035166,16.160473870881106,29.986848780764376,23.93592298421663,17.5954204210193,15.417628359453374,24.268782990132422
1.72,6.645032553303281,7.306589399304357,15.665015811282501,27.17978562704593,23.451013681103177,17.263142133379006,15.367659214354717,23.268107537941432
1.724,5.376268365941996,8.635701708752094,14.775887243449688,23.658380283087354,22.121315756498916,14.766787544382169,14.807664405963806,20.618906181995953
1.728,4.990916669264152,9.651637060744179,14.767931236267032,21.28686812048454,21.461923782054328,11.23522601158038,14.642414034149624,17.55345217496324
1.732,5.886580001681523,10.451371217449378,15.801827263698215,20.466384946409562,21.887105768706533,7.736174865844077,14.812279044979732,14.649134304419022
1.736,7.519145289880726,10.596012394574245,17.018771331018797,20.20188012687504,22.6662820803449,4.976779883287236,14.594059251850922,11.905561147152639
1.74,8.768219202481305,9.416202151284779,17.126730393885737,18.877727167171543,22.41206226414215,3.1962594853575865,13.207800189702539,9.150044610651548
1.744,8.564179397765201,6.435742066249077,15.142221085679921,15.287772327949824,19.849968957626515,2.250336044242431,10.367978278152805,6.45234486132631
1.748,6.46912551286141,1.7127261142031784,10.923152889930861,9.372422245210146,14.511967082597948,1.8189583255516482,6.503504393382173,4.268672427192996
1.752,2.9257750905289868,-4.055287382157076,5.263440662704852,2.30976699445182,7.035398379885919,1.6196859554875118,2.569019490019855,3.233680942650608
1.756,-0.927438313253333,-9.711028671601525,-0.4573542665793866,-4.01770600178952,-1.0473825501612737,1.5278564678446855,-0.41216871546566836,3.7501357768051093
1.76,-3.7810688923354974,-14.023451837625544,-4.858550518439188,-7.858290837184541,-7.905302033113003,1.5748874714481644,-1.8123228673794074,5.65466961842958
1.764,-4.758228031497765,-16.113993829390893,-7.091166106615674,-8.30700298802094,-12.111148908967152,1.841393758160848,-1.6506696591040964,8.190043016714753
1.768,-3.787231174057979,-15.73922120723546,-7.085673884971584,-5.593807936605117,-13.13682735959992,2.326150495764523,-0.5310768344697863,10.317930483237888
1.772,-1.5678798528379048,-13.321996298273916,-5.444591826232681,-0.8813548689022355,-11.443120194642688,2.8572499225301726,0.668491804792211,11.19734263707096
1.776,0.8336211393525446,-9.74277440881633,-3.0870171391670738,4.266034031307754,-8.156032100379889,3.0991230984909635,1.1871699805151366,10.561638701977245
1.78,2.545236191447657,-5.989821864737678,-0.8246845850298996,8.48689118787297,-4.499841495471628,2.67892407970794,0.6973482696403153,8.809993339362336
1.784,3.2925334058122644,-2.834430797839559,0.9259085299318031,11.053157502467911,-1.2673219931184576,1.370334236884446,-0.5911711497756187,6.776011837523583
1.788,3.4436730849283776,-0.6586018174739365,2.187013202649723,11.995475868494395,1.428782011525982,-0.7537849377968087,-2.066809758069212,5.318541876015388
1.792,3.711207175833806,0.5427396807663172,3.2488937357829855,11.955137264541008,4.028321524690909,-3.2772374239011697,-3.0068311923896545,4.960120447738518
1.796,4.682045774437938,1.0223062205468523,4.389723394517205,11.842119090690176,7.109763044266401,-5.56210222369009,-2.9106224586230383,5.728861029471318
1.8,6.447398992784201,1.1007762333520077,5.656045559608174,12.435916742643712,10.929885890656806,-6.986047992879321,-1.730943911274153,7.243729046309454
1.804,8.527069755921502,1.0248824328509727,6.812676888494025,14.06914966718523,15.167654982446038,-7.193259163839684,0.09155307293804071,8.948286575823658
1.808,10.114136654985941,0.8977366108051683,7.473100872700343,16.48457116188365,18.99978475261196,-6.257937788528579,1.8055139155894722,10.34331651922048
1.812,10.50303557590837,0.6842819651924401,7.325860257186832,18.92146286177922,21.450197806028882,-4.670053170359097,2.673504140345358,11.108430238167784
1.816,9.44979393313497,0.254582181936712,6.3234826720809,20.398593959597747,21.822461270929125,-3.142240102704818,2.2891233155278314,11.108190420693973
1.82,7.2770429217878245,-0.5541831779059976,4.733566473623796,20.10194604636672,19.993479400434808,-2.3130776808939117,0.7476532641321683,10.347844563479612
1.824,4.699440835787982,-1.8532204572888986,3.0264940672177545,17.736787370223283,16.445305967567037,-2.474891515732452,-1.4025084583863645,8.952853708555267
1.828,2.4700588601742766,-3.6141052804864557,1.6594695878657149,13.681010559126662,12.033500325282148,-3.461488244098291,-3.410813427055473,7.185448694395291
1.832,1.0488071692225276,-5.606773107379922,0.8720234767015427,8.85330138521931,7.614898684454602,-4.7599078265138814,-4.661857969811535,5.444357507971745
1.836,0.47421760250426814,-7.403433591288376,0.6023724830838546,4.357030214898259,3.731421315010266,-5.787425256929055,-4.93948747133345,4.189619343240338
1.84,0.47990266351735045,-8.476946418002626,0.5782368268819482,1.0731998795672553,0.5055336645145871,-6.190137773013703,-4.480304490463823,3.7886984988008408
1.844,0.7476140389908323,-8.387099279305403,0.5196275828329817,-0.6155268217498815,-2.232748733167682,-6.010917981951934,-3.8015631162370482,4.347603976616483
1.848,1.1354812623230828,-6.981275458736945,0.3250855028818478,-0.8470504313263518,-4.6856775472879235,-5.6363232722833345,-3.4114029158026824,5.629075562163962
1.852,1.7522614159215664,-4.501180354182452,0.1347182249865,-0.06975723097002628,-6.860015093966467,-5.5605086537416355,-3.5650745245475264,7.128566247050458
1.856,2.8431310357668735,-1.5231696297032613,0.23233110098226462,1.2434978299370414,-8.501804146019822,-6.0959249318566435,-4.188958611837734,8.28799341750755
1.86,4.562627366169409,1.2625621491124548,0.8524893149515265,2.789108792357638,-9.218989584234805,-7.185629235627857,-4.9935733186021025,8.74399623233785
1.864,6.772953937849707,3.3214732463666223,2.0082190960374646,4.43798442407342,-8.716082141041625,-8.423355271923356,-5.6952546867405545,8.470537783769032
1.868,9.004483482405703,4.458322507514822,3.451105858803203,6.0887056306687555,-7.008934133053117,-9.264146547286146,-6.202111013076319,7.733323453136563
1.872,10.622061439127492,4.8227258474903465,4.792986993331397,7.510578980140508,-4.499235398607198,-9.306950705240524,-6.6549266343718045,6.886135835081404
1.8760000000000001,11.11050692843628,4.736494760796177,5.709653346483719,8.321017041278537,-1.8628266882788012,-8.49797241577835,-7.313156412584249,6.128557608964002
1.8800000000000001,10.34132999410167,4.45669722139246,6.113408556032482,8.149655820560838,0.20848213236149604,-7.133791251109869,-8.367417470607506,5.38729687156183
1.8840000000000001,8.673233635950965,4.016217928467995,6.1837389141928725,6.890228069899422,1.287391322755866,-5.676820617347403,-9.807406892297877,4.393613187425672
1.8880000000000001,6.820003977055421,3.2288625389364825,6.234787748948293,4.865206502118326,1.3746940454047945,-4.499420713580548,-11.43584984725112,2.890398102395011
1.8920000000000001,5.549191529823474,1.8518602280073537,6.5005946498840785,2.7605998101771547,0.8585237995084753,-3.7163534326755325,-13.015179152138444,0.8229630111304687
1.8960000000000001,5.3402264292155905,-0.20741467364405253,6.967879336950318,1.3249351286190176,0.28809439759152156,-3.203486309545042,-14.443783553903813,-1.6135774507824863
1.9000000000000001,6.166631191836359,-2.774603657403077,7.365865796377875,0.9851660440835985,0.07465725522888533,-2.7621808416879503,-15.829700997683176,-4.096709957407711
1.9040000000000001,7.50615251510726,-5.460852666538358,7.316682251656857,1.5925803794975764,0.2701027061766581,-2.316474980823841,-17.40704287191329,-6.38002035587715
1.9080000000000001,8.57793178482143,-7.838828740238114,6.563723286652021,2.4609573194543373,0.5402350657177521,-2.0013158225465304,-19.329237502419346,-8.430534922370725
1.9120000000000001,8.698952165471155,-9.627800431205742,5.143003780844992,2.700034603277345,0.3441262306068893,-2.0808907469527185,-21.471030002579937,-10.39701855404769
1.9160000000000001,7.5853996870619085,-10.777050599661834,3.3882400904294627,1.6647614003750277,-0.7701216165669393,-2.754857984566115,-23.382216427497042,-12.42739587279334
1.92,5.464017096263888,-11.398090712157682,1.7802158033591695,-0.7133885628818462,-2.9003185748174474,-3.967705552501684,-24.43844620564505,-14.46369575413246
1.924,2.954732329942999,-11.601403606849999,0.7331126101671543,-3.8782033881461757,-5.681371929033958,-5.346425740511222,-24.118287630081795,-16.157687880054937
1.928,0.7855196031830474,-11.361783826207102,0.43021950329784886,-6.90599376969476,-8.399090139126656,-6.327068231911653,-22.271107140106324,-16.99302405077765
1.932,-0.5052513114164867,-10.484990408806425,0.7946540679913596,-8.928013094083326,-10.275801152418353,-6.413324642769112,-19.216937162687827,-16.555705764558297
1.936,-0.7441609975855954,-8.699107200244725,1.5925966352442629,-9.493329463976806,-10.777154561248608,-5.419852700112642,-15.604530847705973,-14.778723681958809
1.94,-0.11175396731869114,-5.809331403159831,2.5871319083898925,-8.691559167164996,-9.796804798955236,-3.555455733528106,-12.107799412873646,-12.002600818733526
1.944,1.0116250817827677,-1.824144409492419,3.635445712557157,-7.0175377667364955,-7.640836254397527,-1.3129133417915,-9.122791693745967,-8.812124459858751
1.948,2.246816054680039,3.0167544867363176,4.685112434473922,-5.074772696213586,-4.835090237622353,0.7736715498713238,-6.63341527160901,-5.741801757543044
1.952,3.358649380906627,8.30745834593472,5.705356360344922,-3.283875618233651,-1.8773781965228409,2.3610074099124176,-4.307570781416871,-3.0350548070471177
1.956,4.290256007438529,13.58193427503329,6.62653380996835,-1.741725389437761,0.9284709225398728,3.390346417148976,-1.7600353473426367,-0.6073698236634755
1.96,5.107851612337072,18.39913959612886,7.360370792736376,-0.270113022841997,3.484592713724851,4.024417649891802,1.1721378999691296,1.7786703900633256
1.964,5.916557948202353,22.384392845914135,7.893661398829863,1.4139994940237557,5.7950318249445445,4.486373528686272,4.3043352191207305,4.253594049795311
1.968,6.794196214636031,25.240606888944058,8.377639099510816,3.5188228065794647,7.834387748030622,4.913593463325924,7.193031626311495,6.674490257482148
1.972,7.775815606098149,26.768779319072564,9.118687750230038,6.0747327098179085,9.476342697500058,5.312321371260623,9.376628754106605,8.66664206828841
1.976,8.859461413005874,26.899506987218047,10.428880470005424,8.92560679224971,10.528334769177945,5.612763275619727,10.61583421884643,9.841563041443806
1.98,9.999822902759206,25.723889534152022,12.399515666942534,11.79232707319079,10.833186868133907,5.769129196894028,10.998055093966741,10.043404806368017
1.984,11.083392975100878,23.502909379154517,14.736082431942123,14.358092558956741,10.357012255528844,5.817952613752823,10.859776964597131,9.458180915401272
1.988,11.91168636337511,20.627415822659714,16.782230566138878,16.342468894449667,9.205418142888902,5.853326255556567,10.580612809098966,8.518796358042437
1.992,12.230362636226573,17.535354960765517,17.76123693879572,17.53806232381612,7.54766766864941,5.937739642034103,10.381146652984171,7.668870748325162
1.996,11.823912761731663,14.618546414851835,17.130152533247383,17.821956187869546,5.508347062991106,6.021281745786837,10.239158453530308,7.1386384884087875
2.0,10.64486546870478,12.159678493876754,14.86992766913636,17.17233855162067,3.124515770288781,5.953780734393149,9.96954977697851,6.878901952864453
2.004,8.888313450151259,10.305361280800298,11.545292311009689,15.68352325736987,0.4011479089490422,5.596004256802189,9.399969252164738,6.6826462069318495
2.008,6.9599037511167126,9.071189155939237,8.087906319070044,13.573299699632571,-2.5740696653706436,4.96919186539526,8.528555703393977,6.39268770409376
2.012,5.347278800924187,8.365092665544353,5.4064675453955715,11.164749751335421,-5.5410130691479935,4.334094865301267,7.570248607311896,6.031421535074742
2.016,4.435015663265858,8.008212020803057,4.024583884922322,8.82339657317516,-8.089376711419845,4.11818899894115,6.86248652307404,5.760721177661708
2.02,4.3550728359746245,7.765627331331416,3.926489546436187,6.86779904701325,-9.812778898200577,4.712418450061705,6.694957322627943,5.7045251977394855
2.024,4.9421471347106944,7.400905010984388,4.665203872576058,5.47728801817766,-10.512006726642994,6.238821714627193,7.168010143554966,5.78416841980038
2.028,5.81190010808416,6.751300229239405,5.65413507447829,4.640701598072155,-10.318609129518336,8.426617211921439,8.154026748100932,5.7107927685458435
2.032,6.528084703134027,5.795196048081607,6.4642681017217,4.172211801404956,-9.653544991457238,10.678284402074496,9.361651318203712,5.166890023185715
2.036,6.776868988127035,4.6633327220379215,6.964282895135511,3.7935107172665994,-9.02019311172262,12.310416714310122,10.462285105184492,4.070630436247029
2.04,6.4804364252519235,3.581899240266239,7.274055708340256,3.2660288510601276,-8.734836380528577,12.861120568963088,11.211659892338048,2.7371341923403634
2.044,5.809834034917571,2.7625226660870794,7.594011531073647,2.5133838759934406,-8.747218773632085,12.300076591575817,11.506101500175191,1.7988002417355347
2.048,5.10759974663506,2.3051822065344822,8.049318202573886,1.6755268596250517,-8.660553423563215,11.03328946853344,11.373050947088359,1.887890096718138
2.052,4.757051447022832,2.1739901405696855,8.641843526479079,1.0525198043264936,-7.961383243533874,9.694172468765828,10.920297951430257,3.2447418862244604
2.056,5.0337803309028,2.2554599158609108,9.304445588413728,0.9433634096053538,-6.340451633524026,8.823142418737916,10.273001532364106,5.48062382901594
2.06,5.976258927844583,2.4622334385669546,9.9921170872949,1.4541717720096585,-3.926252789915452,8.60202828565889,9.53412575502989,7.658821701039528
2.064,7.330098908469836,2.8045912481193227,10.71239488097308,2.3873371774784573,-1.302411521186059,8.789843881631896,8.762051115471877,8.681898883250824
2.068,8.596538357481904,3.3595714092548405,11.457311482632576,3.2821882177777297,0.7047671652806002,8.893895277281445,7.962955617555053,7.7878201058929335
2.072,9.1932097178925,4.151754246335486,12.093767363987354,3.6045486440161767,1.3584484058710586,8.470418375381087,7.101655994338216,4.896716821970813
2.076,8.697831688825431,5.032958567477408,12.315203055412894,3.0044047182523173,0.30039327643680735,7.390984695533007,6.130819991750286,0.6399497263170133
2.08,7.071946394688098,5.656467241935616,11.728310766440245,1.5012591176255228,-2.3330103287462407,5.934451890228502,5.046982507183202,-3.9293292881854995
2.084,4.747904655578168,5.606287933370822,10.060442333026003,-0.5090488073794859,-5.988453035539806,4.649230515456111,3.9432018956240427,-7.774790364475621
2.088,2.5002290981674378,4.632492564152017,7.375003788695267,-2.448718936997011,-9.897113718633818,4.062352989590181,3.022485589009193,-10.231373015314375
2.092,1.1384804452657136,2.862711542397392,4.151272295880517,-3.8443138360721605,-13.298975752938304,4.390372318186564,2.551593936721929,-11.129095382659557
2.096,1.13686327685582,0.8431531123455898,1.1430477399330812,-4.547769952872841,-15.609654402308024,5.410679819810412,2.741209125718342,-10.686632544339545
2.1,2.3903706496980703,-0.644938745008858,-0.9255637549081257,-4.759186672565647,-16.490468763679246,6.570172074480524,3.6114946458542363,-9.28698156602718
2.104,4.242673654823193,-0.9223626971158865,-1.6819358904801902,-4.834277583466928,-15.854206456273232,7.27262502215126,4.922129765556292,-7.2821201997654725
2.108,5.779426186031515,0.26279851735125703,-1.2738254206228703,-5.0013353912952425,-13.84697392188582,7.193697038163009,6.220276832121272,-4.928811386148254
2.112,6.262865448157186,2.599430239026333,-0.2828633388014623,-5.164279031781916,-10.822444346148586,6.452159353968909,7.00970568602861,-2.445186848495723
2.116,5.478023697046183,5.346084836472755,0.572654219754213,-4.927747253344933,-7.296881835269687,5.542297598989535,6.972774198967727,-0.08096407778214143
2.12,3.796475290740318,7.661219233415977,0.7882891089359418,-3.8480754875108687,-3.8571083622796323,5.066079664519748,6.13812135884973,1.882907902383522
2.124,1.926348697499293,8.960144462162361,0.2963280664832837,-1.7667145870746026,-1.0213838488257352,5.4013919941235145,4.892205370298825,3.219597968636208
2.128,0.5106554972485924,9.13405035631149,-0.5417058045491103,0.9958862683229199,0.910588670798461,6.486460833069032,3.8157640555705257,3.8736053919255937
2.132,-0.2067326045032587,8.532131872633727,-1.1557419262016992,3.7073634536502595,1.9328397153112746,7.83334250089456,3.429774252747393,4.009151942188055
2.136,-0.4767177528720481,7.737099384831481,-1.0811833203943024,5.518178957270038,2.2763803171301333,8.751438651607714,3.9574113814701377,3.9381227841437294
2.14,-0.8453397317164217,7.283349266706409,-0.1843377084937856,5.840181300072572,2.254285633736572,8.675055519627676,5.22150937637366,3.9589200782353373
2.144,-1.7917896262036948,7.447735294343261,1.298797576789866,4.601406442950065,2.075616741617523,7.42692376116338,6.726827374156073,4.194848780979896
2.148,-3.4211368927421972,8.188756797686324,2.9076862407557655,2.2436859203357926,1.740010578971578,5.291931810051665,7.879985154881297,4.5336158795200845
2.152,-5.363524433109546,9.243862198555462,4.198953778210125,-0.5063578820008843,1.085684014652088,2.878419862301598,8.250361127943961,4.710114941045049
2.156,-6.923577975292062,10.291507013644491,4.945661537232354,-2.9499035324186025,-0.04243145395344072,0.8468426057575016,7.749875133872592,4.483031311045238
2.16,-7.392201746996875,11.081101293286906,5.194531416613927,-4.643621427685616,-1.610538710273886,-0.3528578800642208,6.652667872539496,3.7977017765548453
2.164,-6.355438872056709,11.48315691840503,5.166850470343434,-5.459996730979924,-3.315136606054466,-0.6208576224889839,5.45375755519126,2.837404234601138
2.168,-3.868281072708726,11.465378106469188,5.076267646305041,-5.506895626799633,-4.675898133373948,-0.17674423135122197,4.641525027877378,1.9344249079840665
2.172,-0.4436280137732638,11.035931440708282,4.973297557590286,-5.011825464050048,-5.273345745722736,0.5979931712881807,4.495828606132818,1.3962624622526505
2.176,3.1129258706010887,10.201340662606754,4.70144723256044,-4.247090521539349,-4.997210062305953,1.3532678451783795,4.991463794401625,1.3590000174450552
2.18,5.949563652904317,8.960976562785163,3.986918064264046,-3.503451694016917,-4.160331544110932,1.908318449912258,5.844824986129424,1.75426169793883
2.184,7.412421631662198,7.331263778273751,2.6038647614298043,-3.064731068271726,-3.402404915060629,2.287360884494774,6.669356610529576,2.4006880761959906
2.188,7.236449752504086,5.383100170635998,0.5302036361458704,-3.11653263889923,-3.4031853332799074,2.6603992843174638,7.1573143384016475,3.155581146761392
2.192,5.635904367075682,3.269346760117969,-1.9887513288936134,-3.612822222911518,-4.552245900671778,3.2309047947510408,7.203700770948444,4.017599898857554
2.196,3.2598706425933415,1.2280921977036314,-4.499454139982618,-4.202065654251669,-6.742238422853916,4.124260983842305,6.922017666533975,5.113859563824349
2.2,1.0061770913215469,-0.44432311969183047,-6.489374035023502,-4.30608168144272,-9.380359789386944,5.325928370757765,6.55690994683232,6.575553385157207
2.204,-0.2803978646218752,-1.4584836452486343,-7.558737584983305,-3.3828758447889413,-11.614773857603268,6.677130205811409,6.3430654623853115,8.378148632377645
2.208,-0.1343930873869681,-1.6207134975070403,-7.534550609671101,-1.2624440664737904,-12.669583912901999,7.919708253949466,6.383714412947711,10.259001573587852
2.212,1.3206253617740913,-0.913490141241482,-6.485964044177422,1.6451198470688269,-12.1345573109229,8.76875760964117,6.614188267796521,11.779930713312922
2.216,3.3928646650392125,0.46929525071209355,-4.6555899770919495,4.427813813405464,-10.088520244176152,8.985330050124276,6.859804731822123,12.516302368291633
2.22,5.0911951516417275,2.166213315553364,-2.352726573127029,6.0564239487005125,-7.024198428939258,8.436181066681684,6.948993886496282,12.28047340909211
2.224,5.548951166308484,3.769979105958896,0.1372745345883004,5.90122818649877,-3.627387634327306,7.131493732628769,6.817690049055727,11.255982829761422
2.228,4.404903189337773,4.976001745920257,2.591705664207666,4.094857327745672,-0.5197350635369276,5.233577627838258,6.5399247719781215,9.95130778245283
2.232,1.9678311209461299,5.695502245492662,4.842386207580262,1.5106594289749182,1.9258713160388652,3.0327795611369766,6.268538647077094,8.985747372521928
2.236,-0.9152368726736881,6.073829575664149,6.74267377592173,-0.6574946916450699,3.632151866628419,0.8904759908662072,6.120135802637833,8.810268053614038
2.24,-3.214435048766802,6.4005693941325035,8.152707381881328,-1.4852890846282207,4.738893214365248,-0.8361228171079347,6.075501181851678,9.50475569452766
2.244,-4.1335269784762545,6.950378170958345,8.953202087298905,-0.761266120400137,5.451464786339102,-1.8728359700110104,5.9482130103594955,10.75997926002222
2.248,-3.4010598775442986,7.832283754035984,9.082605417536342,0.9551712661070155,5.8958426592832325,-2.0877909744260705,5.45834217984293,12.059076606627514
2.2520000000000002,-1.326737026573312,8.917130440136589,8.570234982491229,2.6861700432012867,6.046432624952104,-1.5249078321427305,4.378936688488693,12.959137456714615
2.2560000000000002,1.3667042525575823,9.88520586513863,7.536882572246782,3.5844880844484237,5.761616335577912,-0.406673726722488,2.6777140438707647,13.317501480227037
2.2600000000000002,3.8311520923957687,10.37253341760794,6.170325383942554,3.358366212098815,4.904315629606742,0.9099063080839187,0.586606528126481,13.337874363249284
2.2640000000000002,5.377029550303405,10.134141581937058,4.690079338593364,2.341838284623634,3.488876000994537,2.0139855923330288,-1.4371369356432524,13.414516393655788
2.2680000000000002,5.657081530212537,9.146987502951447,3.3150657930540888,1.205910171989899,1.7780423867108084,2.550075601976573,-2.842467264444622,13.865194709252194
2.2720000000000002,4.71374219772332,7.609701422125966,2.240379544589814,0.516740378187933,0.25537269685560204,2.325790450120394,-3.165007507508335,14.707073872268268
2.2760000000000002,2.8996265784921036,5.83907817512744,1.5987066482757655,0.40714006732514463,-0.5452875059108919,1.3719345271074417,-2.2032710134926674,15.60559805576463
2.2800000000000002,0.7371577869712951,4.131614625927028,1.4154259366617339,0.5608915563261689,-0.26914637568467015,-0.05504206175623949,-0.11201367861883682,16.035051542664377
2.2840000000000003,-1.246683851583299,2.6488283173276272,1.5652325146285193,0.48854425244826416,1.0764844343862023,-1.5535702022391433,2.6135924011916245,15.564900482753814
2.2880000000000003,-2.6813331408090875,1.376152353306452,1.7681262506783924,-0.10890263083533114,3.0837619322862224,-2.7248985984907677,5.270042282913437,14.10602621072158
2.2920000000000003,-3.433442278851274,0.1897750586694258,1.6745071905130544,-1.1100199217218858,5.102716591820922,-3.3181119484087276,7.1733468047889914,11.98309746984944
2.2960000000000003,-3.58872526249192,-1.0142567027750715,1.0236527603025252,-2.0211149597555504,6.534893559396323,-3.325531691319611,7.89423152297087,9.783844251103929
2.3000000000000003,-3.3322306029160274,-2.1969132809045107,-0.17051978608225227,-2.258530589906627,7.124871396650207,-2.979573089844905,7.431997120052586,8.06938604202955
2.3040000000000003,-2.7817636491997035,-3.1200615060720054,-1.5165906444116786,-1.4903499036469157,7.099862428594065,-2.6426325108869833,6.240772122212775,7.113984508259421
2.308,-1.8761777805638928,-3.4035185143994795,-2.3218874892426697,0.162968569575213,7.071828196104946,-2.6382140749180962,5.063793694974038,6.812558616987715
2.312,-0.3982978173489755,-2.6876030524536247,-1.8662602575494134,2.167179373598259,7.725336030132723,-3.1097139610826616,4.626355743860756,6.7888453941915685
2.316,1.8622309670672195,-0.8352775373760153,0.22351963182234158,3.8095928223467013,9.437289099898067,-3.9740474573817437,5.3044139504262375,6.627180116843363
2.32,4.876021860634253,1.9144943464377207,3.682352670421949,4.482925035712526,12.020600541357567,-4.989054157882947,6.925720083568251,6.08291428876106
2.324,8.220396309676104,4.945308305674928,7.5807143262616705,3.8867303439837144,14.73319317317845,-5.890278690044283,8.817973456737946,5.164279187311223
2.328,11.128521330746267,7.440791797695965,10.627649208629407,2.0741457238565317,16.56317735557019,-6.519606079137475,10.110552167774301,4.0673394530053315
2.332,12.750174070043002,8.67598178582,11.698535196508033,-0.6364185362312469,16.656668103924346,-6.876932055406428,10.163195064397428,3.0343417608991388
2.336,12.520731887741917,8.306154519981504,10.340109789965027,-3.798661873508422,14.689861134759553,-7.06967443551423,8.901937823642982,2.2464193504086154
2.34,10.44535017869741,6.511365399860125,6.998417425129446,-6.950269875275978,11.017664188235983,-7.195916907466085,6.87997331280269,1.8087486832885986
2.344,7.130660186094531,3.9071317203103604,2.829531087858072,-9.687721201967918,6.529397884331445,-7.246897461416779,5.010078531385261,1.7995491252845568
2.348,3.537061849027424,1.2516499777274817,-0.8351137639100443,-11.713398987528933,2.285458922582791,-7.094914551599231,4.08792159026865,2.303286686677154
2.352,0.5755494724867845,-0.897947188868045,-3.1026033682666707,-12.86508039133605,-0.8893265280935339,-6.578810829460963,4.367720064659181,3.366273169647428
2.356,-1.2568683002394607,-2.4013541069721214,-3.8944076751024,-13.132508046569455,-2.673937082636371,-5.641571200301655,5.436327795881084,4.887172626269148
2.36,-2.009588316101599,-3.4955181801915387,-3.875504700888655,-12.625772232866439,-3.2640799670559772,-4.414594586174985,6.46886232932161,6.542479616326915
2.364,-2.1217138963444597,-4.517201864041681,-3.9787894103670283,-11.492402045789902,-3.149601765677346,-3.178744277154351,6.734809377684542,7.849441048542445
2.368,-2.1031142280444044,-5.570589234544457,-4.798023448446145,-9.833809026366168,-2.795865002514404,-2.217850276307786,6.055295784798659,8.37433091379458
2.372,-2.235293270691102,-6.359072835187874,-6.193270908093041,-7.680620160940975,-2.3996110213774955,-1.6557256278201749,4.9287432023211295,7.988314346007314
2.376,-2.458553014147526,-6.314984862524341,-7.353813978796666,-5.077396342967404,-1.8434799190431477,-1.392691958505793,4.21052753175627,6.992968639075201
2.38,-2.4815387588598696,-4.977027316638271,-7.278794077198768,-2.226357981347462,-0.85631911281871,-1.1862827031569623,4.521277031031445,5.997446868482484
2.384,-2.0204968936667456,-2.3992985927957307,-5.405115226236944,0.4102160435357973,0.731221053802642,-0.8435278583233412,5.7419666334844806,5.577667044993234
2.388,-1.0113128003957002,0.6978274353286906,-1.9998626204641141,2.1682648856372566,2.81405638547551,-0.39604800182587496,6.940594056616533,5.915895378032701
2.392,0.34590233787881175,3.201256691499168,1.9403526821181458,2.452813865982023,5.047580131484153,-0.12073813200879613,6.851022771335579,6.667671170161043
2.396,1.7094870386429761,4.196759636389743,5.238624749981454,1.1071182860883368,7.074844226633161,-0.37109840924495074,4.67126465969227,7.1751272611682
2.4,2.781896963830121,3.555735957936008,7.219943129934677,-1.344166062679335,8.794748941582952,-1.3115918038546397,0.7202929430616223,6.917976979970291
2.404,3.4340034528028696,2.1373565985841765,8.099233888351705,-3.7913844499531706,10.465310739806512,-2.737357572411611,-3.5045141995985887,5.913467349271855
2.408,3.676134972782023,1.3999512286580398,8.796259679916375,-5.023754740137122,12.517548561598403,-4.134745416905162,-6.012644110866745,4.7647608399096555
2.412,3.4986865859928855,2.5569346481947264,10.240028653658328,-4.410928625121869,15.126601206059263,-5.003152309495135,-5.453467537544839,4.247975764137237
2.416,2.699354510652853,5.704047460245874,12.544727719047842,-2.4223337510107967,17.77121575147146,-5.273320149367464,-2.10816280827396,4.646846797242148
2.42,0.8452575488306593,9.445765974922892,14.582345541345148,-0.631539005047614,19.100728593067743,-5.538507327804155,1.8727362109871137,5.262742041590684
2.424,-2.5573902445473493,11.338450590972798,14.295617519832717,-1.088363632138794,17.304001106441206,-6.899159253130847,3.2489342377747334,4.49287180330677
2.428,-7.745222562110939,9.024711041642547,9.693326834723052,-5.295458738603202,10.91441259705391,-10.419567173413952,-0.7895932722030921,0.5663255084482728
2.432,-14.378630077847788,1.5339100702913129,0.06015395052099848,-13.288916979124394,-0.2931888408222676,-16.438391408425787,-11.085002784471499,-7.3809957206629235
2.436,-21.425593632959846,-9.949062311261912,-13.286257571272813,-23.338155690782855,-14.798339654482106,-24.124704145153146,-25.769373005720922,-18.484544623543457
2.44,-27.364478310082546,-22.31783056007339,-27.16299449423184,-32.49784996450319,-29.568026489085923,-31.57827883689106,-40.7547502466424,-30.105890100069615
2.444,-30.658319507517234,-31.73881436989916,-37.63377297020793,-37.80126600899524,-41.02341891558672,-36.50672006888249,-51.294581901224774,-38.705810134125215
2.448,-30.340625047328302,-35.279129475285345,-41.5935884921455,-37.544371914430315,-46.35959122656732,-37.19007268526548,-53.90759022030352,-41.27727466467178
2.452,-26.448214086993005,-32.174129924851684,-38.070784349423775,-32.021922434715066,-44.62274400451156,-33.258678321100206,-47.76921368063097,-36.64258257583771
2.456,-20.08731419684827,-24.10460630081775,-28.620523286710522,-23.343469007069643,-37.027713153612694,-25.88546330020199,-34.93404429153372,-25.966961252889178
2.46,-13.066442289480591,-14.349468024847738,-16.60773745244694,-14.424003170818878,-26.35477633386438,-17.271977870058436,-19.331630321522653,-12.229821276162568
2.464,-7.23469773987577,-6.25371700849621,-5.742355940891457,-7.677021395694965,-15.731162399954428,-9.68929182455804,-5.078607074292222,1.052175899717156
2.468,-3.810356688460786,-1.788799393870704,1.4125657577053516,-4.06959393225668,-7.390832148951745,-4.5596716214117805,5.066483373494179,11.190300106027564
2.472,-2.9914708913507297,-0.9004740899579815,4.2689021933853155,-2.9825721206109392,-1.9958828391329462,-2.038707813004976,10.42426969411406,17.11920873230781
2.476,-4.016692594962791,-1.9024693481199506,4.052763214011293,-2.871291828942617,1.2105378086467908,-1.2654403109117993,12.074791175801352,19.3203010966198
2.48,-5.626168297780083,-2.6131255073889292,2.8526093431019035,-2.2946002019456273,3.610109853415338,-1.074641468390837,11.84157366208774,19.070892904997038
2.484,-6.691102810569049,-1.575702531048364,2.4364400360608442,-0.7248304562868952,6.261703860638363,-0.7375572011851546,11.214437427506482,17.54296509260712
2.488,-6.7086447513659095,1.2739910861005797,3.4508977811390196,1.2737080834854169,9.309675645733137,-0.3167785322339114,10.752135409582024,15.277192475028016
2.492,-5.931526718054954,4.774900202245476,5.345377157235816,2.531838703516314,12.015170596367739,-0.4672050896658675,10.169401762424968,12.250658075350884
2.496,-5.096968984485926,7.355456447164613,6.933405685359162,2.0797181100272155,13.305610421524307,-1.8563839188223028,8.90037248885335,8.360211498051285
2.5,-4.934481991056714,7.963721416324233,7.190004380866981,-0.22589078817111385,12.468184045946828,-4.59091695615939,6.695566445047007,3.9019990278595174
2.504,-5.737916534776616,6.587174006080431,5.81670896556443,-3.6001112794859864,9.581064758233424,-8.01496165042522,3.8704628072587184,-0.3131416721037681
2.508,-7.209658548231971,4.129810119733747,3.307734989079904,-6.757646960167904,5.483432901414062,-10.995441106957287,1.1127813066830186,-3.2815843379062244
2.512,-8.641770511720779,1.7928801853796585,0.5687612955359782,-8.58320054031617,1.3614310994717016,-12.511903210931223,-0.9592045258835924,-4.33740580855158
2.516,-9.323428882955795,0.3723653162401206,-1.6257898834469415,-8.661907773944904,-1.7771554088785706,-12.20562055247251,-2.1570415370019873,-3.526461296609284
2.52,-8.91198798238321,-0.09213157949193373,-2.991121193877916,-7.379951634975669,-3.443723230360888,-10.554988840036685,-2.7606685478158397,-1.5668702722376793
2.524,-7.57708630873384,-0.15771626284890772,-3.736472722359281,-5.598774294939858,-3.7028545395430683,-8.590846391544801,-3.2394344288545653,0.571008025085348
2.528,-5.869374386522395,-0.46994820358634115,-4.282235658033528,-4.1443015069638705,-2.9614877282371026,-7.333498985650749,-3.8667395117547585,2.1889540746536227
2.532,-4.413964781525749,-1.254560077881706,-4.908058831401604,-3.4187390576464622,-1.6903023260495047,-7.271823604036626,-4.498222323509481,3.163818948036578
2.536,-3.617741918751335,-2.1457108846108213,-5.576809878403083,-3.3297864431029893,-0.24813985600235355,-8.177504280632093,-4.66818016129082,3.853682737729116
2.54,-3.5410010655646147,-2.4458720028832204,-6.022249448922366,-3.5063205509561612,1.1354807852707154,-9.32839746948298,-3.928852311570381,4.700495390557251
2.544,-3.96244784592875,-1.6288673291758187,-6.002900800017414,-3.6096847277339066,2.2969315268744595,-9.979920362020266,-2.202117011113387,5.8143052403422075
2.548,-4.554307099068751,0.2476854627504963,-5.526171564662263,-3.5226065455811977,3.1078215246940317,-9.79384974633058,0.08509322101349426,6.819692084687688
2.552,-5.0446752058383595,2.4932198769523666,-4.8785738874764775,-3.3217879953792817,3.5270167144334437,-8.99320687199679,2.173457556606081,7.056073986626018
2.556,-5.2700859993476,4.145183766962532,-4.432872641555377,-3.086321200157272,3.7039079997480258,-8.180000214412757,3.3447594028764343,5.993473126849096
2.56,-5.132128776912737,4.527414779836249,-4.354352613210949,-2.706201159047623,4.032784297581429,-7.944237369254324,3.272349426589699,3.600601406727037
2.564,-4.5427260807747984,3.6625917879650842,-4.41148752875597,-1.8552613179040236,5.059569402446414,-8.517707679530531,2.142975833948185,0.4286731991350621
2.568,-3.4494149513484444,2.2777131803351267,-4.042213089648385,-0.169541396933937,7.2355159278262136,-9.659496634516927,0.4972980371876474,-2.6433393180755047
2.572,-1.9204879651100555,1.402662855027188,-2.660265701575554,2.4887074807115823,10.637968215943715,-10.809904536519753,-1.0980518258261327,-4.8335658524490555
2.576,-0.22481897841657883,1.7721536044415416,-0.051781472208631385,5.848033682954565,14.804534370171268,-11.405325450365126,-2.342062177127218,-5.808430820562535
2.58,1.1673247329246692,3.356867662514105,3.3654109276462805,9.23966612032757,18.788832902569084,-11.159322338182392,-3.286803613565553,-5.7758827096629375
2.584,1.7276619089807923,5.306969691223003,6.597065686132737,11.82610256777275,21.444599158586016,-10.167092008116924,-4.2024291896198065,-5.297684822324982
2.588,1.110114829178599,6.350262404638556,8.451225913619282,12.940968615016459,21.836093728887136,-8.796302437476243,-5.320804161082151,-4.95965939313902
2.592,-0.6441277081203793,5.435672808690242,8.07832120560488,12.36659798790106,19.60379095725284,-7.45787154527261,-6.633976069089158,-5.097166385163121
2.596,-3.06010964108458,2.290783329306123,5.404239352903687,10.413664590164899,15.129307108573812,-6.407451600215609,-7.876794844002916,-5.7037230171583815
2.6,-5.396362630525175,-2.4031827037836138,1.2267613706528664,7.770501762748609,9.42731077893177,-5.6805238190795535,-8.691041776261045,-6.5305023155764275
2.604,-6.958084524854996,-7.312901963033141,-3.1047551071969792,5.1961629563535325,3.786748309929635,-5.171762645389663,-8.872334022638142,-7.278940822172217
2.608,-7.404335189433823,-11.072779758893148,-6.298719220834528,3.198105076062575,-0.6932937107051202,-4.779485197421309,-8.550342426858151,-7.755783452457081
2.612,-6.896549668601438,-12.90910097915571,-7.719392311086722,1.8448531466704026,-3.485736461692568,-4.5041174768171,-8.177945246747186,-7.919336707698903
2.616,-6.0135873748948825,-12.954953626487281,-7.672751347717167,0.7913661368535259,-4.781035633616739,-4.432623726328984,-8.329020749092933,-7.833440950513591
2.62,-5.4780491511850755,-12.104621315673626,-7.217149694223735,-0.4950828376665868,-5.320741945964073,-4.623982686581257,-9.399212801258273,-7.592511460056016
2.624,-5.832215585683457,-11.506139919680777,-7.585192375378483,-2.417987816078835,-5.9899057616937625,-4.98909038708598,-11.365584314603439,-7.279911527133095
2.628,-7.215125297417728,-11.965516075546361,-9.508981053175603,-4.9959387020867325,-7.352828407545303,-5.257385644449187,-13.731152443768678,-6.979476306648621
2.632,-9.326371750419867,-13.567851571323331,-12.79132625114039,-7.788490018569291,-9.351034739164561,-5.071653122352927,-15.696724124675711,-6.802792649262528
2.636,-11.583583877859724,-15.70352134771042,-16.367992075547818,-10.062450717163301,-11.326419475445391,-4.18092118392542,-16.50228535039696,-6.888712222246568
2.64,-13.375289799343022,-17.457395787888117,-18.83268787998827,-11.125358674690006,-12.374800080546038,-2.610103008491933,-15.776317856103333,-7.349483470099926
2.644,-14.282279609861064,-18.134697444307562,-19.151796686047646,-10.66397482666548,-11.851905705030276,-0.7024523658810722,-13.730620377238665,-8.187811007791993
2.648,-14.191847233130318,-17.634847390929508,-17.188339367430444,-8.921650957231122,-9.759869663920654,1.0103183072801585,-11.098058771460728,-9.243978289522829
2.652,-13.27774877222555,-16.47747306016356,-13.752653674076328,-6.610538675346561,-6.8029300782980044,2.0563357831488247,-8.820351320817053,-10.217993058490265
2.656,-11.88653807459849,-15.49382339117642,-10.171293495774762,-4.5906511049447545,-4.068327619210322,2.2564965437886713,-7.6280929565614315,-10.779019651145177
2.66,-10.39651136292133,-15.36367843634082,-7.615909832529496,-3.4725550591094816,-2.487229496460259,1.8190840965494317,-7.701684332397008,-10.710660174352597
2.664,-9.117224104625336,-16.26621995321466,-6.5704330138787554,-3.3588400165820076,-2.3781659163619224,1.2256600739920032,-8.586844563189288,-10.023556835374507
2.668,-8.244991936931854,-17.828612630520865,-6.716105899374725,-3.8605403147689685,-3.331821519467212,0.9631059491471206,-9.421730834357959,-8.97464342212038
2.672,-7.863978431997964,-19.38510934809767,-7.261453420487442,-4.377286043894628,-4.508590804356345,1.2445104042894855,-9.380713332671121,-7.971891317890481
2.676,-7.969368607487013,-20.381800025218126,-7.49378515207809,-4.482470820085382,-5.176220320323864,1.873355608599013,-8.114865347875366,-7.400563994580125
2.68,-8.486591484877692,-20.68534662707134,-7.20503681474861,-4.188850299948854,-5.166793576277541,2.3384245421029846,-5.958013750203236,-7.445989991542319
2.684,-9.26828070099134,-20.624776812685013,-6.74419063886603,-3.9197788655890236,-4.972253389202933,2.101928499164387,-3.781637237707173,-7.992385127377929
2.688,-10.088817273593122,-20.75924521170282,-6.692444007746872,-4.19757401412312,-5.411567027516639,0.9296837216302265,-2.563351420589015,-8.654707825562923
2.692,-10.664278834777178,-21.523196494528293,-7.393279889133055,-5.2422664535633885,-7.064742124688792,-0.9142991366288697,-2.868357524346493,-8.93880566394887
2.696,-10.732293277858844,-22.9712043852021,-8.65544147261312,-6.737476477962673,-9.817546456566333,-2.7330852729983235,-4.514130136861013,-8.470175023285378
2.7,-10.14719095042858,-24.744756741275523,-9.81369932737789,-7.913799966249826,-12.790921988905666,-3.7031876225109954,-6.607347355793763,-7.184249260328443
2.704,-8.954896300997575,-26.262504312848705,-10.10902223369908,-7.928534578232075,-14.721132747508136,-3.2774562421809605,-7.937608323657287,-5.3823853389284295
2.708,-7.398035365681494,-27.006964505555743,-9.138216986929137,-6.331330318951586,-14.589523552899664,-1.474081660531283,-7.535607348504072,-3.6074563236221593
2.712,-5.815624651966118,-26.731721918057474,-7.083890423735966,-3.3311367617059204,-12.141775304903376,1.1131154826307466,-5.114374381250855,-2.3800848877272074
2.716,-4.482710281493382,-25.49333221319739,-4.592761711647654,0.29748327139077446,-8.015315131221541,3.5958802597829163,-1.1892872713733595,-1.9205027590575128
2.72,-3.46391272695962,-23.523258024376446,-2.388927533156675,3.626783612197869,-3.4180807784239278,5.230756227161237,3.17474110097055,-2.0034794536026084
2.724,-2.5670241718195257,-21.049859710843975,-0.8669103176434874,6.064758058972529,0.4545884302167451,5.78861663007865,6.8511582691553485,-2.036618418559101
2.728,-1.4503913168070994,-18.203739583736024,0.08280071218609919,7.625203839858386,2.9340099706546425,5.652883908280273,9.118226649583903,-1.3458598371478274
2.732,0.1492896025409891,-15.056450535747217,0.9292528449300335,8.820187296778386,4.0594312402727155,5.5829908468967915,9.890826775866572,0.4573158222450502
2.736,2.192270738613388,-11.735280120878542,2.149471585293668,10.23793630213197,4.3762366324920094,6.262727334846204,9.640406851879561,3.2197298302654644
2.74,4.253257961899294,-8.503445974410852,3.9102574378196095,12.065255017304708,4.522333427710919,7.88373967644111,9.080146402361834,6.25126445020112
2.744,5.6531738960711095,-5.730355433282853,5.978511334719769,13.860170476920302,4.869425855528334,9.989112620900414,8.803726199180801,8.608421324177584
2.748,5.779816507169528,-3.749055051290952,7.89367794106488,14.736044491746043,5.417337422197761,11.686629252509192,9.06723594527989,9.532051687056878
2.7520000000000002,4.426872666774841,-2.689233882648523,9.260309087112546,13.852118007673653,5.9496837407000385,12.126090094901429,9.776763096228933,8.817791773283489
2.7560000000000002,1.9656964979042186,-2.400684574532079,9.958092618536512,10.933000401100003,6.29434629568118,10.980163516049288,10.638534891751078,6.926832290000675
2.7600000000000002,-0.7583175563044051,-2.5171163424337237,10.144611183272673,6.5154639233001035,6.4860846793246765,8.672900240666877,11.364058367584448,4.771602424131743
2.7640000000000002,-2.795234479728265,-2.6414547073457015,10.070945288223129,1.7565100652971068,6.714661965426785,6.203187025511397,11.810382531497453,3.2805748015503013
2.7680000000000002,-3.545156264250238,-2.5463598212289753,9.854284341094854,-2.1032285266633153,7.109440807369992,4.648152295793807,11.994461069949693,2.9613580159696085
2.7720000000000002,-3.042883505050156,-2.270529671696636,9.384828962324946,-4.314111946086086,7.534128306615685,4.614169675283392,12.010549947929576,3.6800294450471256
2.7760000000000002,-1.9243371529716455,-2.0733303942834027,8.41919714357482,-4.925934107409375,7.555122427162814,5.932889591505045,11.924453365617182,4.760838030322702
2.7800000000000002,-1.0716288454549385,-2.267834897941725,6.795079050114964,-4.660419187332764,6.6356047279005,7.778156818683328,11.720586606863208,5.353915189307486
2.7840000000000003,-1.1181585995821592,-3.030186454614636,4.607833810597185,-4.43593974887699,4.447027538770044,9.142770074551663,11.316839129304299,4.868279151905313
2.7880000000000003,-2.086601683392246,-4.297863677811279,2.2118980202471903,-4.831873661271629,1.1015007511089152,9.402715399050521,10.618510469693547,3.247245690547288
2.7920000000000003,-3.3612595890390935,-5.797588360617397,0.041344085325818014,-5.788388667733216,-2.8478285357941786,8.652017297808925,9.575153444650596,0.9597556496419202
2.7960000000000003,-4.016353713498859,-7.168342288824647,-1.632305286928613,-6.686609664399157,-6.635020353942309,7.6206150816719855,8.211497350637956,-1.2518829890553889
2.8000000000000003,-3.326116157380511,-8.104175892566332,-2.8338072020883374,-6.735145921098365,-9.605904835841102,7.220040077082103,6.633918829198819,-2.7255649799114963
2.8040000000000003,-1.1705958413550661,-8.440862966698774,-3.8156616908624983,-5.423715803012783,-11.449268107172884,7.985392275567847,5.019183329596899,-3.153004176402419
2.8080000000000003,1.889302300529664,-8.151163103149997,-4.819258990965409,-2.7803136977461236,-12.197181979234074,9.756112324230344,3.588616688598904,-2.644045686987056
2.8120000000000003,4.898196331147517,-7.288801162391451,-5.823956016172815,0.6805216720742919,-12.0274241449481,11.77675126065651,2.573243433768994,-1.592102029725993
2.816,6.999653192438473,-5.932618387793809,-6.45034854750611,4.246703699334375,-11.016968316173916,13.154654695610589,2.1621886377322426,-0.43673636120763604
2.82,7.861305002528752,-4.158430631082297,-6.091217499077629,7.343873279053241,-9.024896061858726,13.407191994185723,2.4395711111326364,0.5382482153281671
2.824,7.790991700464815,-2.0556244437909754,-4.224252393545157,9.712506469682125,-5.804349745170384,12.756881133070237,3.3315190209655157,1.2654533970601278
2.828,7.496328703070276,0.23225241855379863,-0.7373869602010927,11.358952356250711,-1.2830836936054766,11.992499177559694,4.60281751459479,1.8157310866040461
2.832,7.632733711673154,2.480421411942416,3.913300035437487,12.356507227812699,4.171313406440277,11.973652997820864,5.925470263216312,2.2564920826407615
2.836,8.405912909048766,4.410085610987608,8.808902483430302,12.669756782628951,9.699646362613976,13.0780061999194,6.99876348105704,2.5498444458578433
2.84,9.460012201259929,5.765967529111663,12.899253568268477,12.14497134690464,14.185158845475598,14.934217873498255,7.66838072152359,2.5522991728036004
2.844,10.10076548927104,6.4021966543948,15.393442504400184,10.661896475698597,16.673238263839153,16.603178675413233,7.976265644515934,2.1052643659065495
2.848,9.718026012788243,6.334601884504764,16.02649521070441,8.331149303037137,16.765663010942376,17.10903323778905,8.103391596957294,1.1493896085597441
2.852,8.173577898743304,5.740143647861601,15.099486622034647,5.595441505735835,14.784305099374023,16.009294603220496,8.238912960701782,-0.2077323965108917
2.856,5.931750115349018,4.9015298929084565,13.28840547614368,3.132867185465443,11.6132424703394,13.656627072008632,8.457701577339321,-1.712396627642761
2.86,3.854270102022724,4.1082190313428555,11.31940592765136,1.591167671660969,8.300547669321872,11.001166158261185,8.677528725936327,-3.067065954734119
2.864,2.7809645535609775,3.551040140124883,9.662243127116199,1.2973809261973202,5.620402835699565,9.055996900571245,8.717024996525879,-4.056895427114057
2.868,3.1254497236828342,3.2566722783939213,8.382491401640436,2.111344918886175,3.8104597724280893,8.346692082691789,8.42303577406733,-4.63094322319472
2.872,4.696495446057725,3.0935142295389824,7.206987920734946,3.5055725822221575,2.600789475535521,8.666200871859473,7.787541637900858,-4.9012544417036565
2.876,6.825851916265378,2.8483113160938274,5.748491959008106,4.828627526095147,1.489340606647147,9.26746602631897,6.971967425958383,-5.066482244331041
2.88,8.718407665076711,2.3524855948273853,3.778349717124911,5.618563146800739,0.09535570978073338,9.362533482291838,6.222740231103671,-5.304392589538736
2.884,9.831036039746095,1.6002960527059713,1.4118887679453564,5.8055954486712835,-1.5954774911027698,8.6175414462557,5.728945718300338,-5.68486229490486
2.888,10.08928689708938,0.8018421055397766,-0.8883771835822927,5.712563737953133,-3.2026045157952012,7.3456115239648625,5.515172421721445,-6.143118430598179
2.892,9.853060831179278,0.33360992922871446,-2.491903339644068,5.872955023164536,-4.131536909266629,6.299099672541388,5.44232061718094,-6.519661179903153
2.896,9.670225130087942,0.5946659556664144,-2.8822566301164443,6.758927032803854,-3.853231136934255,6.194769028506698,5.310087355630003,-6.636260002330118
2.9,9.966609269796606,1.828972907993375,-1.9036636556088524,8.552375323100705,-2.142816571034814,7.2694849510485255,4.997307282131146,-6.377560414984146
2.904,10.831522347113435,3.988973704303362,0.14422814011663831,11.04361730812434,0.8162882815524881,9.123390539910815,4.545195108227631,-5.745713793365383
2.908,11.979054913491552,6.70978864689431,2.613466628024753,13.68240848530968,4.492259929080433,10.93733625282266,4.1305159517203265,-4.864638422105031
2.912,12.883272782198645,9.418533934216157,4.774219784657703,15.754646218719586,8.184327847379905,11.921996431578918,3.9491925919139703,-3.9366101256806587
2.916,13.002722901864473,11.518381942482108,6.103284100242945,16.61532052528173,11.22832908738053,11.724457859214908,4.087624829852757,-3.1702405844584405
2.92,11.988847540959881,12.563737828790124,6.461419433907508,15.903762346013536,13.15198127864278,10.573376687205837,4.45999971669562,-2.7122561327356607
2.924,9.806043584251256,12.357875583422583,6.073264802074959,13.676666777784021,13.74080115997208,9.100891285550233,4.846292399282447,-2.611813468418518
2.928,6.738690829268307,10.942365411438686,5.329983023622731,10.415012710181372,13.020381876639703,7.968167547282974,4.999016013012238,-2.8308175898034733
2.932,3.305072398393122,8.513084372332003,4.532590833011682,6.887817248392253,11.190590971399047,7.516876902315289,4.742964673146844,-3.2912753344226076
2.936,0.10015421947275627,5.324720054031161,3.710556793977389,3.891091298343099,8.5387471932047,7.623562432152312,4.002932375597993,-3.937827238096304
2.94,-2.3746007596850234,1.6505569859376124,2.6217302996431044,1.9598642791687553,5.3736635920056415,7.822011428057067,2.777067272924455,-4.7679442895019974
2.944,-3.8482478511423324,-2.192942274805887,0.9289900299954752,1.1667966208963207,1.9963596206122247,7.592072138048707,1.1036576097426405,-5.809438355240161
2.948,-4.35164468030797,-5.797685485855595,-1.5490371141804644,1.1122146979295735,-1.303503202393017,6.646341643220012,-0.9246673345635372,-7.054387872057049
2.952,-4.1744341543451355,-8.656865901814967,-4.651254816368805,1.1396543761128441,-4.244599068465732,5.072760919198572,-3.08496665883672,-8.388833752439211
2.956,-3.71751215505455,-10.24896590229929,-7.868243976291865,0.6893460079928673,-6.567901433047496,3.2852126921457057,-4.964033728814002,-9.574594491795864
2.96,-3.307634159625678,-10.205812272163485,-10.520429759000535,-0.39016606496562645,-8.080821938606448,1.8295499125281367,-5.9981762937057965,-10.3173694899981
2.964,-3.05380152408938,-8.490091786990774,-12.039665302407457,-1.7450279364904873,-8.722143511028435,1.1462331709634554,-5.659010130283605,-10.40882335771829
2.968,-2.8215647961670243,-5.478378043830446,-12.212169817441122,-2.693006341918931,-8.600504447154663,1.3976991774479757,-3.732749165120481,-9.866616733176556
2.972,-2.352100625321043,-1.8872929665864717,-11.26425155771949,-2.593918394925822,-7.975837370371323,2.4153115224032717,-0.5428256696986864,-8.991907106473974
2.976,-1.4676512194235158,1.4565126470438372,-9.74481712765919,-1.217053646912916,-7.1613883958508495,3.7719909340687536,3.0448424129174327,-8.291220587761188
2.98,-0.23399768558459755,3.912783813066426,-8.2562046498183,1.1037904493707629,-6.370885452510606,4.94470644539922,5.90508752325411,-8.27039499716102
2.984,1.0342145288290112,5.254703907229555,-7.174092655846437,3.6203767699413447,-5.605905719105067,5.500464633148567,7.116357440028878,-9.203316540642618
2.988,1.9438498485885418,5.715225763275953,-6.488690953526145,5.547793774744434,-4.651847246246746,5.243663314814057,6.390812029490803,-10.991200511528916
2.992,2.2778154281506033,5.8317068168680635,-5.8372578703837235,6.4577880994077645,-3.205085006732986,4.2796905830615515,4.233556050342429,-13.189126932739583
2.996,2.1727989008436452,6.158636095506495,-4.726563837737444,6.453099976635599,-1.0835403900119331,2.963986491477158,1.71786864431391,-15.197418420066498
3.0,2.080413381365645,6.981758136216001,-2.8320995089860617,6.025921360957739,1.5879813444840352,1.7569562175837063,-0.013738287290834705,-16.5164922889507
3.004,2.4943945041314635,8.168897066800838,-0.22595514035594988,5.692928527019035,4.332813367404526,1.043122924423642,-0.2759504218392408,-16.917194135832034
3.008,3.581163580937158,9.231313024375652,2.5837175345029664,5.623576043241428,6.466562764710943,0.9877933545826636,0.8844951304422466,-16.44612971732994
