Timestamp,O1,Oz,O2,PO3,PO4,TP7,TP8,Fz
0.0,9.094947017729282e-13,2.2737367544323206e-13,2.5579538487363607e-12,5.115907697472721e-13,1.1368683772161603e-13,4.320099833421409e-12,2.9558577807620168e-12,3.410605131648481e-12
0.004,-4.374080433719058,5.01454201059471,14.486808101392285,24.176754860906442,33.83427097255361,29.936734446405353,5.895487988387345,27.29327004156403
0.008,-7.711091523475659,8.589447706854457,24.926441084294368,41.298426211168476,58.73932131920583,51.48551906509988,10.62129360196343,47.296771995747406
0.012,-9.364089364134003,10.008036142042101,29.19370365004471,47.59189066710377,69.81784586481751,59.999001266915116,13.583506887107546,56.06863153228767
0.016,-9.325586079991979,9.575819589859407,27.966072380922014,44.09746150906716,68.16059314843204,56.38626765611173,14.966364191385878,54.57582723315909
0.02,-8.205827426338203,8.354953742315388,24.148205964401086,35.7095853655801,59.78388080644913,46.155841123014966,15.463466478828991,47.6937997541973
0.024,-6.957147872608886,7.500638252478666,21.19338472898994,28.34760988852878,52.24114384713823,36.296498036663934,15.720021695812875,41.31227782563286
0.028,-6.447410987002968,7.624733085659784,21.331819792862802,25.914770219261356,50.82933863091165,31.780529296091345,15.911366025483687,39.251692782574594
0.032,-7.077968989701816,8.562591921442959,24.67025193418533,28.712821158214354,56.42730469341501,33.55603348426746,15.752976687156547,41.710746110799676
0.036000000000000004,-8.615490227717032,9.644430775802334,29.557957240335156,34.025421562401505,65.93032145687351,38.9198278325257,14.906351679625345,45.94821062412848
0.04,-10.31777669804336,10.250112870377109,33.86557986409787,38.268162090056535,74.68464037386855,43.75550813884797,13.469797943951448,48.520524918656065
0.044,-11.332361246234882,10.22411057775355,36.251809413713545,39.22453024918582,79.26190061278652,45.093466761620334,12.112338367610391,47.541473155526205
0.048,-11.135622761174915,9.901116875068965,36.70302621717718,37.07660119101007,78.98693553388352,42.54416363548694,11.713970057424717,43.62119884105266
0.052000000000000005,-9.7937977486242,9.756618152806567,36.149885937706074,33.820286502120155,75.60619123379479,37.999621380846634,12.728429141195704,39.12529530165301
0.056,-7.917338393074573,9.954983493775899,35.56271895540817,31.677519553458694,71.65857692579556,34.08719357168911,14.716960998192405,36.460488019686466
0.06,-6.308704526716099,10.152879192712447,35.2348051288605,31.65794883207559,68.76368292005645,32.50936541388194,16.45171038797639,36.58601772737018
0.064,-5.520749868368682,9.697300056835928,34.68087149159987,33.129111292602715,66.8667820887785,33.22628506494857,16.570994390515523,38.64607180605469
0.068,-5.5744266154626985,8.095871700006597,33.15998339847738,34.514631403120916,64.72253631522074,34.8229288396123,14.426160133473559,40.79096406085904
0.07200000000000001,-6.016326900590201,5.432128571839456,30.37448551340094,34.508865726780584,61.1047015570598,35.64728254509174,10.575570588774326,41.516518968028265
0.076,-6.287438007906303,2.42940565990682,26.79532183739883,32.930229313159,55.829700345640106,34.89674588058193,6.56023737399471,40.586140937507366
0.08,-6.149954907144405,0.10667874486654227,23.39291919302798,30.68166791201503,49.908683368965285,32.98910855372651,4.067250364171684,38.96026015479862
0.084,-5.907767974005509,-0.7858144275883774,20.944071562306704,28.92022512052074,44.811380044444206,31.0648823280373,3.9519355180672733,37.89341952581063
0.088,-6.232651631547242,-0.17618574231329376,19.467655994740426,28.12479369555308,41.462607318724025,30.112052048830606,5.756583412261591,37.93202381251203
0.092,-7.6746227576368256,1.3480207876205839,18.250167093645473,27.789134395987247,39.75582468696851,30.37322959028711,8.050836295697252,38.58075485552402
0.096,-10.173964904087171,2.968763534132705,16.474481828392584,26.955736566832456,38.91786634819553,31.383219536244383,9.385061916477696,38.855980891371104
0.1,-12.886449106873343,4.193034427341587,14.031383742853905,25.15591571123099,38.37175436654309,32.501319976786306,9.269284193335181,38.243021555938725
0.10400000000000001,-14.532757376265721,5.119885640260264,11.845604860546644,22.970866460409724,38.353332918553406,33.40002775064488,8.485792137504518,37.2498354065209
0.108,-14.131327920118338,6.2361078337554545,11.414676500924031,21.7333147460389,39.75194152080189,34.12785174359266,8.504755319983218,37.06616046312209
0.112,-11.701313764066626,7.878583554916332,13.78314958928442,22.529115675034973,43.27155184437413,34.756161369030224,10.336145502754562,38.53384178625245
0.116,-8.509581497348506,9.731544908716387,18.58869950071758,25.178291029533654,48.51677657174676,34.95719553845106,13.540576658249392,41.16505624857723
0.12,-6.612312564472603,10.763569876250301,23.8850287574069,27.961932159190383,53.69815939522809,33.92673806263275,16.107896934961417,42.9538630927629
0.124,-7.863686550591282,9.699432331291774,26.933236294781096,28.373260947035533,56.26070748630352,30.756672733722212,15.361148036533308,41.245729836793686
0.128,-12.868137626537887,5.806617695537625,25.63041120198875,24.547600850381855,54.16623680383972,25.083697469478864,9.46300838122562,34.23845101548093
0.132,-20.454129376292414,-0.4633902334162201,19.7874809019562,16.559147061578784,47.136203440095784,17.61129418285367,-1.305591154408603,22.279574317789468
0.136,-28.014368854344752,-7.406222982514123,11.481955049019405,6.774671444662914,37.112787527998876,10.12484883303955,-14.256924766990323,8.162752476413743
0.14,-32.59388750254455,-12.682851020655562,4.22605579686217,-1.0482003685384598,27.566612305705007,4.888511578690554,-25.22577330471165,-3.8723572277016274
0.14400000000000002,-32.23187949983297,-14.367940290296701,1.2855067853834043,-3.5333890146278293,21.91942774185918,3.6486947061575847,-30.337189172749675,-9.985924106190566
0.148,-26.86787196438266,-11.869294019483135,4.064764545311732,0.6325320901450482,21.91558321512025,6.791876677842424,-27.713219461237543,-8.466802991681504
0.152,-18.355525694963035,-6.216612622830581,11.437098161509027,10.039499858147622,26.843179641795984,13.143744278585018,-18.2552333355693,-0.41754771700004767
0.156,-9.599382112488684,0.43039959096535085,20.356382105764226,21.26751506653511,34.01764157984758,20.525736319063753,-5.145246749250475,10.939094860617274
0.16,-3.2333633527921393,5.801350138481467,27.41022061869336,30.56231914110191,40.19767862400255,26.768264110169184,7.634162777439371,21.873931175231746
0.164,-0.5267940797058941,8.4919134379237,30.399450666421956,35.51772554667889,43.103432324262485,30.58661702663119,16.94915288462289,29.764052580596
0.168,-1.0376146894226963,8.415279978290243,29.143736152073245,35.90629999112008,42.25550767682029,31.908315006020075,21.55317375707307,33.899582818352314
0.17200000000000001,-3.1285552410197965,6.5575486233876745,25.18401173486029,33.34457094614589,38.828932294610865,31.59321534768833,22.112852571749045,35.238341255706814
0.176,-5.006449401928222,4.255790193890107,20.667912683862312,30.122879586335102,34.764076681158485,30.792299677906612,20.37066151341844,35.43986878774422
0.18,-5.673486456987376,2.468758986359717,17.156464648184397,27.928764462878178,31.69803227870466,30.325809639231124,18.037456138388507,35.80999334335115
0.184,-5.327839989376514,1.415278778872846,14.970352205389474,27.124514762715478,30.273341321211717,30.3463118803802,15.997205930357495,36.70829981143993
0.188,-5.039496879606901,0.7362391861507263,13.389856006756531,26.90296537138903,30.129060238461022,30.417667117665133,14.190957961152094,37.644643021514185
0.192,-5.953642380227592,0.007918708784188766,11.492526619046316,26.12412756211262,30.49250531087995,29.92982657813525,12.1124178224444,37.89710003562732
0.196,-8.531124429787837,-0.788742646921321,9.02214303838548,24.244122166963166,30.931501275451183,28.57737249905324,9.492700979428946,37.19248926227948
0.2,-12.228611420636724,-1.1571812526321992,6.739340188026972,21.75797924813736,31.739359569651697,26.619314333661805,6.722666831434822,35.98519507152116
0.20400000000000001,-15.797507888213602,-0.4245708619268953,5.995618666030282,19.87140312270077,33.68681059945095,24.72843383301597,4.718030371335544,35.158063616750894
0.20800000000000002,-17.976596149961097,1.719891137844968,7.841470579328302,19.65862587897078,37.32996334819438,23.563165831066044,4.359397291849746,35.3832810373068
0.212,-18.152963738231847,4.87920636918642,12.261632913560561,21.2860915975499,42.388397973438714,23.36332591344251,5.893340878447475,36.60698508356381
0.216,-16.639116483833504,8.049895302667323,18.019689890513405,23.801615206303836,47.64828961162368,23.819396781489104,8.664240810836304,38.01058994452467
0.22,-14.424818334194129,10.144212746339974,23.23003670113019,25.617985020762262,51.46599830877017,24.289807127036056,11.368544050823175,38.458995463428096
0.224,-12.605471950256629,10.603087843170613,26.271619048811658,25.361532578806305,52.56705678224807,24.178934178564646,12.67022598309984,37.14287322681366
0.228,-11.813078476710643,9.734736982667812,26.556334000516813,22.623015339302015,50.707776831306205,23.29074872578599,11.864902743086986,34.0589823178002
0.232,-11.957784970952048,8.562611160996255,24.7334346716583,18.201738916849422,46.83028256020202,21.963049386910598,9.240139693955939,30.063190994683737
0.23600000000000002,-12.405544787048711,8.23868844871049,22.213589108800875,13.681689355299682,42.58222229763521,20.859023283465604,5.925528191839703,26.450443603577583
0.24,-12.432604192299607,9.375585448183017,20.350686228637983,10.624127196510813,39.4869716842004,20.572323922653823,3.337981440220119,24.313487083411246
0.244,-11.679447516830521,11.687289024537677,19.747580198152264,9.841070636199333,38.245296624581556,21.27531027220357,2.5015198840807216,24.050941118320907
0.248,-10.349580570218393,14.149481706421511,20.05855730212909,11.115861520368185,38.508313498552866,22.604675033982403,3.5824693292421443,25.251039682915575
0.252,-9.074142265522482,15.569959470938556,20.317807487670734,13.444874925720683,39.1684513687419,23.820163372183742,5.844993209101403,26.952212239542746
0.256,-8.556098989074826,15.234821653680683,19.550413013112575,15.623902088365298,38.98729796326052,24.157217604958078,8.024386046178734,28.126535608970585
0.26,-9.182115100821363,13.295017567453783,17.341312838984095,16.878010931357153,37.24330081097298,23.240717231386725,8.946361618654691,28.1530201063282
0.264,-10.827844426601416,10.672418202725112,14.03459942472682,17.18613842456,34.056348495907514,21.31189314560993,8.086871836067075,27.057329505825237
0.268,-12.93495318994411,8.557783100074062,10.49911988302108,17.151790958846163,30.2311880243966,19.127111223484462,5.80813322407505,25.397588337963725
0.272,-14.779655018045673,7.8020195864128254,7.638404004495442,17.53166517610157,26.741944913953603,17.55566131490832,3.16974162079282,23.874379745117153
0.276,-15.791367851937366,8.530386905593332,5.940558588979798,18.72245838950164,24.1976958635222,17.10100970007511,1.4055534339272526,22.91615268575447
0.28,-15.757545290749079,10.179747900347593,5.353093787772764,20.529715368000893,22.63579393958537,17.663686581107868,1.3508063042804679,22.498906792589196
0.28400000000000003,-14.858454032666089,11.881755065435755,5.478329649389025,22.30864730345229,21.71872306334751,18.64207704871751,3.067553873012912,22.27451061886927
0.28800000000000003,-13.544456307895132,12.935193352200713,5.911587189851389,23.342569864511233,21.117862229115076,19.2883758814869,5.825859797383828,21.876075834229027
0.292,-12.335356796514304,13.09354543715449,6.480927367808249,23.20004141921322,20.77182855679905,19.076513402070532,8.43101535260007,21.165476924975906
0.296,-11.644039595256118,12.546963480363502,7.249565429347285,21.880189707720433,20.861175940838393,17.886949878386986,9.732614250399365,20.278165907101084
0.3,-11.658592737648632,11.697693476349855,8.357711030830956,19.742745589838137,21.580104013643336,16.004778463792036,9.111950793317874,19.48783474070285
0.304,-12.329360534093155,10.891183000952651,9.816338226878088,17.291053573307977,22.88153868939071,13.94477779649651,6.7162375372156475,18.98699924683524
0.308,-13.425398168242396,10.265485462743982,11.40515810924012,14.942246937755272,24.36014704154013,12.212320220429547,3.3510873550626457,18.697704179125026
0.312,-14.618687136254948,9.766505344283473,12.722535782389741,12.884531953140367,25.335223586610596,11.098705172015116,0.08827728138453494,18.21603601153572
0.316,-15.581252337529747,9.25995369470786,13.342394371434011,11.079647318606476,25.117972446519275,10.600257648220804,-2.212673707095064,16.955252203118334
0.32,-16.052008173551883,8.647575586859602,13.017431844244129,9.417076064770754,23.359448542489076,10.530059680381783,-3.2286144951654023,14.456854415787689
0.324,-15.886986905742901,7.897782297964682,11.793301234919227,7.894440500119913,20.283498249250897,10.697031538370766,-3.2260256182601097,10.709479882662777
0.328,-15.082292311302126,6.995903587002431,9.972434547452849,6.694871306902769,16.641492160206553,11.025823998576698,-2.8459937473587615,6.272653151214399
0.332,-13.779373913768723,5.877551768998956,7.944483474735762,6.081990113608526,13.37112466181361,11.52180400735324,-2.766554566733703,2.0943535602684733
0.336,-12.246888344396268,4.422031822290251,5.980604537574891,6.181520776492789,11.149814097424496,12.131902887550496,-3.420698411412104,-0.8891428827478194
0.34,-10.821929904945932,2.53619237122939,4.143335103803565,6.82563317041047,10.117424381749515,12.671764298449034,-4.8614157797960615,-2.1467662861529107
0.34400000000000003,-9.839216081513769,0.25141949707528966,2.3254080655719918,7.550016184392234,9.894808026130931,12.866290790919265,-6.817256604504337,-1.7395732206297225
0.34800000000000003,-9.544871598379132,-2.252737377027188,0.37719734743632216,7.755935722771028,9.836454261662425,12.47770560977051,-8.871444929013592,-0.23685831156058157
0.352,-10.013914354077201,-4.730119055414434,-1.7637935510396119,6.9595300875631665,9.347871135622768,11.426647291388008,-10.653754696712895,1.5661363879638657
0.356,-11.127091720136605,-7.017258369178535,-4.023213419654894,5.005423179349464,8.117439870740782,9.828124148604957,-11.969959369693697,2.9856475863811056
0.36,-12.594680398647483,-9.119676814536547,-6.19446182706929,2.183897100731201,6.219502891042339,7.978656236309007,-12.808755584082292,3.7112663582901178
0.364,-14.053005661714224,-11.172233987311415,-8.012463694113421,-0.8318962001008003,4.069648868101922,6.272988449605236,-13.273575532317409,3.874975501646304
0.368,-15.20243877212431,-13.291354563085406,-9.243685041398749,-3.2276961368859247,2.257259023598408,5.079386769831217,-13.493918194053549,3.884846289476627
0.372,-15.904932011914639,-15.414074588155245,-9.761164759803023,-4.381996539088846,1.315332360221646,4.608771081445411,-13.559478492237531,4.123546402059446
0.376,-16.196167377670918,-17.247545495338272,-9.588950566898575,-4.1388543035672,1.5254076293565504,4.820989458413123,-13.501614058027144,4.6947107742032586
0.38,-16.189648494797098,-18.361582994080095,-8.858980524194976,-2.849395985677347,2.857511783138989,5.462661146352502,-13.285919150903055,5.381796947465091
0.384,-15.943304753115513,-18.391169426478996,-7.721136170918953,-1.1715161053316479,5.046052176404601,6.203094250852246,-12.808491510189015,5.844460462153847
0.388,-15.352653098284804,-17.226722737410228,-6.245254370377552,0.26948699813192434,7.72359518948474,6.799161486858338,-11.899494211019828,5.90759536923656
0.392,-14.169130693592138,-15.093875328045556,-4.388905922779486,1.160081460069705,10.510459114398827,7.1806218474425805,-10.37107583582383,5.734872180347338
0.396,-12.168502684303462,-12.487945751160055,-2.0726177913118136,1.5700393487516067,13.031880053988516,7.418072298467905,-8.128001182847811,5.76606481982617
0.4,-9.362509538093036,-9.982043732436523,0.716262789892653,1.8324315653026133,14.936679711001716,7.658709829607687,-5.270815063904138,6.475523752074878
0.404,-6.1422767310492645,-8.032176495554381,3.8162575520680093,2.2982360836642783,15.946243249305553,8.043315675846316,-2.1450638572853222,8.08472870180799
0.40800000000000003,-3.2279594029736245,-6.870360823230385,6.854371655666682,3.1003923406103695,15.91763202228185,8.631897514744196,0.7242073076863562,10.387386989825018
0.41200000000000003,-1.4022913405674444,-6.510703725169606,9.315482869991683,4.049029848067448,14.873566113026527,9.354232862821846,2.8125779525344115,12.782965100870115
0.41600000000000004,-1.1565239951826243,-6.824762523701793,10.695644911177624,4.713324384804764,12.990236916654794,10.006869507656575,3.815163599722382,14.524602557724393
0.42,-2.429143027899727,-7.607404711529057,10.719471700843087,4.667961400609784,10.571544040374647,10.35703256085253,3.823607293096302,15.08197165580691
0.424,-4.6049555637584945,-8.610104337993107,9.495786606285947,3.753145746839664,8.006316583204352,10.292160338861777,3.337656876952906,14.438866253917695
0.428,-6.778491611246977,-9.554980603248168,7.523595916342401,2.1988875098829794,5.688576838983181,9.93499689258715,3.07944067320841,13.14142876858159
0.432,-8.179198032333716,-10.19662779957332,5.501691953675845,0.514990830088891,3.8816966178164876,9.620437354972182,3.6699146466630737,12.035741381145726
0.436,-8.531250504014679,-10.428485832279648,4.014519797264484,-0.7763903956374634,2.5991111612104305,9.72593736105955,5.302848755373589,11.841046451976581
0.44,-8.140247123747827,-10.362195770920835,3.283692355284984,-1.3773524230255134,1.6076633288221274,10.48048777031363,7.598307733118872,12.802101745107848
0.444,-7.674140228375791,-10.306519408166878,3.104877787115356,-1.2913768435462316,0.5716158137561251,11.834265721690372,9.725272146527232,14.613323357573336
0.448,-7.753929985437708,-10.60670553036448,3.0182164901461874,-0.7121609883392921,-0.7314507233711538,13.456957401247564,10.768916132140475,16.63348981233912
0.452,-8.572636385215219,-11.400237783304647,2.621716173040568,0.1801713028796712,-2.2450998490282927,14.863157066979966,10.183361642688624,18.243266898218508
0.456,-9.775537767589412,-12.441950015255543,1.830258856204864,1.3599094529711238,-3.616651210547843,15.593199380699389,8.094800190318438,19.14358601846061
0.46,-10.658398567424001,-13.127342626730979,0.9692139903979751,2.9605334293555643,-4.316860895370837,15.41536168588891,5.321584297645813,19.458083468635323
0.464,-10.572343508778317,-12.755928495288344,0.6269225525236379,5.1377000194197535,-3.844295803308796,14.439522011166446,3.062642369504829,19.60609119068681
0.468,-9.294321596735585,-10.91728931275884,1.3454601644955346,7.870823586450342,-1.9410640202363538,13.083321633639116,2.385943969827167,20.019444686727866
0.47200000000000003,-7.167086545301913,-7.798383200636636,3.3035606245289273,10.815387302976887,1.2529658910498256,11.882577668846807,3.732960371684385,20.85133484284256
0.47600000000000003,-4.936999684577131,-4.207952391609979,6.161515973173437,13.321373200249127,5.192680250733929,11.232548729749851,6.672850403553639,21.851321782236482
0.48,-3.3670475400144824,-1.2431952770646149,9.194530353167465,14.667672229192476,9.115111670550505,11.24095268347719,10.068979607584197,22.501891446808486
0.484,-2.848285742094845,0.247568749680795,11.624434066380445,14.39276491231044,12.336479321610568,11.739924616768803,12.581296919886427,22.344077004468772
0.488,-3.223431298288233,0.10899396654292559,12.968705878520495,12.53299393698535,14.490670491507217,12.423274991580456,13.274253235441392,21.28630266307232
0.492,-3.8829201497175063,-1.029312361503571,13.209869331635446,9.634657845610718,15.574853167547872,13.014005135492425,12.033356837850533,19.69785113168564
0.496,-4.084657491154644,-2.0873301522809697,12.695450499377785,6.519104975449864,15.799643557807713,13.355028529675565,9.574759961996051,18.237917162209214
0.5,-3.321541832626963,-2.1165386029031197,11.88025284269088,3.94349369673796,15.378503610222197,13.433322824205788,7.067070516432295,17.531262023772797
0.504,-1.5586591877604405,-0.8036915219880711,11.066468607424213,2.331019831776757,14.4065649116867,13.343801969502238,5.546101886515999,17.88328941420832
0.508,0.7747753761049125,1.3946855173173844,10.297656127811706,1.6959329202668414,12.889410483330494,13.227762364782848,5.421912675526755,19.170743923220243
0.512,3.0077627109235436,3.5489170714522515,9.441368052408507,1.7499421926459036,10.85874464495032,13.206594459236385,6.333215983657283,20.935365992076413
0.516,4.5349518481818905,4.8043953704818705,8.37053936184634,2.1054141276727023,8.486747378955215,13.327431993225673,7.4014190836755915,22.62127678958541
0.52,5.061129873996947,4.877799066445164,7.132101109136329,2.482505297971784,6.119451339629677,13.577629008988424,7.753966447744688,23.838408882169688
0.524,4.676217802883002,4.209655411170047,5.963416010589526,2.814234955005759,4.1876661019700805,13.913855791913647,7.018513335538728,24.52136541517916
0.528,3.7574502533018403,3.689530605761888,5.151487375803299,3.2072221716337026,3.020842316839662,14.272001765098821,5.525296707007328,24.892363028807722
0.532,2.7617998806543937,4.11383023537735,4.824523044616626,3.793017645978807,2.6557361612626664,14.540888137375077,4.110985009356,25.24732273387508
0.536,2.022603795040368,5.690426388677224,4.815554780150933,4.581209197479211,2.7778721483214213,14.52233763900449,3.639516651199756,25.71274345589336
0.54,1.6571938906427022,7.8945423211730485,4.745973524216879,5.433069590629657,2.8881275683261265,13.975306665305425,4.53794901983747,26.14219768420844
0.544,1.603709347463564,9.747273591932185,4.272423917858077,6.15785138134936,2.6195342981413887,12.7347083840491,6.592391065435322,26.214432154066344
0.548,1.7486053956514525,10.351414505712683,3.3466838519314024,6.655185348888153,2.000404604960522,10.845629914384062,9.098291140436004,25.65306737350261
0.552,2.0437615744085633,9.370302472961725,2.3046657600614253,6.98367970741117,1.4680845352534106,8.613209984536752,11.249244563257434,24.414953700112164
0.556,2.529120403891966,7.179377983131644,1.6922120498134063,7.293297984880724,1.6055651802594184,6.501111983914143,12.516782356273325,22.72741901445761
0.56,3.2687282928632158,4.640702565737456,1.950705052081048,7.686986272761487,2.7680153953042463,4.955416878099641,12.83026039142328,20.963886845082925
0.5640000000000001,4.222425660302974,2.6328688433710568,3.1304648190955504,8.089732433068889,4.821896761739254,4.2157182888529405,12.485187636317733,19.435274822087194
0.5680000000000001,5.157261322076238,1.6157101385372243,4.811780715452642,8.217275999231106,7.151624619222844,4.208787840632567,11.87724016611378,18.2118224681401
0.5720000000000001,5.693735812206683,1.4685745324070467,6.293466858093552,7.676653142923101,8.923610687721407,4.5772447324325185,11.242641493809515,17.06659557136311
0.5760000000000001,5.477978754146136,1.6627486751172,6.938543728417017,6.15458282048769,9.475891099372575,4.825782216052403,10.5541894224109,15.587202204862024
0.58,4.404619451759629,1.6566370500670473,6.5198101317678265,3.636281320233934,8.645635876132246,4.570070465427307,9.637331077844692,13.432733836276725
0.584,2.747425214927432,1.2570040211189735,5.347296892155327,0.5189538633828761,6.8467799915223395,3.737936629104297,8.374719299613616,10.583449278052058
0.588,1.0973098422410317,0.7337240239098719,4.104331311752276,-2.466406699372669,4.841415674022642,2.611878554814666,6.844009751291196,7.432822806455647
0.592,0.1146730742718205,0.6357353785409714,3.4880765119332864,-4.507181452552686,3.324608451828567,1.6830662686220421,5.29242896237065,4.653962870169153
0.596,0.19429004464228683,1.417162464647845,3.830077286659616,-5.043907827405292,2.5566210629942816,1.371936994029511,3.965200474746325,2.8926441520933395
0.6,1.2403020756994465,3.1148249369578025,4.937936614102,-3.9989880530534947,2.2755778673673603,1.8065282703614685,2.952828068639519,2.4652656661829724
0.604,2.684710503982558,5.26202477228901,6.217875146438246,-1.7922515119931859,1.9279519097966613,2.768200022848532,2.16577406107308,3.231127658848777
0.608,3.762097239542072,7.088403922122211,6.993700076551136,0.8541314554652217,1.0432827166796415,3.8296932514658693,1.4650491309860172,4.689427012925307
0.612,3.9053507823290374,7.886484921215811,6.824990741323745,3.2051855313384294,-0.49514810231755746,4.58366849271647,0.8554764143838156,6.216740609447129
0.616,3.0494174821943147,7.3393271142887215,5.642178009333179,4.7564271781632215,-2.4350797828572013,4.82372702556313,0.5817356760755956,7.320203539777822
0.62,1.680607434035835,5.653072606670094,3.695429278006827,5.352778522478047,-4.360772797534537,4.624069544771373,1.0431276778233496,7.795265255993286
0.624,0.5877258204373561,3.4262671335887944,1.359722663374555,5.139896379712695,-5.9676538085225275,4.2620908494243395,2.5379278221402046,7.725352681781715
0.628,0.44436100452662686,1.3392280015251572,-1.0592552924097163,4.393085976224484,-7.226772125737739,4.03828657270401,4.990378919995692,7.338605239185313
0.632,1.4480940811054666,-0.16540194360356963,-3.4123290921030502,3.3229130685564314,-8.349637193848821,4.087205028801463,7.835312038949496,6.809167264619077
0.636,3.1918205476217167,-1.054297652336686,-5.6720802610057035,1.9560347684650878,-9.583371682475786,4.266739257981953,10.159239681536064,6.1347683801909625
0.64,4.8526891680330095,-1.6306950725369234,-7.78044899201177,0.18030091023672412,-10.94823419825218,4.237319897370753,11.09281040647602,5.18409018930231
0.644,5.578138889895797,-2.2887531707918924,-9.51921821830058,-2.086719167275419,-12.093492823748193,3.6628173007472924,10.246644336287318,3.87043642324295
0.648,4.877358514876391,-3.2405651290523565,-10.497999586055926,-4.7083539893048965,-12.380815997812647,2.4265207986950372,7.946604070138278,2.3154245610870703
0.652,2.8428813012368437,-4.359309363220746,-10.270737290930583,-7.239812233305656,-11.17133494715938,0.736100232476474,5.131713397874364,0.8770581780839848
0.656,0.10846268574681517,-5.220083710728204,-8.539877433019228,-9.01361633232898,-8.170423246459109,-0.9535936841089097,2.9501870168785445,0.0050714944704850495
0.66,-2.397086006350321,-5.285600213808607,-5.3117263239387285,-9.353063664633964,-3.6258221150475265,-2.118986290312705,2.256334436275665,0.006292547586326691
0.664,-3.7937979525386822,-4.151928122260813,-0.9543712762019823,-7.841260204023683,1.7103875173415872,-2.37129399967489,3.2354462980401877,0.8628506070594995
0.668,-3.5466275288397924,-1.7402107393453434,3.868063269668255,-4.529984838343239,6.824731038334335,-1.5875909983160454,5.349070744543383,2.2106649347462053
0.672,-1.6180474293009866,1.6344653267111653,8.351683728067542,0.004895029553154018,10.750718600519804,0.06937957136437944,7.611649899383451,3.4927848516842914
0.676,1.5413641554566766,5.3282680200701975,11.726175478162986,4.7904445535549485,12.807498869114966,2.217987240993807,9.04018116738348,4.207225852054535
0.68,5.138507081044736,8.54628111055274,13.434223159055364,8.75333240102566,12.727112982504877,4.408714607719048,9.08338943087881,4.127057706248024
0.684,8.265887177801915,10.565060075366944,13.26056693788405,11.079224841026985,10.675289038572487,6.268314360624117,7.823302315526348,3.3835562765137865
0.6880000000000001,10.176252074614183,10.940837698079122,11.393126875161784,11.496695565396294,7.194748872502032,7.587457445501286,5.885783765675001,2.3742587377734026
0.6920000000000001,10.512442778201887,9.64100957350729,8.391193362757235,10.348666317740026,3.073870078477171,8.316898469007583,4.124272048920261,1.5403030547054186
0.6960000000000001,9.413886410674877,7.054481083557391,5.026722476473537,8.410453954099125,-0.8501487858242172,8.475870131207671,3.2240614190858423,1.1455657336139211
0.7000000000000001,7.465074661390133,3.8900027604241814,2.0718105917642333,6.551863633819494,-3.900642548736755,8.079524948178573,3.42847243359995,1.1902178237694443
0.704,5.471111396210688,0.9685461316614692,0.063605160105908,5.378366421856867,-5.744468852178329,7.113699534058924,4.460918804955554,1.4854060616054312
0.708,4.134020938432116,-1.0330404629814893,-0.8586644380758344,5.0100994115344974,-6.478494023645567,5.574891452378779,5.659505279697896,1.8221121682457806
0.712,3.761241295678019,-1.7972967587392645,-0.9622387876836456,5.091975748230084,-6.562715229684613,3.5405155633970935,6.263773919536106,2.1091766411019535
0.716,4.1513158710315,-1.451446169912856,-0.77998647412835,5.023953562516624,-6.5955945301762995,1.2052812185727362,5.718365140495507,2.3921251091256295
0.72,4.741913253938776,-0.44849451242129135,-0.8193713377867198,4.328234299888152,-6.975984935743099,-1.0998598291259896,3.9167615260982984,2.780701933264254
0.724,4.9287411877637055,0.6904217052493209,-1.2750568315746023,2.950079558036805,-7.61975581750346,-2.96045597634793,1.2905076758880796,3.3500469122081427
0.728,4.393465351273733,1.649666233565938,-1.8803529469458908,1.3353471178418772,-7.904882603362978,-3.988131796683092,-1.2940066561897083,4.084030110337039
0.732,3.278163638660999,2.4674822665948,-1.9822292793439829,0.23285318456095183,-6.936018317707578,-3.951149087419367,-2.8112886308753104,4.888673556364552
0.736,2.0965917858964076,3.462451968762082,-0.855624843008286,0.3055497468525914,-4.036003338193154,-2.8920517468052367,-2.458563713846843,5.651081004547166
0.74,1.4424401251757502,4.985228888056213,1.919818979456636,1.7734934197949883,0.8017056888955381,-1.1355232658047498,0.004744681484339708,6.295750995238336
0.744,1.6473078066863707,7.116441852355649,6.172583392124807,4.265249393646457,6.746453363515059,0.8167564067151716,4.084939307716354,6.79169553862323
0.748,2.6076183775316224,9.510999124150885,11.105224078164724,6.9780859776419675,12.387537507939783,2.485828211847206,8.656768732638398,7.118414129277767
0.752,3.8771266116404774,11.494349380297535,15.550672592796445,9.058625450377292,16.30241886409823,3.6139766661224257,12.333888566498104,7.213867288620236
0.756,4.938080762963523,12.36294240659663,18.38802430886858,9.979996594234365,17.646406179587245,4.236546043578983,13.965855128679323,6.951882373513683
0.76,5.4970128575562,11.749150092667776,18.968298647153233,9.741894491254925,16.47552350690222,4.6301930702653635,13.07886697517256,6.187584881312034
0.764,5.617742572907986,9.845058227226673,17.340168388072698,8.79826542298008,13.638085910471943,5.141442243849838,10.04125612934672,4.844042968419842
0.768,5.615023772901736,7.351459255080556,14.175699537663206,7.76786587023247,10.28982221505396,5.9802721379555805,5.86691415889004,2.9730187640818144
0.772,5.789723791089699,5.174399248698364,10.449300135143744,7.096660281123093,7.2967121028369775,7.079260814974418,1.7544017671439178,0.7324865204017783
0.776,6.180687083364717,4.0252392487499264,7.018817013425235,6.859985931592348,4.866725643699908,8.086806567834628,-1.4161382839525913,-1.6899518217953755
0.78,6.520987405208103,4.15399407554122,4.348708210422558,6.831569340165515,2.633901569188538,8.545754151447568,-3.351931663041171,-4.1269407907287246
0.784,6.42955477839206,5.336120555035848,2.4753074811399642,6.746131609395093,0.13139735737809133,8.160309751889486,-4.273145064426728,-6.405398365907331
0.788,5.719575021077475,7.10010591570898,1.2112598785270166,6.572728696928721,-2.6485026067162494,7.014095625120376,-4.5604495605984425,-8.259332274859958
0.792,4.610142049178336,9.031120660029558,0.4309958928132005,6.597706922701548,-5.004823688291765,5.602495332949502,-4.3650767231494,-9.287647878927203
0.796,3.6630958301088583,10.93715104364071,0.20222312844106227,7.220234222227475,-5.805616446008003,4.6061498168216986,-3.4850901818530247,-9.071622104700737
0.8,3.4475119620315695,12.783365644631317,0.685175880163797,8.582683223959066,-4.179308098220758,4.530785321516646,-1.6145940318919543,-7.4602563615843565
0.804,4.102868095564048,14.450625044525964,1.8346739605429434,10.258670952343039,-0.23601880010414789,5.377034414055288,1.1584151885697338,-4.891088631808202
0.808,5.0590152552528025,15.499273263495922,3.1057146586723547,11.214909441449151,4.6298213332304385,6.516211505477713,3.9488755098259958,-2.5360683327372158
0.812,5.12543211763753,15.140869812345386,3.416692527727946,10.134239786570959,8.11397568627524,6.866224066113887,5.107473338338764,-2.0914684990814862
0.8160000000000001,2.9747722475098044,12.510793705129345,1.4826069306484442,5.9835266212528495,7.964713984061575,5.310401421848837,2.8039844770436275,-5.182676101916002
0.8200000000000001,-2.1577337844319686,7.163769882139832,-3.5345191495812287,-1.4025296957551632,3.1205065901079365,1.226818360989455,-4.030013021438776,-12.57354740771217
0.8240000000000001,-9.907856216095894,-0.46223598284404943,-11.384286060279976,-11.01599626913577,-5.557530148868864,-5.120868207271656,-14.890495621080333,-23.556456530273863
0.8280000000000001,-18.66605768086808,-8.888189693351137,-20.46461074297156,-20.826385765472082,-15.379491810921877,-12.506455621598207,-27.50481757285064,-35.88177174322834
0.8320000000000001,-26.00570363175359,-15.894354368169445,-28.16706858902728,-28.357023495214776,-22.782788877850578,-19.036082509131006,-38.455730982329385,-46.36631294341322
0.836,-29.55514323455168,-19.240809129707145,-31.812679088045854,-31.509912548258455,-24.782374294829822,-22.768729921923637,-44.44652472704729,-52.00466644165448
0.84,-27.953595530202506,-17.518939529582497,-29.768231290098015,-29.304746427909606,-20.249540587272293,-22.401346971331577,-43.62882583959458,-51.10283893631305
0.844,-21.469213736727824,-10.767922492249227,-22.23092550934234,-22.237701464767838,-10.409587298759504,-17.761000182411976,-36.35759184998841,-43.91034236943608
0.848,-11.9778798469967,-0.5568457852122606,-11.268706536632294,-12.113515623461012,1.6825922916075342,-9.904511306497511,-24.998550992995945,-32.46950991601767
0.852,-2.2669169396285724,10.535062338081985,-0.03695378760954782,-1.420122447846211,12.428687838169537,-0.7786583640431672,-12.885365262219409,-19.76924985963666
0.856,5.048938898822541,19.837923712232083,8.473583436919341,7.505653645922337,19.13199114022109,7.409981488269864,-2.9572444084722065,-8.610946858504462
0.86,8.541059795283104,25.545984022468474,12.604491596115679,13.223101697447134,20.957590071577386,12.911899758037862,3.2868708887934304,-0.7063909862118294
0.864,8.452719737242802,27.294243242604722,12.545311991581457,15.561021402512722,19.010171428465128,14.953080723269522,6.045461491151968,3.632084189773934
0.868,6.430377589331329,26.119196972731714,9.980699227907678,15.493612215995938,15.564487308101661,13.876624183976105,6.660646586218661,5.176561352159183
0.872,4.62831794427413,23.837745270328725,7.086131554595681,14.580403465186748,12.867624884619374,10.872523883018175,6.648171511551709,5.106073633514484
0.876,4.6046332026049015,22.128006248826352,5.380556077758797,14.203453586763061,12.096142253763276,7.404251756172016,6.849730866432083,4.363647269648027
0.88,6.553725126826009,21.75869537160014,5.0493770362807595,14.951869806180014,12.957561078249682,4.618603169626908,7.150462162827353,3.365749523989166
0.884,9.249540129665604,22.309059088423368,5.037923926607391,16.41378189956032,14.06476144663327,2.9799242104114114,6.812987948471402,2.1199995394301823
0.888,10.744647990508753,22.502823859687425,3.825595616082694,17.46141418589758,13.82562742459686,2.265280427731568,5.141504828358279,0.5642657672315181
0.892,9.47199755952218,20.97512045505232,0.43520295986058954,16.887651274483034,11.361774356116825,1.8827775583589528,2.0582214596756785,-1.1567681186464824
0.896,5.166638608519747,17.066671806686628,-4.902966200364119,14.06977618657561,6.998473339257657,1.3064565685599518,-1.7488721550760715,-2.6694279342888194
0.9,-0.8743355682557876,11.262079953357159,-10.747996239885197,9.353184180510198,2.128276477995769,0.41275724687409365,-5.135812676098453,-3.585798158592013
0.904,-6.36474411574136,5.038943368752996,-15.10955519610593,3.955648780141928,-1.4400108086035743,-0.4690207428989197,-7.06592763691566,-3.7759277635145736
0.908,-9.144464656427488,0.2139504514256032,-16.390289518959776,-0.5537230905976571,-2.2888098790247113,-0.7877351191195885,-7.082866349320739,-3.4849296681013584
0.912,-8.252175608623816,-1.8752453659287198,-14.10199540155179,-2.9382871338202676,0.027156273587308988,-0.13901659354064577,-5.441909888560474,-3.203112599022802
0.916,-4.409346420210255,-0.9590638137987071,-9.04085708074058,-2.8257420356493412,4.8519338722052225,1.420476031835733,-2.9044902852614314,-3.383064167702628
0.92,0.3642792492364606,2.0996446022223267,-2.8460369399533647,-0.8174593945597621,10.762383545900207,3.3224538280227307,-0.34071683655531615,-4.182601108072049
0.924,3.789173282477492,5.766140375680493,2.7587155763685587,1.8535337089365385,16.16316137145202,4.722889298695577,1.612047629192375,-5.398138016411849
0.928,4.460063126577097,8.568673900354042,6.634537812272583,3.9233221721086124,19.854978154388277,4.906502625763551,2.6843035929915686,-6.625361344904604
0.932,2.4799084741964634,9.730318153219741,8.512146435959835,4.651335939042383,21.34454471496042,3.6431505453413138,2.9038704036092895,-7.539472027618331
0.936,-0.730893685327942,9.381054920891586,8.793502192081178,4.058026891521877,20.81258201212586,1.2863801452767802,2.416834133633529,-8.113498858254843
0.9400000000000001,-3.2988654187465727,8.296293926365252,8.095147626597736,2.777031223143581,18.841680065633568,-1.4100118850428771,1.357849304769502,-8.628606022360145
0.9440000000000001,-3.954920985717422,7.342981878995545,6.819957126663212,1.6312992707931926,16.08142130739168,-3.669185891936877,-0.17838547342796574,-9.46831622078264
0.9480000000000001,-2.683981587748576,6.961762222153936,5.000926358370293,1.1869595307857708,13.01752015502234,-5.051483110839172,-2.083362699218469,-10.836096432492468
0.9520000000000001,-0.6164417461309313,6.979537168860702,2.4770787178389355,1.5174731464971956,9.915139816418218,-5.606206909506909,-4.169671815642914,-12.57595452112605
0.9560000000000001,0.7225981825928329,6.806398469313535,-0.7959902692147125,2.246024245372837,6.892648894339686,-5.783214957700238,-6.1759513967913335,-14.214123398317042
0.96,0.35559095454470935,5.882491444802554,-4.50374840877339,2.8151969165238597,4.048715701429046,-6.140503571291902,-7.8318081793713645,-15.190000661644603
0.964,-1.5759648291525536,4.091227855134434,-7.984061440685991,2.8032319530468612,1.5485176803346121,-7.026744661072826,-8.953195061860356,-15.1408005128294
0.968,-3.92432975168731,1.8926631597619235,-10.489673706010308,2.126281133302655,-0.3668498900568693,-8.39802933723422,-9.493106651369999,-14.065829222100092
0.972,-5.247472699146897,0.10090995621817456,-11.531227377387268,1.0405679461500768,-1.4469022716626796,-9.850595576440355,-9.519155325134875,-12.297918815672006
0.976,-4.701793712509698,-0.575422274504831,-11.129884396214266,-0.048131873415627524,-1.5496222390409002,-10.858602883359254,-9.171358754530957,-10.337418259022115
0.98,-2.565046006295688,0.05644561628014344,-9.789602432050742,-0.8172119317218858,-0.7233288334174404,-11.047925946611485,-8.600987732280828,-8.651093562514575
0.984,-0.10175490074976778,1.5350516450205305,-8.219854612538484,-1.1852672386887662,0.7948504011860678,-10.374205093252385,-7.941845908234882,-7.546223001248791
0.988,1.1452477219381763,2.9557327976242505,-6.964420916126073,-1.3304429789994856,2.6643202675758175,-9.11877344589584,-7.314169153508374,-7.1603612306300874
0.992,0.24403975266557154,3.435390499623736,-6.12368899703938,-1.5665766951742626,4.570776679350615,-7.720659069397698,-6.819050035995133,-7.531957763829041
0.996,-2.5799507597301954,2.570600507563313,-5.347445488751873,-2.167136562666883,6.328705678056849,-6.570035051429613,-6.5265444800397745,-8.670457473103625
1.0,-6.025695399364622,0.6610909755643206,-4.068824908161787,-3.2082841977228327,7.915757598665095,-5.8455237555490385,-6.447158758315027,-10.554646498090847
1.004,-8.375456663368368,-1.4179740311868727,-1.8590581934322472,-4.502223856447472,9.425787815300282,-5.4804708615424715,-6.5284904500740595,-13.064463382698705
1.008,-8.368909484886444,-2.628599426857363,1.2984347067153976,-5.6495585307766305,10.972217146683306,-5.254138680250435,-6.683081962721644,-15.90823851788241
1.012,-5.820939709990171,-2.2502049401637123,4.966448554561794,-6.18607173008013,12.58309601831479,-4.931861202106802,-6.8310831823109766,-18.624801496766395
1.016,-1.690593622376582,-0.2213115883014325,8.416454393586264,-5.799158209680854,14.120320573143545,-4.413091390039881,-6.962436135259395,-20.707274920263217
1.02,2.4306964645320477,2.830332436232652,10.931623876100275,-4.50483192297952,15.281446482241336,-3.7846799212429687,-7.153868824875417,-21.793848705855908
1.024,5.089876343560263,5.861182876029261,12.076188240385363,-2.7131050503992356,15.689407976257826,-3.2684899556506934,-7.530736302808009,-21.814756811257666
1.028,5.592506616625087,7.839644537832555,11.794072165868783,-1.1397797076638199,15.028799798613818,-3.099627516649889,-8.205799727030808,-21.023418397830028
1.032,4.20854927397238,8.144021178460662,10.319733374543375,-0.5646665513836524,13.169905700798608,-3.391771164559941,-9.222420885811516,-19.89223043320817
1.036,1.888050449757202,6.750279273004935,7.962522990934758,-1.5391891667898108,10.21098852454179,-4.086324771180443,-10.551491330670387,-18.930399929218083
1.04,-0.2913712858301096,4.171723834421073,4.934711363623592,-4.14322578424526,6.434099918274114,-4.983575075524641,-12.121295441048005,-18.508218871038025
1.044,-1.6450425265253443,1.1977552344872038,1.30360247939484,-7.914221627585221,2.202479500066147,-5.847393683655355,-13.847963552564579,-18.756799348512004
1.048,-2.117382878924218,-1.4286053111006822,-2.9017061599658973,-11.983746224404058,-2.1315991304800264,-6.514059378641832,-15.626722268839558,-19.547980388227643
1.052,-2.1623323905989764,-3.2543574646147135,-7.506673749435095,-15.379818577933293,-6.281365215350434,-6.937021854807426,-17.288607741483474,-20.553804934110303
1.056,-2.4159659087949876,-4.2212701223556905,-12.104517053089467,-17.39537002347288,-10.043336133067442,-7.178561193905807,-18.588638414941215,-21.357192034724903
1.06,-3.3401092688836798,-4.6050442076752915,-16.11068678980746,-17.841704629007836,-13.272244185527825,-7.3254560957007016,-19.242998988230966,-21.566734702792246
1.064,-5.0264462787448565,-4.842136846203857,-18.958162440050955,-17.084057997017453,-15.840229090760886,-7.39367781933197,-19.03555611648926,-20.912083542896198
1.068,-7.215729353677943,-5.32629564450167,-20.326421827302966,-15.843715432284398,-17.60637381763945,-7.287297129409126,-17.952550512193284,-19.31461641574242
1.072,-9.460485616369624,-6.2498288651001985,-20.252706840707106,-14.861694792521348,-18.41409912676113,-6.836056246620956,-16.239993218660402,-16.922206979360908
1.076,-11.3099058976768,-7.529517553756705,-19.074547706284193,-14.585378391951053,-18.115221760547,-5.920440037833487,-14.332033295376732,-14.085450872421234
1.08,-12.408471069747407,-8.815004518422029,-17.206853950145614,-14.991030092907977,-16.599355853569477,-4.580667856549553,-12.640511195603722,-11.261588469662456
1.084,-12.511926500388768,-9.58845623804632,-14.897667529286082,-15.618778784323922,-13.82488571708268,-3.044444184788972,-11.311101975503334,-8.858160554039387
1.088,-11.474217549055766,-9.32390229393809,-12.111153603829734,-15.784800740003902,-9.848012362572945,-1.6315830090693453,-10.099035818852826,-7.077021545917887
1.092,-9.289765634112655,-7.675363856783633,-8.619777925950984,-14.884673777658918,-4.872738786774789,-0.5734855421983411,-8.472454367425144,-5.856662291896782
1.096,-6.199113531128432,-4.649680105987272,-4.290474447546785,-12.67735620364192,0.6816645208846239,0.11983942538472547,-5.93847429645848,-4.955597992117873
1.1,-2.7522358640155744,-0.6784745389288673,0.6360969554557414,-9.41488014659808,6.155981951224021,0.686564150664708,-2.4035060805472312,-4.136566732784104
1.104,0.24210506768804407,3.452570435907546,5.437999158501498,-5.778259147797371,10.71935376210422,1.4877101359147673,1.6307066001277235,-3.348109671118891
1.108,1.9396156879665796,6.829398938825761,9.089870051354865,-2.626328798950908,13.561315734539221,2.7984225471213904,5.180019727788931,-2.7740103699334213
1.112,1.8061660278208365,8.726915290945499,10.686336279169609,-0.6493996649314795,14.161564534963418,4.6428147682313465,7.204076703549617,-2.7011573917302485
1.116,-0.08826982793357274,8.881032190202632,9.87363046690598,-0.08665008454227063,12.518854716055102,6.740692357076568,7.124310754764338,-3.2862163261197566
1.12,-2.9950907059976544,7.600184234615881,7.078916986748482,-0.6196743625591807,9.21262864473465,8.632145039765419,5.178326344600919,-4.365986852136757
1.124,-5.742211254205358,5.63944695489954,3.3775387317032255,-1.5211915725494691,5.226326554194657,9.88733233896346,2.3870281029530815,-5.456540670529648
1.1280000000000001,-7.2260356043186675,3.8758351693290933,0.037662755807104986,-2.000238041571265,1.5870295570471171,10.292727640118756,0.12036059679030586,-5.967675330225575
1.1320000000000001,-6.896924726353518,2.93419395537353,-2.018603222175443,-1.5812800235030409,-1.0183356079687655,9.932242501076871,-0.5072975738894456,-5.512928013742567
1.1360000000000001,-5.010444673722759,2.9190913003496917,-2.5966190471253867,-0.3550281479060686,-2.4758076057773906,9.09628809759397,0.8657224010280515,-4.132869383677644
1.1400000000000001,-2.4800887943415546,3.401351989753948,-2.2339183988069635,1.060216227163437,-3.1964015820472014,8.111533337091714,3.733222222808763,-2.2759836721088504
1.1440000000000001,-0.40035886100054086,3.6671367363478566,-1.8438036081770406,1.8437050446282228,-3.8075715259346907,7.1897472855944216,7.040600481358069,-0.5187037506207162
1.1480000000000001,0.506332755448966,3.100293838297148,-2.1915268328948514,1.4281790733552953,-4.740997627060551,6.390425611138198,9.757595922049404,0.8129478176233533
1.1520000000000001,0.22701187467237105,1.5084812389250146,-3.4716507136668042,-0.15858985308295814,-5.946607723508805,5.705078372983735,11.397322732891553,1.8667156013320891
1.156,-0.6197367174108876,-0.7876145779232502,-5.2372985861848065,-2.283166160293149,-6.910504222992586,5.146155052155336,12.189710543518231,3.1592098980477203
1.16,-1.2039050641567428,-3.1290360231591876,-6.676113111347149,-4.032189940614444,-6.966288102532872,4.78994845665602,12.851810761309935,5.186929964133469
1.164,-1.0035961789399153,-4.8574234746929505,-7.07103248614203,-4.7129647854644645,-5.711283609739439,4.730692719055696,14.099394051781019,7.994005639729039
1.168,-0.11777268664445728,-5.631728516892963,-6.175045577413584,-4.241592067898182,-3.275634201793764,4.987546506245053,16.195545998011767,10.996140169096634
1.172,0.8150049183459487,-5.549618684955931,-4.2763080124127555,-3.1796630894100417,-0.27908681743656416,5.464045681163043,18.800164276286978,13.21192448817601
1.176,1.0351591203898352,-5.02864359372461,-1.9691933433105078,-2.4055844579193035,2.498849880443231,5.984260995394834,21.16911713464242,13.79317358145272
1.18,0.176991725823882,-4.519944568368828,0.22810266348324149,-2.5934707029591664,4.542254983334715,6.413027835399589,22.59039594107071,12.545765520137593
1.184,-1.4452638449608912,-4.233770139808257,2.158260642944697,-3.8122318126147547,5.8649871967249965,6.759311604827417,22.77948206363226,10.108611168654534
1.188,-2.9444311337017552,-4.0317470890927325,4.034633592948012,-5.474869522800873,6.960382205278165,7.178468495342713,21.9962490763819,7.642620559722673
1.192,-3.295131854002193,-3.533090133902988,6.202983588054849,-6.658450311574143,8.468319720054296,7.866311356868209,20.84694214702813,6.194360379573936
1.196,-1.8537217560904082,-2.3712878338633345,8.796858036202138,-6.615250904883851,10.747806550081805,8.87861994553532,19.887635929421776,6.106373901098777
1.2,1.3346715179461626,-0.43769878191505995,11.54297272660915,-5.16153316640839,13.614123029081384,10.016006736635973,19.29346308908498,6.84000844022512
1.204,5.578125449725803,2.0086638666839463,13.833088924076947,-2.741646582503563,16.389368719572303,10.856940225230574,18.78674766216227,7.33413606012482
1.208,9.879696257821479,4.42547008750671,15.032155096135284,-0.13695264284160658,18.241839706507562,10.957634150984632,17.861866308645403,6.706369952919886
1.212,13.379204249324857,6.217565560665662,14.84650565823631,1.987945286068225,18.60296520956217,10.117288430819826,16.169790528467274,4.866103585198289
1.216,15.634789867455083,6.966479304259792,13.484213953991457,3.386930360799397,17.39951769031495,8.510295616742951,13.793107572951158,2.6364631317269414
1.22,16.63444010469675,6.557413517678015,11.5329075079826,4.2284366859817055,14.996148632253608,6.621132469275835,11.259547607435707,1.3023386386403217
1.224,16.592818538834308,5.161467073875883,9.612765509722522,4.825502637489535,11.912622237133291,4.995234984458875,9.280724708588423,1.8466287143382942
1.228,15.72300560566191,3.11795659519521,8.008875864828042,5.320272235872835,8.525325830834845,3.959590211624345,8.370770020995224,4.343466402297054
1.232,14.143820538735781,0.8096913161257362,6.5415339920236875,5.565774818396221,4.961493422846615,3.500552162610802,8.591471011602152,7.892275025565141
1.236,11.949651001018083,-1.4217964670983747,4.731296877111163,5.278310136780419,1.2318059365643421,3.352616671537362,9.571228629070902,11.137200785594814
1.24,9.365281155327011,-3.2977449699187673,2.179196980336201,4.355142392552807,-2.5102589727912346,3.2583784455437126,10.79499250407116,13.05951733783013
1.244,6.826602396457474,-4.60263621160766,-1.086469548342393,3.106947576157836,-5.797263433318221,3.202638496770305,11.954258573395236,13.555769905400666
1.248,4.874575307794657,-5.2124235272112855,-4.51710184924832,2.1973484282093523,-7.925341723867859,3.4549701967398505,13.131853340421912,13.455923873636493
1.252,3.9115810859425437,-5.144072686136042,-7.2484043383055905,2.2900187718832967,-8.267540670545714,4.387069642487404,14.70455389883955,13.96568504017796
1.256,3.962167973088981,-4.604721146003612,-8.519469302855214,3.59077505528694,-6.654276675566507,6.138529164059037,16.99760338604392,15.857260027377379
1.26,4.624287622355041,-3.971597460677458,-8.043517735110981,5.594580151840091,-3.5748114916914346,8.370070501107875,19.92261677847273,18.902886661416233
1.264,5.261416450924116,-3.6746512841673393,-6.125794583627794,7.238026724636256,-0.03356446066391072,10.289476525071223,22.84119698532868,21.898300464560634
1.268,5.341698948333033,-4.009193011265779,-3.4661533406606395,7.427559959238351,2.9065066678213043,10.987832974390585,24.775846071356682,23.281081858817743
1.272,4.74456448536057,-4.957418148721899,-0.7626344302616417,5.676163966170861,4.653648648576564,9.942842025200662,24.88504699672103,21.98662962374965
1.276,3.83676381378973,-6.142234835896943,1.6111358953385206,2.4664920505847476,5.37276113698681,7.377258843056552,22.920080291061822,18.048921122118372
1.28,3.2711058755771774,-6.960547140078688,3.6865910841952427,-0.8834109138842905,5.843128515874014,4.265083782342117,19.406437220844964,12.616171708036745
1.284,3.607323835282841,-6.866599348857562,5.699553758630827,-2.8211265616209857,6.945708998219743,1.9236402066308074,15.412050086162708,7.385643391410667
1.288,4.967854234063452,-5.673990820889685,7.757383274727545,-2.319136178790359,9.071740173263606,1.3858987047715345,12.015647735739549,3.795964242253831
1.292,6.942627959739184,-3.702770443055215,9.622145806179105,0.6162390935314761,11.80016561940738,2.893621140114192,9.789833170289967,2.4186118901825466
1.296,8.797987430490593,-1.6903674479508481,10.739880257393452,4.937898904298891,14.029025706712673,5.752836393861799,8.56906037589124,2.844211737178739
1.3,9.877646634403845,-0.48046183608312276,10.539977874595934,9.059370597991801,14.514812760968198,8.665786820127323,7.649453020577312,4.070196569093241
1.304,9.950984222668922,-0.6383443148097285,8.803110164988539,11.591354132204287,12.529365149288424,10.359496212588056,6.295098686655365,5.11985677658231
1.308,9.30343435994564,-2.190855814623319,5.859917669409697,11.930195890571667,8.279435612808811,10.190689445435055,4.240174545259833,5.535507407264959
1.312,8.527742398534429,-4.621622307473444,2.4969515291077187,10.427199832050974,2.8570105675489685,8.442702791067859,1.8978573037747992,5.5022401941496355
1.316,8.120661186711459,-7.149096058552459,-0.43168650625921146,8.0729329877895,-2.2773379000591376,6.1369093638004415,0.127196421483859,5.585328605820905
1.32,8.123541689636568,-9.14716355627479,-2.451064347159445,5.907782174028398,-6.0020581671115,4.494086510661873,-0.2976522192157063,6.282634824112392
1.324,8.034356564939571,-10.480907770331214,-3.7241637037814144,4.494248055552816,-8.052483774930806,4.323673302296811,0.8083388536906568,7.68794254153363
1.328,7.04986494745981,-11.56541232312702,-4.96223889977955,3.7176971310364024,-9.068013999370123,5.645637778699893,2.8647418813689,9.437967109853162
1.332,4.541064812923196,-13.09029223507514,-7.010092741159497,2.9962017135312635,-10.15060421322869,7.737276721325543,4.804869601589417,10.940138943403326
1.336,0.49769692728978043,-15.561595206398124,-10.348852607250592,1.7343489244258308,-12.182049957093113,9.519207889719837,5.649238820491519,11.709605430030024
1.34,-4.322799802431291,-18.91618487987671,-14.765620933603714,-0.24792688754678238,-15.273243923557857,10.084235247877587,5.058928020957865,11.608396190925305
1.344,-8.66263224974,-22.450902810979642,-19.390229559571708,-2.574282955170929,-18.653742007750225,9.084879327427188,3.531295483762733,10.86008526670139
1.348,-11.323097041540677,-25.134163447190076,-23.074366949155774,-4.517571425629285,-21.047562891010784,6.816235489855899,2.1194465694597966,9.866616624231938
1.352,-11.729697290730655,-26.142056832280105,-24.891834340815876,-5.412048941355351,-21.327383425648804,4.0070696067705285,1.8399602371728179,8.963550504955492
1.356,-10.21382280713533,-25.32821588571369,-24.526203738801087,-5.049003742279638,-19.105620596448716,1.4288574278107262,3.088654754745221,8.254631953478565
1.36,-7.837625029767423,-23.334747594335568,-22.33984552809852,-3.81453151291862,-14.957489223429548,-0.4417974387361028,5.402927833958529,7.601098630404522
1.364,-5.859107041665993,-21.26418520718562,-19.13051439082392,-2.5038995691438686,-10.164929364614181,-1.570298494752933,7.691028757542881,6.745856553850899
1.368,-5.112948131581106,-20.06689502110021,-15.728985488714898,-1.9090927946190277,-6.114432990800196,-2.275294917946667,8.801489721603502,5.493432319851308
1.372,-5.626353343424853,-19.977623474566826,-12.647409027385038,-2.4022465152120276,-3.6750476112665638,-2.967874177009435,8.124244648894091,3.8346111636710702
1.3760000000000001,-6.680331449188543,-20.350003342603486,-9.97579289675923,-3.763933911544882,-2.8816334156108496,-3.90384132627878,5.8830466322269785,1.9493201930772557
1.3800000000000001,-7.266207182993639,-20.0069558741543,-7.525051942536265,-5.341842129840188,-3.0634048861720657,-5.059072220490634,2.9963308121223236,0.10187379029684962
1.3840000000000001,-6.679400943039582,-17.941687925254882,-5.110287698387765,-6.4420144847354095,-3.3160230346147728,-6.174384889978683,0.5966398751479574,-1.4902582018376052
1.3880000000000001,-4.92053300261523,-13.984966296301536,-2.794990362757744,-6.725704256667086,-3.0371804426877134,-6.920902759396995,-0.5184329232215532,-2.7332071521504986
1.3920000000000001,-2.684652243046912,-9.043226141672676,-0.9354102651832363,-6.384420239423889,-2.236157374550203,-7.069858833005128,-0.20560968223981035,-3.6454068907687542
1.3960000000000001,-0.9626101699659557,-4.754307676060307,-0.031123354339797515,-6.005478971535922,-1.4738181205066212,-6.6115230263494595,1.0566509644922917,-4.277301732311571
1.4000000000000001,-0.4788545246956346,-2.710960013479962,-0.4558724883099785,-6.198407561292697,-1.4920587280585096,-5.7511492857065605,2.5089563677829574,-4.615692771880276
1.4040000000000001,-1.2852526445904005,-3.6590256664840126,-2.225171108075301,-7.1992893927990735,-2.7495389587274985,-4.800116067788622,3.540955543239761,-4.532026886483436
1.408,-2.735084852050022,-7.10199311634733,-4.927756870625672,-8.68028734462041,-5.12131965491335,-4.016998050641632,3.962362512427717,-3.8057717872216017
1.412,-3.815124966029998,-11.516867071849447,-7.8376889219453005,-9.85937439526515,-7.908115763851129,-3.4584957048518845,4.003404068602322,-2.2160096166435324
1.416,-3.673544963448421,-15.085559843719238,-10.18952926716338,-9.880917575318563,-10.148671967966038,-2.958689204098846,4.0602879641282925,0.32717171565855097
1.42,-2.0546760625275056,-16.557289271476293,-11.476358476567839,-8.25773257201945,-11.073580266881436,-2.2346254823169147,4.366333373427551,3.661102349151406
1.424,0.5777579718360357,-15.792430113909177,-11.64362351611635,-5.141738566606364,-10.458505166839132,-1.0692345023089729,4.796354138336028,7.323387276539506
1.428,3.2543451136652948,-13.734715199867424,-11.103143799407917,-1.2906177860750176,-8.703251591943626,0.51533903334348,4.908013175674569,10.623386035183103
1.432,4.9312850184651325,-11.853804039451461,-10.537097473870745,2.2540854932512957,-6.617138468809571,2.2110049872317177,4.210822948200075,12.826397018766329
1.436,4.909755112772473,-11.385091487447426,-10.599834266766266,4.588840176485064,-5.047839962402577,3.5121267187387275,2.4920602496149513,13.379038630787363
1.44,3.0821866129917908,-12.750746055755371,-11.617360163967533,5.273777118298312,-4.5357017602636915,3.931761504356473,0.01900426549036638,12.089636026144035
1.444,-0.07046227549835749,-15.434066946655548,-13.421227436854679,4.416163916394908,-5.147012487030224,3.2272728900461516,-2.513782677166091,9.185835345787382
1.448,-3.701011700219169,-18.326265451970357,-15.409415211230225,2.505970987744149,-6.535230057885201,1.5164573038746312,-4.291368685713678,5.224267720041098
1.452,-6.92038501839852,-20.3126080985121,-16.792755337341077,0.12680377263950504,-8.159662087942706,-0.7713773059404048,-4.7770627234676795,0.8870347113806929
1.456,-9.107895384650874,-20.786677532076283,-16.956537038082388,-2.3155970373545642,-9.552492299319056,-3.124910780317805,-4.017033584685123,-3.2533278829250776
1.46,-10.085817644671806,-19.842995805134706,-15.742282787692602,-4.701352784883966,-10.48887481075144,-5.206478416816026,-2.656391374897794,-6.876208744552059
1.464,-10.106288500943265,-18.09910509866222,-13.515319080172048,-7.112644750977779,-10.988683683193813,-6.998197471322783,-1.639679800149679,-9.896269076323733
1.468,-9.653849390040705,-16.278930556486557,-10.955902398754915,-9.616986271157657,-11.163057108895373,-8.728796925617644,-1.7190468046828755,-12.287710504049755
1.472,-9.154701796659538,-14.812259679882118,-8.665692296972338,-12.064232322829412,-11.02100677065755,-10.609493250027299,-3.0160063533548964,-13.874076919613799
1.476,-8.735821669328288,-13.673698424410759,-6.844323109928155,-14.049708391568856,-10.386787754327088,-12.580463202770261,-4.906076710469279,-14.251786578743122
1.48,-8.135476264651516,-12.500106317636892,-5.199873665080304,-15.05592150911616,-8.988632788679752,-14.222498701466975,-6.30087900104445,-12.93272019003598
1.484,-6.855479636522432,-10.90272847239794,-3.1753812744027528,-14.720184293862985,-6.6867409623046115,-14.934214172861175,-6.230382091223873,-9.669963417589315
1.488,-4.50054415273371,-8.777567443501539,-0.3870682655742712,-13.073460032432195,-3.700932224013741,-14.28466315325386,-4.439362001397967,-4.78521949390597
1.492,-1.1101790413358685,-6.409123736450056,3.02201486667218,-10.581187275307457,-0.6540972438924655,-12.3030200699759,-1.6308018674099003,0.7393732600357907
1.496,2.717374964051487,-4.310209713360564,6.3288861975270265,-7.946313939506581,1.6423960194915708,-9.528560744911374,0.8103674210560712,5.523025798102026
1.5,6.037327734125938,-2.8882088271011526,8.570892703086429,-5.742439739447946,2.5845638468563266,-6.737280001925683,1.5164377309447445,8.337638368002445
1.504,8.027922707881771,-2.137269004287191,9.10454716084132,-4.0710173198658595,2.154404519695163,-4.490398835936503,-0.09076674060270307,8.706452807231472
1.508,8.449633999260186,-1.5662971085748723,8.033560515574209,-2.459582444462285,1.0419499394483864,-2.783203180464625,-3.3977173937801126,7.211157505136725
1.512,7.802610908530369,-0.4522573536414711,6.219993009572136,-0.10778570821275935,0.3607713855926704,-1.0369522088221856,-6.842298635641782,5.269447097263765
1.516,7.014386575181561,1.6662424263267894,4.775497615537461,3.571440547819293,1.0154462256250554,1.4720157478150213,-8.761063116635341,4.409722111045994
1.52,6.8049049237806685,4.53164810639737,4.308875527520286,8.39013349227389,3.032645675333697,4.988573626182188,-8.402643830435409,5.377629006783536
1.524,7.093574178891686,7.03115173360311,4.3701857273772475,13.134635893544328,5.254118167431443,8.831412164439826,-6.553288438788513,7.539595833966814
1.528,6.836623557825078,7.525785354143409,3.484106923624495,15.84207659279673,5.66589290869706,11.445630796577461,-5.365620974380363,8.974534099095763
1.532,4.496866765234699,4.570444357706947,-0.11641350515492377,14.57651709021411,2.310221484196518,11.034341975584539,-7.366820469385857,7.302330716676806
1.536,-1.0718260831145017,-2.305136897104603,-7.4229745967695635,8.353946195829849,-5.634973464435461,6.455088554284885,-14.118286933729905,0.8802635413521784
1.54,-9.76537812258357,-12.126250264765986,-17.79543130914317,-2.207771145278457,-17.149727680687647,-2.0550649631768465,-25.18286603321758,-10.200180905691013
1.544,-19.913871950846442,-22.598762403300498,-28.849302697020903,-14.87674244653681,-29.45899488854775,-12.741202541190432,-37.97351248288578,-23.83988241829684
1.548,-28.76636803784004,-30.831994334028423,-37.25075276248754,-26.497994954022943,-38.959521635717465,-22.893745230976492,-48.63396720107448,-36.56894087399087
1.552,-33.56816346644882,-34.35389907116769,-40.0623804762763,-34.091989540356735,-42.601209395632395,-29.84500227480021,-53.56254374100172,-44.831175185487155
1.556,-32.72068641921669,-31.99457244371297,-36.02635299803478,-35.90794375027872,-39.107872788208624,-31.97413241796312,-50.89141807609485,-46.34379174324022
1.56,-26.444471783794143,-24.254613625811544,-26.124843638139282,-31.96548720401188,-29.462046341319365,-29.23873178879876,-41.22010355144994,-40.92019908032671
1.564,-16.633271582728412,-13.028371773551044,-13.143642090339199,-23.878528370696586,-16.43987499242394,-23.02614501949938,-27.286983803611292,-30.410120642423863
1.568,-6.027092107377939,-0.8597340056885514,-0.48058187666902086,-14.109236467818846,-3.447531151585281,-15.47578153062932,-12.785992768787764,-17.8413523412255
1.572,2.864332509063388,9.92563933864676,9.22098956060654,-5.026766628368932,6.7758110504310025,-8.616018508651905,-0.9123864367848,-6.212916744761969
1.576,8.558274537040234,17.835932771284206,14.924544275301741,1.7967294763984683,12.988097538880538,-3.7323594441586465,6.676402229717496,2.496210776738735
1.58,10.82643780858416,22.403138147263235,17.217854668644577,5.825273432406902,15.514185621836077,-1.1664264618957532,10.087402895116611,7.714182355512094
1.584,10.393651564947504,23.988405021727885,17.59565062119691,7.363447278698004,15.659035354128719,-0.5202684088108072,10.626928114605107,10.014110870313743
1.588,8.397272859296208,23.405604498650064,17.479317271088803,7.162763149415696,14.880968922185275,-1.0490351601838483,9.855656836367416,10.48511322271952
1.592,5.941969147382224,21.584387414761295,17.547194637054417,6.092888925920306,14.177750890145035,-1.9882984984960785,8.810754586742405,10.126323879698248
1.596,3.873249423748348,19.348820166533642,17.631805186396377,4.9569396918991515,13.897474354605492,-2.7526689394944697,7.724791915616606,9.525966453838919
1.6,2.7434979447164096,17.324034427385413,17.150503845869935,4.431726041716502,13.933819100389883,-2.9881627407421547,6.295386705244255,8.890424534697559
1.604,2.810083798895903,15.895151099827672,15.703779948262309,5.011327824471664,14.054565906957578,-2.567277790301887,4.228596152504906,8.270899715131236
1.608,3.970067402337918,15.162204094582194,13.427213227885659,6.871932137997646,14.111154545476893,-1.603830168965942,1.6669684011576464,7.764255447873438
1.612,5.710245661196495,14.927977451097831,10.93794105719644,9.727050724595756,14.03998179678274,-0.4419967589674343,-0.7386924920720048,7.547466468291532
1.616,7.193929138713429,14.755920840356339,8.927816123212324,12.792976238610208,13.726104374667557,0.40139464057210716,-2.1547379240182636,7.7416791330506385
1.62,7.5821741168674635,14.142018321495925,7.726941333867217,14.994489735152456,12.915502317860955,0.4059893853336689,-2.049956157370616,8.24430962948827
1.624,6.4690206732893785,12.73780636027368,7.121408269937092,15.380418730099336,11.293382017449403,-0.7190705151988368,-0.5357141300482908,8.680969780069063
1.6280000000000001,4.175798508542357,10.513805692624373,6.5248211025555065,13.57244420254574,8.702241512079127,-2.859824886665592,1.629360765169622,8.541729461881914
1.6320000000000001,1.682635149154521,7.792621378921467,5.408394527465134,10.014480450694464,5.355437171969243,-5.47757449934943,3.395058967629666,7.438297737264293
1.6360000000000001,0.13595285527480883,5.105030527789495,3.6692568644830317,5.827195609686896,1.8573602420183306,-7.82895366183584,3.914530240197564,5.319529129021248
1.6400000000000001,0.17987010773686052,2.951375633572752,1.7246388813873637,2.311260376320206,-1.0232995653204853,-9.319497694872553,2.9247161093917384,2.5212705504673067
1.6440000000000001,1.5264187021275575,1.6185706550622854,0.2904150825488614,0.3542797839472769,-2.6924272011910944,-9.807358938000107,0.8266983806424832,-0.36697438074952515
1.6480000000000001,3.050500907762398,1.1316487754156697,-0.019618855110820732,0.05126663248302066,-2.981219850764319,-9.692193921535363,-1.5572142346245528,-2.7316845008044766
1.6520000000000001,3.4137876699242042,1.3421628203350338,0.9898411886042595,0.7538623063283012,-2.1617528980077623,-9.698263163787487,-3.3936445189410733,-4.13929317729162
1.6560000000000001,1.8901805298119143,2.0648114683008316,3.0201735767641367,1.5072497224500694,-0.7345491715623211,-10.485591322769324,-4.210479037257755,-4.421787628749371
1.6600000000000001,-1.0950062146612254,3.171157455763023,5.484452809510913,1.6414693929764326,0.8822552695928607,-12.265622843096935,-4.039175118205094,-3.6304392295496655
1.6640000000000001,-4.0728106441492855,4.589489705378583,7.840763408577914,1.1721990852784074,2.562697018678591,-14.632999448971532,-3.290230406766568,-1.9302884560420352
1.668,-5.2755165158614545,6.236588502651102,9.832767868445444,0.7765313475465518,4.451554118986678,-16.726165314317768,-2.4659034692540445,0.4776950896211929
1.672,-3.5951185743488168,7.98070882490174,11.535022483625653,1.3834448457837425,6.759265529028198,-17.610997708416107,-1.8651446101921465,3.3656560329254717
1.676,0.771337602960557,9.667672126004618,13.178796409569259,3.5999520946934354,9.514326403304949,-16.726468491859123,-1.456225161686234,6.437689274913282
1.68,6.366146324066904,11.187452187387862,14.902494963956997,7.298539193245233,12.436528987393103,-14.156333193128376,-0.9639727268749994,9.29984539220095
1.684,11.186980880251213,12.509131755071394,16.583477534708436,11.585326469157735,14.994165604703085,-10.612051879685168,-0.10086001850686444,11.494350614932046
1.688,13.661843400979706,13.625938451235015,17.83716196165915,15.16515660483492,16.61357612584834,-7.146791269064124,1.1805979662130994,12.61762954900405
1.692,13.357486516766585,14.444420137009729,18.195814247959788,16.921944151235948,16.92022960612121,-4.712013159751223,2.574695022447486,12.479456011253205
1.696,11.037126933607396,14.704046687653317,17.3300821709272,16.397612804383243,15.873528179199639,-3.7860634283715626,3.502243556518806,11.214959580294817
1.7,8.096172507163828,14.035316452828738,15.211887514366026,13.954738475636987,13.75399071578795,-4.218856384366518,3.362312964945886,9.277586568307015
1.704,5.7579597005506,12.174812282722996,12.139415882948015,10.568737850358957,11.022536678501638,-5.3680174009241455,1.8269212650629925,7.291565895517124
1.708,4.495088994864091,9.219940241356198,8.621368259668088,7.386841025609101,8.147690664893162,-6.445489718218596,-0.9783914261934115,5.828029562111624
1.712,3.993865240960986,5.75993804447171,5.2257428365483065,5.299583322977924,5.495152687482914,-6.869501753124496,-4.482462286432565,5.206384086890466
1.716,3.582386821023647,2.731058359006056,2.4326149795215315,4.690421510091255,3.2911111408011493,-6.490062131608283,-7.8880097719193145,5.401757786177768
1.72,2.805570706850631,1.022574077437639,0.5454324691145302,5.428267272594894,1.628633768603322,-5.58450269054083,-10.500734229106456,6.08190485992418
1.724,1.749297888428373,1.0213476210174122,-0.341989490447304,7.023778380947988,0.46241233687032945,-4.668087421037853,-12.011924307234949,6.7325737306709925
1.728,0.9152431862285084,2.350763252407887,-0.35046925227834436,8.828983411287481,-0.39401841264771065,-4.238249625834214,-12.614202903783735,6.818005284274477
1.732,0.775582917211068,3.9990007514588797,0.23361913741973694,10.211773735009047,-1.2253713037644047,-4.554483562227688,-12.870537209657414,5.922788677404242
1.736,1.3331363991710532,4.813766317076443,1.0416168849606038,10.679426766388133,-2.301379839369474,-5.566278546659305,-13.400982696606661,3.8445955559491267
1.74,2.0221993104878493,4.119935937963419,1.7487116344964306,9.983934214278634,-3.7187092757249047,-6.973364328152456,-14.532680606855138,0.6361578654723417
1.744,2.038106739804789,2.121924023689644,2.2040133132577466,8.208104027520676,-5.295800840638549,-8.370363552396157,-16.08900616284882,-3.409742682801152
1.748,0.8836532567265749,-0.154385084997557,2.4855729113260168,5.799143480656312,-6.594491123432817,-9.397201275358384,-17.43971449768651,-7.8154213344332675
1.752,-1.2037909347654931,-1.3517177087269374,2.868472622234549,3.506175530089422,-7.081516798167286,-9.803597726717271,-17.78569287751452,-12.001482586739257
1.756,-3.2571097301388363,-0.46764593566240364,3.6733011675969465,2.1586349449326008,-6.380135669885931,-9.45797547109396,-16.568000389946974,-15.40518107193202
1.76,-4.048963061447466,2.6254842174957957,5.062165615305275,2.336526245965615,-4.490904277594382,-8.341071036165886,-13.802572765120203,-17.61929167364633
1.764,-2.783532697419105,7.088537570148219,6.889119909299552,4.066050651589649,-1.8702813096660975,-6.571066253745812,-10.161335029886686,-18.517444706800234
1.768,0.3828098770827637,11.48522368588965,8.689782772416947,6.7165547646800405,0.6984966460040596,-4.449015527017764,-6.749629178200848,-18.294493236638118
1.772,4.320507683985852,14.431273436846823,9.868177526052023,9.224987510875508,2.402295311184389,-2.4372571846743085,-4.644373222326976,-17.372430710943263
1.776,7.419017534885825,15.179032959284086,9.967519850568351,10.555670350070613,2.711844616907001,-1.0617920395816327,-4.427476031260085,-16.210896561170557
1.78,8.360679119122779,13.869754488059698,8.90285873499488,10.200577565598905,1.573465047506943,-0.7203578813587228,-5.9304428262312285,-15.095497349512698
1.784,6.761378157660147,11.37003259269386,7.024043516568781,8.450400828130114,-0.6093840233788796,-1.4905108235343505,-8.305583532379387,-14.02248875870282
1.788,3.320359196530717,8.796454793521661,4.935377285481081,6.254861321573117,-3.1769721479331565,-3.063041976871318,-10.41454685174358,-12.747700273948794
1.792,-0.5483200343323915,7.004068418576935,3.1987440944431,4.750355259085154,-5.465687714935484,-4.824825404866715,-11.325250837144267,-10.968309935138677
1.796,-3.413663792846819,6.267803106939937,2.061335907294051,4.686679084788921,-7.001393751394971,-6.098351504559105,-10.689947743632729,-8.543476907551849
1.8,-4.472989492627221,6.279421176311189,1.3804833477752254,6.0734204166265044,-7.565957432468167,-6.4123790341927815,-8.82311116503115,-5.625499351893268
1.804,-3.8182803803874776,6.411066602009669,0.7858430032028991,8.223540704935658,-7.1768033062217,-5.675375193415675,-6.463602525549504,-2.630066865410299
1.808,-2.2401887263167737,6.07174706265323,-0.03297080499032745,10.155321612515763,-6.0282062697970105,-4.170232957661938,-4.378564298813217,-0.0580218777013215
1.812,-0.7104159067675937,4.991164150847908,-1.049796524033809,11.134167774104753,-4.419159251768178,-2.3537195801036432,-2.9966624865646736,1.7404546345751442
1.816,0.14266807613603305,3.3106947811575083,-1.8306650559452464,11.02923465776803,-2.694565671269629,-0.6111276629235363,-2.2614666737354128,2.715877288401316
1.82,0.3051579884622697,1.4850113218908518,-1.7073419229109277,10.308212417988216,-1.1655034795940082,0.9087872352356499,-1.7440769087916124,3.1009558179730448
1.824,0.2831830527115926,0.06447956654847076,-0.11902855737207574,9.686419416079843,-0.020206563223837293,2.276106112454727,-0.9273151632260124,3.227250920232109
1.828,0.7410055412069596,-0.528506137748991,3.048917548430836,9.665809254881424,0.7601947092343835,3.608279718861013,0.49823352888597583,3.3043392140734795
1.832,2.107222553087013,-0.12818996407440864,7.342436160270154,10.26173692996963,1.4319388840731335,4.9062791787109745,2.495812955276051,3.307084984861831
1.836,4.335106192210333,1.1581645311698594,11.876574369313857,11.040581343997474,2.401816629700079,5.9862141176563455,4.72518993452104,3.040351628778808
1.84,6.914718007244119,3.032770756239188,15.684648313475918,11.42380728002172,4.034156075500505,6.575470451936781,6.72048126829668,2.34769723872796
1.844,9.100193196819873,5.135218258285022,18.09557756758295,11.049097057652034,6.416417167720283,6.496825751355573,8.091121317864236,1.316076755307222
1.848,10.204246662436617,7.156562187322379,18.944806226611945,9.953176712691857,9.222314631141671,5.807997987159979,8.642061329428543,0.34025537293018715
1.852,9.822238108120928,8.90017751159212,18.544385124662767,8.488376879282441,11.771261431306812,4.8256578928667295,8.399291660622112,-0.014272077147325035
1.856,7.916283612066309,10.277736063287193,17.432409654413277,7.05341222046809,13.282107290704516,3.9883284436036774,7.550239416254044,0.7109033456135876
1.86,4.784279693499229,11.267866048006908,16.05971693437823,5.846282963502745,13.214555659023972,3.6608896324123634,6.365531904336422,2.604539515945362
1.864,0.9601468166301856,11.862106942155151,14.582740941331394,4.792458905589228,11.511055909632887,3.9808759741226822,5.143908467527581,5.280345179615324
1.868,-2.9175417384594766,12.028745596875524,12.847802265065184,3.6709871242856025,8.616924406447652,4.820066731237603,4.155639401342341,8.00486712268139
1.872,-6.23036577591165,11.731081207584793,10.584271575544335,2.34485941874118,5.281854372583439,5.901791183496243,3.5917688291383456,10.009541367472593
1.8760000000000001,-8.514489567084638,10.974367133851956,7.66051842093475,0.900416586713618,2.2379765423866047,6.960739896803716,3.508621665843748,10.823380606193496
1.8800000000000001,-9.583904816294762,9.853081087327155,4.265939123255521,-0.397046955165024,-0.06769796500702796,7.864181853326954,3.8016594883902144,10.46267830440047
1.8840000000000001,-9.586270862486344,8.564725538239145,0.9054434893841972,-1.3005628401524518,-1.5724334051947153,8.6280287878526,4.2386383937664505,9.379288511193408
1.8880000000000001,-8.964594496978862,7.362607102473703,-1.8086916630345513,-1.7939986999372195,-2.504905350379886,9.326946401521127,4.545746590021736,8.204397507645808
1.8920000000000001,-8.301253074338547,6.4633742465402975,-3.4287063108022267,-2.1375628757341474,-3.173518086803597,10.001345538141322,4.532060013113551,7.429898024957765
1.8960000000000001,-8.096906206069889,5.93793155529147,-3.8874267829351083,-2.713094427660508,-3.7812935747897427,10.602191762702205,4.168941059504505,7.1840157890401315
1.9000000000000001,-8.575683314480557,5.651067318366586,-3.525619951117733,-3.759652617950451,-4.359222707749723,11.012175593728898,3.576035428477553,7.1974049934306095
1.9040000000000001,-9.590725445486896,5.302098409745668,-2.900581377863091,-5.172102795550927,-4.824939847720088,11.105467134624632,2.9252379132440183,6.954878548409397
1.9080000000000001,-10.695809041367283,4.557808764283436,-2.490156265841506,-6.512484295301874,-5.078646731088156,10.793762733137555,2.3106299460496302,5.953144151981178
1.9120000000000001,-11.343266597555157,3.242268310592408,-2.4188185711473125,-7.217501941064256,-5.0404190095978265,10.06381662566855,1.6957733482422555,3.9476528761797454
1.9160000000000001,-11.115823560307945,1.4841002565080998,-2.375953185209255,-6.891759904227001,-4.608845830050996,8.974932611867189,0.9690572328263443,1.0760387908076154
1.92,-9.892510408610633,-0.27205042903415233,-1.7854708981367367,-5.5193355749761395,-3.6081234466500973,7.643141995249607,0.06693405836358579,-2.198000985413273
1.924,-7.8752062006810775,-1.4104365450134537,-0.14669190871336468,-3.479328471739791,-1.824710436715577,6.216756782632729,-0.9184135999330465,-5.285116286680932
1.928,-5.493977835270925,-1.4085792557043533,2.6081171773757887,-1.3766894943892112,0.8349018601484204,4.834763354621828,-1.752645564719387,-7.713585292242897
1.932,-3.242628292349309,-0.09693842300839606,5.962241963464294,0.2112570927492925,4.138814273252137,3.6042391785422296,-2.1936612350345968,-9.308562775551763
1.936,-1.530194957959793,2.2174056439180276,8.95331382531549,0.9319065408408278,7.4256356631794915,2.5685252113726165,-2.1697705942278844,-10.226859744427202
1.94,-0.5903944433512152,4.843307732119229,10.567550680094428,0.7260704579557569,9.738404853004795,1.7051444067328703,-1.8628227521649023,-10.828479165304998
1.944,-0.4455255375237357,6.990411129929271,10.208201450310298,-0.22748020424569404,10.183940583864569,0.955462906059438,-1.6185249771115195,-11.462559748481908
1.948,-0.9343494814693258,8.09986465839529,7.980994441434632,-1.6273843752073844,8.364280515759674,0.2725883560779039,-1.7318903102259355,-12.270457976024773
1.952,-1.7734095287032687,8.065322357512287,4.660408186289715,-3.136573743130157,4.656525978568425,-0.31332245854810026,-2.2213415277910826,-13.095573063000302
1.956,-2.6425482594695495,7.216662803207328,1.3138971696826047,-4.435896717172,0.14074293396424764,-0.6928617062003468,-2.7732193855881633,-13.55733782587049
1.96,-3.280119424728582,6.090124367206499,-1.2074751789123184,-5.258460438293696,-3.8269503634173816,-0.7433907583936161,-2.9118862996374446,-13.242983388252014
1.964,-3.5577287520259233,5.115314786908584,-2.653444298778595,-5.436077558350462,-6.21308002706246,-0.43805055015309335,-2.304125274845319,-11.921017840766126
1.968,-3.5213277179595934,4.38615250593557,-3.4482232511081747,-4.961107184964476,-6.762165348727649,0.06899724327467993,-1.0261130941498777,-9.669142824217488
1.972,-3.3505166561258193,3.6645362113681585,-4.376790568394426,-3.991987108723606,-6.04121753585423,0.4950045092446089,0.42326925925226533,-6.840387051376638
1.976,-3.2629758194193528,2.5956218443834587,-6.082869688639221,-2.792085816364761,-5.064259742954619,0.5863453932515768,1.3880060138026238,-3.906294678503855
1.98,-3.40355667718768,0.9963468489709157,-8.651674944699153,-1.6069259556479665,-4.705054178930823,0.31521523014271224,1.4520941034934367,-1.2786325451797893
1.984,-3.7651124771405193,-0.9584366933377169,-11.502766359973066,-0.5444565931147736,-5.232852858599017,-0.026710893647759804,0.7304602263648121,0.7838814171059312
1.988,-4.200302521831645,-2.7824902295310494,-13.662976615981279,0.4543564377859184,-6.222548937163538,0.05339497839031537,-0.16455894131922832,2.1474499028595346
1.992,-4.512296080353963,-3.9235471004039937,-14.234142350302136,1.5331081186241136,-6.857188782512367,0.9813660552117653,-0.4713818113268644,2.711860462442928
1.996,-4.565262111033007,-4.063306806600849,-12.818056672535931,2.757211410174932,-6.427887399728206,2.811929978343869,0.2389302867832157,2.345196626204597
2.0,-4.342865225722335,-3.2894980707924333,-9.664121803271428,3.9828904775258707,-4.727304071995604,5.098770669964324,1.7551830566990247,0.9304808127726574
2.004,-3.9186814914098704,-2.030352854213106,-5.4808389379622895,4.853566355905514,-2.129603372350175,7.047723078946547,3.3050008354430247,-1.4999964556172927
2.008,-3.366809854980147,-0.8008496968445797,-1.0761926736086025,4.949217200998646,0.6565489688300659,7.8932341055597135,3.981609901535194,-4.632581366843169
2.012,-2.661319943108083,0.09446458621323472,2.9783474890973594,4.041219372224532,2.9869898987731176,7.330885597073575,3.2884899204100293,-7.859362249744663
2.016,-1.6571448209172104,0.7121191660730801,6.458795027946962,2.288776070032327,4.5721183619998556,5.719942872324282,1.472515238799133,-10.443998333631498
2.02,-0.16716612440791323,1.399986218383674,9.36843054343899,0.26372554166073314,5.510828651274096,3.9430018328184815,-0.5598646565372292,-11.799417944980632
2.024,1.9084500374870004,2.560956777602314,11.719713440279975,-1.238420459606914,6.086610464270052,2.9749404419981147,-1.7066455764784223,-11.738132169161872
2.028,4.462336796239242,4.385254676527438,13.385011060041052,-1.5357149704959738,6.497547021892842,3.370540861005793,-1.2597963270727632,-10.542169228741386
2.032,7.1704652238584,6.726363715140906,14.15713076783868,-0.3500689296083692,6.728583428402999,4.9919825069064245,0.7337314460037305,-8.787220714573778
2.036,9.589986986911526,9.166086631527378,13.935074583064761,2.070677715765669,6.618201996250718,7.101947884330912,3.5220135828717503,-7.022772939037168
2.04,11.306348827155944,11.193956961588356,12.867678853236157,5.041483286544462,6.026910584572306,8.757527050327553,6.0580852905277425,-5.5077950323802725
2.044,12.066420604730183,12.39067573157081,11.314144131129524,7.6871426078396325,4.93975147412948,9.27704541518051,7.52574895178941,-4.171374179712529
2.048,11.821904061701616,12.518368007334175,9.60112277494909,9.233060888757791,3.419544353568199,8.524122347461343,7.680035560434135,-2.803085556149199
2.052,10.69722361930917,11.515659234065879,7.757533182996667,9.244801657704102,1.4609065872414249,6.900529441041726,6.858955674828394,-1.3255606656748569
2.056,8.928991331861198,9.455905129071652,5.425657450336985,7.743716683262846,-1.1086856817028092,5.076175261896424,5.710516375714178,0.05912432284503666
2.06,6.824839043383918,6.545598792620922,2.086955559103444,5.19462003514127,-4.533171340937315,3.660628025616461,4.847593165730814,0.9823505461035893
2.064,4.757880620531523,3.168271987516846,-2.4908798692017626,2.378464783653726,-8.859105579025254,2.9836618663302943,4.6333199233718005,1.2200084393330144
2.068,3.143805168745075,-0.10585760735148142,-7.8809938207682535,0.1623949462350538,-13.667790677669018,3.0603122039665323,5.162073404109833,0.9914951771811502
2.072,2.354522189732279,-2.628038550430574,-12.957734185692516,-0.7810996230186902,-18.03141399686092,3.714141127243238,6.378197215769887,1.0044104189491918
2.076,2.54540600658288,-3.9237138523230897,-16.326372036967314,-0.25342974240948024,-20.824017030630785,4.70409274677877,8.166689265020068,2.1366429197978505
2.08,3.4861488833362273,-3.9743363844138457,-17.02572886315511,1.3127806819820762,-21.263804335046643,5.784748998768009,10.325820734767603,4.894937819534789
2.084,4.527876263474809,-3.354610280781799,-15.113314060115954,2.9237023164737366,-19.400955520579373,6.6981730053043975,12.472612194258545,8.958910536209714
2.088,4.7934805346963,-3.0774157629291494,-11.767039657349414,3.361150727783752,-16.21598283944195,7.167001141034234,14.01353599323238,13.130045334743045
2.092,3.5740160343643765,-4.134591148328127,-8.747657380994042,1.7209676078250595,-13.193005426632226,6.986121096493207,14.317540140212714,15.798519645843498
2.096,0.7399338589625586,-6.951002093543821,-7.504865788857387,-2.096402272961541,-11.576300153123157,6.15937798208779,13.034302844749163,15.715468243978648
2.1,-3.0606360936217243,-11.04558615510905,-8.403528583870866,-7.192842839558807,-11.710419198449472,4.995713324169174,10.386582221005938,12.671352524713711
2.104,-6.564245189038047,-15.120827419888656,-10.507400597347441,-11.930998296964162,-12.863636255876827,4.047103612261708,7.2259232581541255,7.684607545560084
2.108,-8.397288860736353,-17.59464716153161,-12.091511303180141,-14.589290534675001,-13.65234404056423,3.8508386120547584,4.735616646516519,2.5697385295279673
2.112,-7.6917001097352795,-17.323408709947444,-11.582589726658625,-14.113861939052867,-12.827045813871791,4.627988320791246,3.9052026579229278,-0.8983133270069175
2.116,-4.5061777866704915,-14.158359897249966,-8.427841364452433,-10.611929790177555,-9.974932388475963,6.0955489056118495,5.032752665149928,-1.79248834891564
2.12,0.1728121271701184,-9.040382074920899,-3.40553344030468,-5.32294393462621,-5.722193845258744,7.542280205327188,7.548821240101461,-0.38917930492243613
2.124,4.888093350634108,-3.561267082199265,1.805016520299887,-0.04719175584477853,-1.3322911175960144,8.174559185165435,10.297811666505822,2.1023883196289717
2.128,8.379601029764217,0.7666855892432523,5.510717992476884,3.676196025770423,2.034327571081576,7.5391552865780795,12.127571435328264,4.263560512125878
2.132,10.114788028101657,3.1655774177656895,6.864097347784536,5.233522400472339,3.9520466122548896,5.7981106689703665,12.477668857115532,5.222328801169169
2.136,10.422943633324394,3.8420924403849313,6.192636720586506,5.103586829533697,4.862565009020045,3.6691019362901898,11.617345762688274,5.022790610743414
2.14,10.175033924081617,3.725819458289834,4.655606143433715,4.462549359889863,5.651912558080767,2.0652437861635917,10.409012886031633,4.446874786423905
2.144,10.221950738914757,3.8724312914173424,3.4726445594633333,4.456711691961573,6.9538027253529435,1.6266170577127923,9.748021211219793,4.4261502386111715
2.148,10.906182766443067,4.8643038207324025,3.1813885551937346,5.543546931397941,8.63523892042258,2.389992755099229,10.00542901609333,5.412010582393577
2.152,11.931494338438142,6.53480364910024,3.3852648019892513,7.277388740414153,9.802291085718252,3.8027542654799618,10.814111536838936,7.086230757360681
2.156,12.626550226710378,8.118030439860831,3.077205594315501,8.618884309642453,9.311756635741403,5.029475804496542,11.294930567991742,8.553272417665085
2.16,12.405735349508404,8.698822705261591,1.3225556064357988,8.571962222391903,6.4761252949592745,5.37913290641427,10.578476220885477,8.880575254358973
2.164,11.147799476710702,7.704495881047251,-2.1103786267224223,6.780445514315716,1.5305357078825637,4.621224886448545,8.320241881167476,7.652335984658976
2.168,9.25303687070118,5.168538209695953,-6.566876747935794,3.7444048044308147,-4.415587382288322,3.016504063085904,4.896312949090998,5.213222164521994
2.172,7.374290155066092,1.6722228731507585,-10.82232111066719,0.5642153100893665,-9.887359470017145,1.1142875044033644,1.2093141987270428,2.4890322598512284
2.176,5.998826935467946,-1.9622663216114233,-13.71027249980716,-1.6392170236129004,-13.712315685571184,-0.5576713537407159,-1.7647704654777954,0.5006827616984992
2.18,5.155238046083696,-5.02614304302233,-14.686661675295454,-2.290104084187078,-15.465113370975814,-1.7181826814521628,-3.4140830480096156,-0.1420112534619875
2.184,4.435782512264723,-7.13921543922072,-14.021064491334982,-1.6073830697209814,-15.475084788114145,-2.375637919442397,-3.6762732352576677,0.5012991594135201
2.188,3.293431346003217,-8.259702872768457,-12.565497691680548,-0.43352392703764053,-14.458175995301417,-2.7307285759743536,-2.923146169973279,1.8142852166440662
2.192,1.4551842710178562,-8.515615180881468,-11.224530297603451,0.27741539786552494,-13.015653483561891,-2.9960500727770523,-1.6359994340568846,3.0296635281242743
2.196,-0.8088761612868893,-8.004567026964878,-10.4595454494156,0.009758047630612054,-11.310807916110207,-3.2658645822184553,-0.10732195884156681,3.6835432342433023
2.2,-2.73617505240054,-6.692450816975679,-10.075618997173024,-1.0156745271702903,-9.072724947259076,-3.479045146731096,1.655676209833473,3.8650141364355477
2.204,-3.412992352526203,-4.468981536266369,-9.38345570696697,-1.9533535241837399,-5.890980853351039,-3.4707195809569384,3.7965479408355804,4.1135156993701685
2.208,-2.2491108829822792,-1.32894492380251,-7.65293109853269,-1.807407957105056,-1.6038043076421218,-3.0853669447633365,6.340631004464967,5.0350518183546455
2.212,0.6845209270952637,2.4585552664482293,-4.578010364321017,0.0007172460783522183,3.4631245829432373,-2.2551406294364824,9.003631191740851,6.871080015872053
2.216,4.62314159067887,6.303710809089125,-0.5304934482246608,3.2588655246644294,8.527391632962349,-1.0430574325193902,11.204339653706029,9.268530839392838
2.22,8.401533469305264,9.435808423953631,3.5286384222041534,6.986379439525763,12.61507755699904,0.3630462603350679,12.287647636477232,11.398908452539786
2.224,10.945114392443259,11.182719813547692,6.447355423946078,9.849539149180373,14.91529525934834,1.7001299764997384,11.845826074499428,12.376298232475506
2.228,11.700585705846379,11.24875545887744,7.382408814704149,10.75747958340287,15.064581054486098,2.698234422930909,9.949139550651807,11.75464842566862
2.232,10.84243431623122,9.871092040427698,6.193545285796176,9.370534419318915,13.265788127498809,3.178138904883326,7.1650134124886335,9.834278725458944
2.236,9.15770971629479,7.745998858183384,3.509587962515866,6.246510664750986,10.202418856452823,3.1150855071455226,4.332354887079305,7.584091842538555
2.24,7.658827467857634,5.730070765496521,0.4325110572601716,2.5539287316079253,6.79526055487122,2.6489618644668553,2.1994179959441453,6.194174240381017
2.244,7.127791208417648,4.466418702175474,-1.9596900423624675,-0.48473778918241806,3.8914083192998987,2.0267291960813054,1.1210618606097569,6.475428019347419
2.248,7.797974396424138,4.120430195698248,-3.091913674227044,-2.135270217688003,2.0009814033348903,1.4838269317219783,0.9654223919187643,8.442667279455918
2.2520000000000002,9.328605666633848,4.380160758948648,-3.0809260549757482,-2.3905076008845754,1.187202917013792,1.1610147361636791,1.2953291508065377,11.328333708604077
2.2560000000000002,11.046328291437817,4.710011477411854,-2.5576799528557785,-1.82342740688091,1.1363549433273192,1.0862424110750908,1.7065998445968944,14.01687530166464
2.2600000000000002,12.308325480144447,4.70552672270378,-2.217369113480572,-1.1673080166274303,1.384105082245128,1.2427474758153494,2.135340208624939,15.666659735820303
2.2640000000000002,12.807332138433253,4.341762991988844,-2.3542136058524648,-0.8863747831087494,1.5776885397199294,1.6597396717137372,2.941417490384538,16.137669525955403
2.2680000000000002,12.619096980486802,3.927787193145832,-2.710999131530116,-1.025405621596633,1.6061198607707183,2.399565691361204,4.641933393658178,15.934247472365428
2.2720000000000002,11.986458277505164,3.7847864080729323,-2.7297983056141675,-1.401487111909546,1.520204052448662,3.431001185200671,7.419465469514762,15.681289577834036
2.2760000000000002,10.981995839338623,3.8439002476659425,-2.0832771477151937,-1.9923007822554837,1.2843874339783952,4.427418393550283,10.664034212678871,15.446999840563308
2.2800000000000002,9.280493393448921,3.448633119282306,-1.1402028257178358,-3.219314139834978,0.5412381059376798,4.663768307612145,12.861181571547434,14.377897467383264
2.2840000000000003,6.246411559838947,1.5620216242202787,-1.0029171435971307,-5.86249873863153,-1.4055957179647294,3.1679808329556636,12.02453438538754,10.965571198591476
2.2880000000000003,1.3376906989385589,-2.6667300315588136,-3.014859242740613,-10.587216119476523,-5.280566087664624,-0.8603339897392743,6.556273836411833,3.8981295233664923
2.2920000000000003,-5.352307105782074,-9.242214405295954,-7.90735294380778,-17.309471849678403,-11.281813919489991,-7.4891401414943175,-3.801864358166654,-6.914329985302459
2.2960000000000003,-12.750309913139063,-16.97017635691938,-15.076135676552894,-24.81411080883572,-18.597684044742437,-15.685110504075283,-17.428306325869187,-19.759185774413766
2.3000000000000003,-18.936144334225105,-23.685257263720786,-22.453465638118075,-30.93547256344698,-25.33060458989064,-23.408597947364342,-31.06460906989372,-31.41153700413082
2.3040000000000003,-21.76844136603995,-27.02615952419299,-27.149845773200923,-33.31089631352228,-29.010036638831536,-28.240114547741655,-40.84137611862292,-38.28635107551287
2.308,-19.79176641077484,-25.446842590384648,-26.661951137988467,-30.413570888441313,-27.56729954772453,-28.346186178368498,-43.73158915504945,-37.95490711705298
2.312,-12.980609283842313,-18.956409510881258,-20.054908059645527,-22.334357208219558,-20.325650815067377,-23.320253388214837,-38.784472299189474,-30.27012775880604
2.316,-2.9255104981606337,-9.216746536734036,-8.537731248811212,-10.900346528822183,-8.505462003034552,-14.479734436731746,-27.570659273689785,-17.517506146164294
2.32,7.673993603084966,1.066659033018766,4.898454336714394,0.9727406829438223,5.072366615122121,-4.4126584629235595,-13.599202640006865,-3.487926615914489
2.324,15.99669137709924,9.167979963938706,16.63227421089391,10.390298520298359,16.998829307720143,4.044798576960375,-0.9409114419561888,8.073035920969062
2.328,20.121980534794005,13.296785632276908,23.789531873191663,15.51977980694329,24.55290314063285,8.912185611336213,7.314700276125507,14.882760302387283
2.332,19.645894674562072,13.09736385189666,25.247511311167557,16.114138660694948,26.663490455612305,9.761643954189822,10.103140672714915,16.755481692580588
2.336,15.635594668253418,9.526007141574553,21.82876897664039,13.315439541945352,24.121227011142196,7.683299964612729,8.489971338427836,15.223799495065407
2.34,10.011150493212227,4.2563246647073925,15.687944241254172,8.923798986211409,18.998207235274435,4.591464551940021,4.86587551177854,12.464360699483848
2.344,4.694117119151144,-1.0409441379703708,9.277776254839182,4.549514453558629,13.618135092290629,2.2530726235166867,1.696538569917152,10.148796535338022
2.348,0.9082785384483429,-5.226693372702471,4.389479283629839,1.0460259948686712,9.604854650963148,1.496272771076633,0.43611912249764373,8.80165486179692
2.352,-1.0801410313080169,-7.859010899041209,1.6957731274602565,-1.5575413482076215,7.4385024350692674,1.9888956834267901,1.097139214244521,7.907546269783268
2.356,-1.7858829515129173,-9.059223379212085,0.8623479800792211,-3.720400104497287,6.620570632869089,2.6043017704603244,2.579344284444801,6.565112503393095
2.36,-2.065951620925091,-9.236396102636547,1.0411568743652424,-5.907785593758945,6.249207821242862,2.1396942582620113,3.49476756088643,4.23136948900526
2.364,-2.651589440891371,-8.823893524005882,1.43932360786539,-8.232964640554087,5.63398287784014,0.007769944652181948,3.018969340318563,1.1135356984423765
2.368,-3.845360009166484,-8.122265480368469,1.665210359661387,-10.377698123157188,4.63452568451919,-3.450151199188099,1.3217630587689655,-1.9554073959789093
2.372,-5.432778664767284,-7.226074098565107,1.788492649680279,-11.74195253471089,3.6370208360285687,-7.11264968776743,-0.5787239602254886,-3.9913915263158515
2.376,-6.803189686120618,-6.034734245828304,2.1476970151511523,-11.71624540825178,3.2648752656697297,-9.61099746290597,-1.417070574324839,-4.379629673922068
2.38,-7.213874830395071,-4.334625914915193,3.073167032742049,-9.93019466703538,4.042651888905652,-9.966360353200798,-0.39406794848105164,-3.1450264592813255
2.384,-6.095156251318372,-1.9267148764023432,4.68260726563858,-6.391363199026273,6.178593278042285,-8.02664094006525,2.371105409555753,-0.8749089312904061
2.388,-3.3179891619063255,1.2136279140594297,6.792492315182358,-1.519046754354008,9.509644133612369,-4.546802219229903,5.851035093951737,1.5939701622104394
2.392,0.6742560959368689,4.818106842665429,8.978246254206397,3.9247778978489123,13.561100281185077,-0.86091725241738,8.572118551398717,3.5152575378212987
2.396,4.9440668196059505,8.329962147867775,10.71894930935241,8.992081730288191,17.636734576169147,1.6879390552530822,9.291573995046178,4.439769282489692
2.4,8.373137000744919,11.07971469544134,11.577814650398409,12.791314477949413,20.938346933998332,2.3253083487036292,7.580554906719499,4.263363095461386
2.404,10.116056960841036,12.571805374063729,11.367418524293498,14.755344619361267,22.71817568542508,1.1783722509383097,4.0515697835860465,3.1585620985343894
2.408,9.974352147751233,12.712078201786937,10.208354004799617,14.827137685632351,22.469842094861065,-0.8150589566803319,0.11675851415884608,1.4786386171009553
2.412,8.498213968968969,11.84347336448468,8.483739015260653,13.4788880333532,20.132127502770572,-2.3595445129667496,-2.601051561495865,-0.3238967908138193
2.416,6.700611523267696,10.529753118746328,6.675256351930898,11.495861224404962,16.187714433827182,-2.446379694643383,-2.962633495119121,-1.792630537125092
2.42,5.498513789262006,9.206366199252784,5.158381203894692,9.606064476483994,11.567224972541226,-0.8731166337022387,-0.8088809375260553,-2.5818034643090186
2.424,5.19629719794716,7.9246315688664595,4.068331589105355,8.145246107468324,7.351856026348287,1.6360789744308022,2.9701653347032106,-2.5759774186907407
2.428,5.288661788254842,6.352456968593401,3.283093861682005,6.925151786842889,4.384127956878274,3.7702109310898777,6.819775594729663,-1.944348358125012
2.432,4.743610556649855,4.059101387474129,2.565315485361225,5.411986931065144,2.9725221293799677,4.3019783663680755,9.20401688467166,-1.0671979652629489
2.436,2.6378995751058483,0.9035037436975699,1.756187802050249,3.1178477017326713,2.8340435881696067,2.7331207934375925,9.267087976526568,-0.3495602629907353
2.44,-1.215612497236691,-2.7321360681937676,0.9047210703007522,-0.011926131401310158,3.3206518854772185,-0.4216317923612678,7.176000497219434,-0.0019275075277391807
2.444,-6.013849467835655,-6.0376675211977044,0.25868659908371683,-3.4437892466164612,3.7963446099020075,-3.868043838697986,3.9961882869332612,0.07143985009872722
2.448,-10.27384602851123,-8.179563912313029,0.09626939233078247,-6.25850117015591,3.9472700312207962,-6.187571279655458,1.150229166952613,0.19251666206173468
2.452,-12.529245237619534,-8.754289452774287,0.5380353444253387,-7.585989865144597,3.8835574306863236,-6.531410628897902,-0.25403561328846536,0.6821624648239322
2.456,-12.046759537291962,-8.016358314256763,1.4480836834738966,-7.04031844164092,3.981170293434843,-4.998178336929641,0.09031728263084915,1.61221775276465
2.46,-9.163447809678587,-6.726774269821362,2.49450065190058,-4.906518171898483,4.580358700328702,-2.4924938684612243,1.614829461146769,2.7005664736719837
2.464,-5.072010271268766,-5.710792986322531,3.3342312651059274,-1.9827904717913043,5.715584802305102,-0.16041075936095694,3.2365245807116025,3.4206670631680254
2.468,-1.2084073512174882,-5.40776015026313,3.773567507849293,0.8089636507750129,7.024780308081631,1.2346779139470527,3.9118933432082486,3.263204708803073
2.472,1.4138608944230668,-5.682957853407061,3.824917175185192,2.8287539846196523,7.8942244155608705,1.6623794258300677,3.119450708108843,2.0030478240159937
2.476,2.5607495985101423,-6.0080100526295155,3.6198627322338552,3.922812741479447,7.747313332723365,1.6996977435699137,1.0310300978185296,-0.18948488461956003
2.48,2.6756435334232833,-5.872286003560134,3.2530176839065916,4.346947563165372,6.326898311659761,2.047662772851936,-1.6852903926007912,-2.846422351051501
2.484,2.4621996485979594,-5.131213146904088,2.702893131580481,4.501920116771203,3.828257987669872,3.0191600574121367,-4.269717334832421,-5.4427113495459025
2.488,2.4308340330289866,-4.080561013428678,1.8658514572725835,4.651798808110129,0.8197444125597713,4.30159018344898,-6.261691428847371,-7.638036747736578
2.492,2.6714038779965676,-3.219734750999237,0.6979467869280143,4.79286459955631,-1.9959992027329463,5.164215135829636,-7.655193842085737,-9.3703802505039
2.496,2.9213968708928633,-2.892250421744734,-0.6724027927161842,4.7070445366744025,-4.073993061033207,4.9493641247588585,-8.7811802251058,-10.768128257635908
2.5,2.8122581986709747,-3.073837720225697,-1.9730513445567794,4.129659312615786,-5.247833742820717,3.540213535554585,-10.028160911112536,-11.959106575820101
2.504,2.097898073216527,-3.4566484153197052,-2.9576052112734033,2.897465640001201,-5.799117882907467,1.5098379876064882,-11.57049715764174,-12.915122049028241
2.508,0.725261657625083,-3.7642072853126365,-3.6375817793143597,0.9875826064608191,-6.346109532158607,-0.17189320155193855,-13.27490816560612,-13.441710063125242
2.512,-1.230082800826267,-4.048711748286337,-4.374969962345176,-1.5260865876382468,-7.587143888865285,-0.6648476552995817,-14.797152326452988,-13.316520139936756
2.516,-3.654961264625058,-4.737850625338865,-5.743442290882513,-4.541185756706454,-10.002550789377665,0.2671860199075127,-15.792990569771746,-12.491974403074096
2.52,-6.426810552622669,-6.377981275655429,-8.202189355165046,-7.946991212035414,-13.618820441486378,2.110251125782497,-16.10834718617093,-11.227589968982102
2.524,-9.357199663709935,-9.225048167881255,-11.744531580082821,-11.569333696334638,-17.934527170742285,3.8664564310631704,-15.839076843921475,-10.061347488222395
2.528,-12.135638339861202,-12.968767274799234,-15.7659525623028,-15.106038692808852,-22.056533743826776,4.549786020531428,-15.266836357168131,-9.614733480677728
2.532,-14.372905460553852,-16.788417790725248,-19.235929212877636,-18.12271792277795,-25.00340031347605,3.6571255246230976,-14.697765309526403,-10.321775299949422
2.536,-15.7589604686533,-19.725501899469577,-21.12137601481936,-20.150448507206306,-26.066557177522554,1.355418937811237,-14.308957598082543,-12.216485959318788
2.54,-16.244485508540947,-21.145264013147766,-20.847599185671015,-20.846056255282292,-25.072713836028925,-1.6638038503704138,-14.084142185760811,-14.87180454867098
2.544,-16.107387898631032,-20.99960071402404,-18.538245221132,-20.12784748393119,-22.43416396710768,-4.535602096529374,-13.835251655902994,-17.53125486342674
2.548,-15.824234065132714,-19.744865237959402,-14.927913269279543,-18.209416624650203,-18.96433459116588,-6.594412321433538,-13.290637509494672,-19.3755548740844
2.552,-15.784757893725896,-17.972525444841494,-10.979294166549153,-15.493643665924992,-15.5318216331018,-7.559277620094235,-12.183211771650576,-19.80304161277354
2.556,-16.033875922788525,-16.019245149772587,-7.4427532399870415,-12.397037829064175,-12.72569356156123,-7.507657195712227,-10.32225806643055,-18.623300559752806
2.56,-16.217577011246476,-13.820043356261749,-4.598372275431302,-9.20443960898865,-10.688841425346254,-6.716616594933839,-7.653021757210809,-16.0931302313154
2.564,-15.786024131159365,-11.091028130670907,-2.2917955414391145,-6.034590180338228,-9.196325857572447,-5.491273304661263,-4.302980568363182,-12.80134573750911
2.568,-14.340719259037996,-7.698064586836267,-0.21892561308709446,-2.920285270353588,-7.908800226963649,-4.077186366610931,-0.6139296684473265,-9.451549968126074
2.572,-11.894437016355937,-3.9260409293906378,1.7670101565270215,0.08608680963288862,-6.637763888532163,-2.6276748163104457,2.891407250672273,-6.622116248883685
2.576,-8.91091762743497,-0.4577401826853702,3.4953087678072734,2.8327906193924264,-5.4853879955753655,-1.2212651338873002,5.618740582277724,-4.608680269482647
2.58,-6.085455884380735,1.9503386319063338,4.553444120571385,5.082299870593488,-4.775580818241679,0.13202943346823304,7.0807738664182125,-3.3913016394569695
2.584,-3.999727556173525,2.8990046103705254,4.557152522276056,6.615393712419063,-4.833214340895438,1.5110054559859236,7.096960140437886,-2.7129971644212674
2.588,-2.8813130818286936,2.5788767280657794,3.405047793890617,7.335997271994074,-5.7657755348084265,3.052305727417206,5.896827392812156,-2.2235506135118612
2.592,-2.594618281770181,1.64955486484223,1.383258350338565,7.315088035269355,-7.37919236086077,4.875004261452432,4.076982080153584,-1.6195404306693035
2.596,-2.830509477274859,0.8349329667410075,-0.9538495923943628,6.747052387000622,-9.280456974762956,6.956242835167814,2.3952428472077827,-0.7283868516258281
2.6,-3.3487454046049834,0.48849141697132836,-3.054925852131646,5.851896684398071,-11.089765899074791,9.034383783676276,1.4806303383049908,0.487867788946005
2.604,-4.085192485530342,0.4163049014346143,-4.61277210081721,4.798396250506812,-12.618659103849723,10.64197116481364,1.5959100596153348,1.9750878868051132
2.608,-5.077047007087572,0.061556185810331954,-5.660894472686323,3.6874016679635133,-13.894881940333562,11.27229629274052,2.5524871213174265,3.6305770583801404
2.612,-6.2754220847081115,-1.0487328497817998,-6.454573097778393,2.612299333087776,-15.005004418172348,10.645608259429991,3.845757694953818,5.325919293652078
2.616,-7.412571479890062,-2.8921944974290454,-7.2281896801846415,1.7290371109286298,-15.872524308434777,8.914790221269413,4.928373188596424,6.903644393698414
2.62,-8.060286067979291,-4.844157145401141,-7.974720670054012,1.265685257854102,-16.12660611352726,6.687058073373919,5.488560011066511,8.183324313721641
2.624,-7.858795945471115,-5.9544801462445776,-8.368700416224556,1.4410554060241338,-15.185379947971114,4.829343435172632,5.597218438000709,9.003557645154388
2.628,-6.786659429160295,-5.472466371862765,-7.914597990361017,2.3106630929510175,-12.551343575207738,4.102462036351881,5.624478037498875,9.294673916907414
2.632,-5.264224401561819,-3.2952675695196376,-6.220013177037345,3.651664604355801,-8.157793480446344,4.825405891341234,5.991237843123827,9.145027734237829
2.636,-3.995205546116381,-0.07283247940790716,-3.259817170596534,4.97439402102691,-2.573582580593893,6.724902471563837,6.891239133205318,8.802165815834769
2.64,-3.6118379132194605,3.1007052792497234,0.5099363889235065,5.6981483380398,3.0920397910897464,9.062783736550955,8.146528674574938,8.595629431957605
2.644,-4.31741600266821,5.24368344164418,4.274978897695064,5.428708372980509,7.569829823561349,10.98478339057965,9.293240832700803,8.790411286873223
2.648,-5.74461859724272,5.972695889546685,7.1488100223623405,4.184820919093909,9.923174516494782,11.890001134083377,9.831787739958145,9.437910502145769
2.652,-7.107752416321432,5.661231830657016,8.522202631181472,2.4534844215518206,9.919634188081318,11.672349428378766,9.51525110001262,10.323673662238207
2.656,-7.58940527637435,5.185578329951568,8.295121961436962,1.0010393203958756,8.081710631779742,10.697570070551592,8.494687588418401,11.048797048849792
2.66,-6.758303516548381,5.408267116288698,6.8849280895194624,0.5135637197624874,5.4053968780017385,9.561187982240426,7.237269936779285,11.227071628186877
2.664,-4.768300587003182,6.7090806730193435,5.033257208912119,1.2577826678898418,2.890073197182801,8.781269434001842,6.269621590488441,10.701988075832332
2.668,-2.269857508416294,8.78553946855618,3.4627033619462964,2.915067381957215,1.102633978305903,8.566697274650323,5.877948101606307,9.660736307659363
2.672,-0.09901613883926075,10.811054583932219,2.560983277374362,4.6889856886200505,-0.0126115116481742,8.782664927751739,5.946829675664503,8.56872463673426
2.676,1.0938204610220055,11.850265467131976,2.2258323225046297,5.6409142660832,-1.011528892698152,9.081660541526162,6.021644699857461,7.944220262462068
2.68,1.0768743603053963,11.296317779194169,1.9279165465195547,5.079773439171959,-2.5970583629587054,9.100901775502734,5.5581705570189115,8.091482217868588
2.684,0.034556310831135306,9.11535900246463,0.9823043485625931,2.8200627060775787,-5.230200573430466,8.623252626847261,4.226909482682913,8.92197002734838
2.688,-1.623545229960655,5.81180735518501,-1.1044320364112536,-0.7998955882039809,-8.885601404983845,7.6152187606085135,2.093790651254949,9.970811530747369
2.692,-3.48409498463775,2.198221192279334,-4.329919030246401,-5.091712661092288,-13.025018096137956,6.191296533593231,-0.3925795692698557,10.613293589552086
2.696,-5.256285683413466,-0.8945236597196526,-8.092459015520944,-9.273990065333237,-16.781233405636158,4.538680943257532,-2.598128950949558,10.367251232380795
2.7,-6.765438413729271,-2.833244171822571,-11.348547839811545,-12.674586885805184,-19.245461374685647,2.867767508808811,-3.967559089138831,9.12779713695204
2.704,-7.851182024783839,-3.262385550187446,-12.96046369323949,-14.799541201778311,-19.729204728031846,1.4203085207109325,-4.202214054106662,7.215350838818495
2.708,-8.287270532486218,-2.1027599335188825,-12.135240673560475,-15.319044229970359,-17.92837904270209,0.4668945066305241,-3.3002039205289293,5.216330073503741
2.712,-7.809222974756494,0.4611672921819263,-8.763450620323056,-14.062845864893916,-13.979907535640905,0.2680194538984324,-1.4755650034262544,3.696544869267882
2.716,-6.258570124994321,3.975892539518327,-3.522498311945583,-11.097963772316007,-8.435763800743644,0.9645639346426833,0.951520187060396,2.9396486364657903
2.72,-3.76639309377083,7.731697463242426,2.3187853766230546,-6.855394287304534,-2.1600516542243895,2.4600333510443306,3.6163451929787698,2.842637691712298
2.724,-0.8399700904703877,10.871358981492222,7.346467242990002,-2.1760118000827333,3.8355820997808223,4.394820459483981,6.127974968205308,3.0082943081681606
2.728,1.7234847316528885,12.605876816455975,10.489258386273832,1.8224090768342194,8.588373857503484,6.232371840652377,8.064253567677952,2.9688767146976716
2.732,3.1061162154226167,12.492939436666802,11.373030521799592,4.096482707820769,11.398654525693928,7.463044467704094,9.02543685151295,2.4109610384434745
2.736,2.8032719449946626,10.639986918927207,10.377256912303437,4.104558164819309,11.990574922445603,7.807175069177902,8.751145891990063,1.2795408385632072
2.74,0.8618030555371661,7.700542768418245,8.37794271747066,2.091552328559146,10.565435115054242,7.318927097726373,7.245110903354771,-0.25797316391003733
2.744,-2.0710924472159604,4.645854785283518,6.336762995868867,-0.9314914570993551,7.723073693946617,6.345140634058225,4.837450257693263,-1.9334596051246535
2.748,-4.953089606891467,2.37790745436655,4.90560197688751,-3.578505153657261,4.26230931677469,5.326982584361758,2.099060998695677,-3.506070350434129
2.7520000000000002,-6.725378683125996,1.372644862079369,4.25108318690809,-4.673789409310302,0.9389747519703633,4.586054949670142,-0.3635073525651933,-4.817358869393274
2.7560000000000002,-6.716697960988768,1.529341773104079,4.143800057566523,-3.757376439675454,-1.7311761501687215,4.194743825506066,-2.1331462262887726,-5.770980603827184
2.7600000000000002,-4.888857443243637,2.3014351804406488,4.215153435084858,-1.2500327422944792,-3.5458218778537685,4.004601646042829,-3.108503195450794,-6.2792467333677
2.7640000000000002,-1.8219838422388648,3.032796419041233,4.21789863733261,1.7986778689494258,-4.573569518780914,3.807700314556314,-3.4552122437103208,-6.2509443278459
2.7680000000000002,1.5194243418151245,3.2917427543573012,4.113431999745899,4.226630018127935,-5.044713682780866,3.4964321749080227,-3.437420555315157,-5.645595174361006
2.7720000000000002,4.150280940843459,3.033325367846146,3.9803405520513024,5.282607021733611,-5.2225650034629325,3.1501273951098483,-3.2264259166613556,-4.546258053909696
2.7760000000000002,5.409482859352806,2.52673084069761,3.8393540938072874,4.901892980814182,-5.306165763480749,2.9855581045671897,-2.802775695866785,-3.174663275407738
2.7800000000000002,5.167917546923945,2.1317440994380377,3.5574216828908902,3.647366699778331,-5.363324780032144,3.2305199082193212,-2.0115366988638925,-1.7933301256641698
2.7840000000000003,3.8349030262652377,2.0757382063336536,2.943454666678008,2.387140281668735,-5.3033746861881355,4.010409469652586,-0.7117897265277406,-0.5452923163873038
2.7880000000000003,2.15673175601853,2.354548871759789,1.9583568360997106,1.8864621517884643,-4.895349602661099,5.283043059666852,1.0696559599944067,0.6613983903353073
2.7920000000000003,0.9138614651147918,2.806135586522487,0.9031343215399374,2.5206083014054457,-3.8277314626920997,6.868752751475768,3.1027615396205874,2.1238433944981807
2.7960000000000003,0.6385296936963414,3.269137250506901,0.40167934697819874,4.186017306678195,-1.8288414930057115,8.513470242234234,5.053340321466749,4.138935114111973
2.8000000000000003,1.444400631463509,3.6918524479308417,1.1204194108031515,6.3942854629660815,1.1821632710161794,9.941948075048458,6.636779227207398,6.729528571512901
2.8040000000000003,3.0330546502335665,4.12025795157183,3.3768006558909747,8.469485476079626,4.972061721669888,10.894621556502443,7.733303972224803,9.47375147728576
2.8080000000000003,4.850277799362516,4.585160666860929,6.846735134854043,9.750572968319375,8.97327673770883,11.13907875016639,8.375852200873396,11.57568667794726
2.8120000000000003,6.332456113816875,5.000920427524079,10.60464462984396,9.776616493663596,12.422970233183378,10.517954424090476,8.646640750552706,12.191520530904427
2.816,7.158081853250906,5.1777202809958,13.514765138191478,8.438264358119568,14.622265680034843,9.026047774672861,8.557937495430451,10.8558417642721
2.82,7.376858807725512,4.952753113436756,14.772331735458238,6.062626623146116,15.208967364780847,6.880530605937565,8.014458137107795,7.774373260398079
2.824,7.3705748302251095,4.356677178963537,14.309565528157918,3.3908400770942535,14.312862615575568,4.53322309737041,6.914595076344085,3.8004700197413968
2.828,7.644087929171633,3.67462467273117,12.800118129390967,1.38319396717975,12.488160403108168,2.55120152624022,5.300721122756613,0.0855620496845404
2.832,8.54925111603768,3.3270150045773335,11.26684847536876,0.8835887965306028,10.450976614782803,1.4185342354799104,3.4629706869823167,-2.4097883991546496
2.836,10.061653324039867,3.6048251912641263,10.50285454423988,2.2430956486437026,8.737548025254227,1.3276515096672483,1.8957926588805094,-3.2857840920160015
2.84,11.71880717746842,4.410164791984926,10.635726775860803,5.08753026987165,7.465595502633732,2.079642490099559,1.0931740999217254,-2.755157119767091
2.844,12.787454943317016,5.202610498118759,11.112214349897556,8.39827967569812,6.3365535794480365,3.1782291267372784,1.3111795094788476,-1.3722293793135236
2.848,12.579336050070594,5.208070366133768,11.073076561109133,10.89554615133477,4.865107932531714,4.039367050828446,2.4089983916570645,0.35751529040942387
2.852,10.790864187675652,3.815527395833783,9.904555759016148,11.593014831293203,2.7177561334219718,4.244516156224108,3.89528217298016,2.24748624716608
2.856,7.711553925245653,0.9582851255936475,7.6345976307270575,10.255814845545274,-0.025466100679750525,3.7004965749033545,5.174673776831014,4.414549072011596
2.86,4.175753456968664,-2.7581484360938475,4.927473385003168,7.515658631087717,-2.837032950118328,2.630236126150976,5.846355597358752,7.018099106150203
2.864,1.2560502576124009,-6.277438710622391,2.708850829117182,4.5703676022881154,-4.965682004792598,1.4301068539193693,5.9037160645104905,9.959855728315915
2.868,-0.18012661306897826,-8.572451004816799,1.6336306506500478,2.6047824966476583,-5.79737223693769,0.4683827031894907,5.702073794192529,12.775041165268249
2.872,0.15890821188816062,-9.11634052500142,1.7485245795878654,2.255605057318462,-5.1413975405776,-0.034821257009753026,5.734235777208141,14.825420168820301
2.876,1.865730151136745,-8.099883376920957,2.5269878665681063,3.3770924485289697,-3.307256943389575,-0.030587456872126495,6.3298657564546374,15.667101943838816
2.88,4.017569119292034,-6.28569438689226,3.2293935923232766,5.209699209528026,-0.9347964855326154,0.41135276847944624,7.440961733103904,15.348760732754045
2.884,5.598262763611274,-4.571763976933994,3.3744983462843265,6.843618894546694,1.324617774826038,1.1724807642008273,8.648307407376024,14.418319551813624
2.888,5.945957138438416,-3.5249957410492243,3.00589608868745,7.690690669730657,3.0911007517636335,2.0994162530842004,9.365761601483882,13.60414539860733
2.892,5.026945709052825,-3.135619778285445,2.6210548781270973,7.711184203220682,4.361822185034498,2.9869179499964957,9.130790072085574,13.354669884994337
2.896,3.4170353731298064,-2.911066835637939,2.8245141095451345,7.2991347189810085,5.395310036024057,3.5675874674345778,7.825409828126794,13.523346043624997
2.9,2.002679466753875,-2.238132366053833,3.928131427241169,6.939501696236221,6.467878613268795,3.568354407547531,5.709287735304542,13.423932954229372
2.904,1.553817689541404,-0.7875480869656712,5.757566326474944,6.873698501415333,7.648967078606802,2.843000833343467,3.27200449061138,12.244346071386872
2.908,2.367190916073241,1.2601050494231458,7.731065814635713,6.960306152185012,8.716815807848775,1.4843410618598227,0.9847218226884706,9.579401660106669
2.912,4.157273219591502,3.2968982334143675,9.166928032172564,6.811988401197482,9.268764832664374,-0.14149762999159066,-0.90467379987399,5.760625158026642
2.916,6.225930154369735,4.61047387409576,9.619985902112376,6.084264719039766,8.945895215842938,-1.5058837503815994,-2.417667678548014,1.7595579409471611
2.92,7.806684386367124,4.743177400381683,9.052034763841448,4.709928609732401,7.645403952575634,-2.134534474840393,-3.7295001999221995,-1.2878429661202517
2.924,8.401023404280863,3.685788075458845,7.784360777028269,2.920779700302546,5.592170040567908,-1.8166227322419672,-4.977998441851923,-2.677877071604712
2.928,7.934451228035243,1.8056346929403162,6.269257232265659,1.0471876195490495,3.2233251270399705,-0.7109365262547271,-6.132747748570637,-2.516286701854824
2.932,6.688499128578542,-0.41617729472432075,4.853232427360126,-0.7365431088572905,0.9621285388674323,0.7407964494366297,-6.991552781918585,-1.6501828775991498
2.936,5.059471019146599,-2.6735000167545877,3.6362287008284966,-2.5526611830742922,-1.0115148359604973,2.019617423010004,-7.3156858003167144,-1.2044009073115376
2.94,3.2933513414945423,-4.959886526186779,2.4724150878089404,-4.730296701737302,-2.8471329276951565,2.747751849731685,-7.018125604186025,-1.9738311488115414
2.944,1.377632264781198,-7.449315613421049,1.1020000424362024,-7.511629066131491,-4.910165439654975,2.8214185393876505,-6.278268295191992,-4.007211119382646
2.948,-0.8874063423767211,-10.24950830413286,-0.7027015832179586,-10.76666653073596,-7.527326079612635,2.3732394416726947,-5.512520859937013,-6.5923940681780095
2.952,-3.661287056098331,-13.17505963887163,-3.0072417575560166,-13.888812746624922,-10.701186089504859,1.6422488321047695,-5.172300250691251,-8.617136012751871
2.956,-6.830510194062981,-15.70511465145023,-5.645797288379413,-15.97534258502833,-13.964663059947384,0.8295044175970361,-5.481677863729942,-9.107609983655607
2.96,-9.931443299127977,-17.18330899079723,-8.228078705717508,-16.225527525155826,-16.46725948114647,0.02196672585887427,-6.270297388711583,-7.658429953875384
2.964,-12.279478306009196,-17.144170082714425,-10.201515838914474,-14.33541985494196,-17.27724065787197,-0.7731602884525728,-6.993196717600995,-4.5706897640295665
2.968,-13.262412401401548,-15.591331635497284,-11.004122905299482,-10.681370628813056,-15.781514393701855,-1.5545643436967111,-6.977749190282111,-0.6752795951005055
2.972,-12.637268144431971,-13.051162204985928,-10.259251214832148,-6.170765773244852,-11.98863033025043,-2.2589906172328256,-5.778446332034491,3.037268295855256
2.976,-10.678848925584532,-10.361818256610604,-7.958778076085537,-1.8597703658653018,-6.6019811278412135,-2.7694291010311645,-3.452058199352564,5.77552441829846
2.98,-8.087995343138005,-8.296401408246368,-4.5443296853518405,1.4720190428992623,-0.7985808583555354,-2.9861298969228756,-0.5994474093021154,7.16531757333621
2.984,-5.680882259012435,-7.2042526252172365,-0.7912452688526628,3.583057114267149,4.207091932869616,-2.8854848114224296,1.8876822715061508,7.2870257227298225
2.988,-4.04651008367091,-6.876581110023437,2.4546078850030426,4.714155167625734,7.602180077426397,-2.5511173024090112,3.2415194348493515,6.555071440280813
2.992,-3.3197044973164225,-6.697466030549037,4.606795771070665,5.298228888870881,9.23018488860555,-2.1359769632897496,3.187495511936845,5.509029053778988
2.996,-3.180421074540277,-5.997066855307764,5.561287699595596,5.616230136741478,9.534657707660472,-1.796341421119564,2.069293539370051,4.591016993370999
3.0,-3.0877584016200785,-4.42872387440417,5.665459385035206,5.596832153811135,9.231592052540236,-1.6518243418657903,0.6336844821782961,3.9764654563738304
3.004,-2.5973441371303068,-2.164587027053358,5.459925609523964,4.889025009979093,8.885765391089194,-1.7696407137981396,-0.39840628329159244,3.5191373917986084
3.008,-1.6109886596490526,0.17549923995215977,5.313192522144163,3.1347404434337705,8.596078426412419,-2.1913220591475238,-0.7448821796467655,2.847253190197989
3.012,-0.41641863493535425,1.8326153347886702,5.197936591452276,0.2865338374187445,7.965127798138383,-2.930853929393379,-0.7045939139647999,1.6031278681211916
3.016,0.48869535409869513,2.28421376296518,4.742563559056862,-3.2315203500915572,6.354149572567962,-3.93667625722253,-0.9283110791897116,-0.2668742185523456
3.02,0.6809051393734649,1.4905824588417431,3.5202709727152524,-6.624429239589972,3.2859475868091295,-5.043151549096365,-1.9509343921560003,-2.3172284148470226
3.024,0.05443362008909958,-0.10055154732691562,1.4122665329550728,-9.036097589743179,-1.22459070492323,-5.951600176870215,-3.7525884949691886,-3.6581859681692777
3.028,-1.120549727593044,-1.7992609256578476,-1.233262552536189,-9.928385436952283,-6.600388211883512,-6.322056395908476,-5.6560810842946125,-3.3094525546658247
