Timestamp,O1,Oz,O2,PO3,PO4,TP7,TP8,Fz
0.0,1.2683187833317788e-12,-5.400124791776761e-13,-6.153300091682468e-12,6.679101716144942e-13,8.242295734817162e-13,-1.2789769243681803e-13,1.5702994460298214e-12,-6.842526545369765e-12
0.004,35.895752538929635,25.772742886563037,34.449871002572166,17.56475650037143,-10.798747429141862,26.42392263721341,28.228598977411252,-7.251617212312745
0.008,61.79602408827862,44.33401860883393,59.350806984447786,30.558674074615865,-19.407996949746824,45.556706842260326,48.97617284340818,-12.566322138401212
0.012,72.15131362873129,51.664164612300006,69.39112728536544,36.528440938102115,-24.50820479047399,53.417410099820046,58.01854966728435,-14.831061989964837
0.016,68.04102701273155,48.51124039667797,65.56984242951668,36.134800208292894,-26.112006916200734,50.91805945396361,55.9908353634923,-14.166060640738912
0.02,56.05977162464104,39.60568417772048,54.124839435255794,32.54335339903959,-25.39663235062782,42.96738392018632,47.59482823304622,-11.727528958880548
0.024,44.62918796155228,31.019169123412286,42.996690945519866,29.584628687365594,-24.03042873277731,35.65260572984933,38.92898960443758,-9.033809634092073
0.028,39.808702400293114,27.150975376760215,37.840036921682184,29.747101848050484,-23.342274989185924,33.13134727462537,34.44605566159721,-7.204906283198532
0.032,42.83094466395907,28.938252277880714,39.72658885277256,33.103074064386554,-23.761705868352756,35.91089666637592,35.16022501439493,-6.537150864345385
0.036000000000000004,50.46536669216252,34.10073023128374,45.58095824818946,37.67267637668763,-24.77930214959261,41.298995933001336,38.9250022459668,-6.5916678436646805
0.04,57.62746041197695,39.023238964110455,50.76622132176003,40.870123909423874,-25.368079290092467,45.52697292049565,42.34863864513132,-6.66477001660553
0.044,60.47421618045091,41.00302905150312,52.05251853306748,41.0666976535591,-24.609008439662297,46.08732915285212,43.03365351235352,-6.315882860694295
0.048,58.219735902571855,39.57128115008412,49.260059355948485,38.37594514443028,-22.17119214146674,42.9519530089665,40.84005165420644,-5.626293590981881
0.052000000000000005,52.90704713510526,36.30864380543506,44.8599742811358,34.320033125939716,-18.43597192854667,38.14314153847167,37.61077641408416,-5.07441245969212
0.056,47.65639219039143,33.514270847133645,42.085135569273575,30.72734724941499,-14.26621530434958,34.16088761280295,35.76049687045558,-5.166512857392192
0.06,44.6821958837601,32.685704071209905,42.881677379165666,28.642182156700883,-10.573214055622678,32.39669123059717,36.726162282278814,-6.074328409579174
0.064,44.245492381412205,33.713061780496034,46.87993716184816,27.8796829425958,-7.943203827114331,32.45185426591945,40.178194093093225,-7.514288463860723
0.068,44.99433787742376,35.17818995548834,51.85943332772873,27.423845656853743,-6.483395470024931,32.67959914100882,44.361553528645665,-8.916406834229718
0.07200000000000001,45.26801164137415,35.45107467558668,55.25169592823374,26.32658283332665,-5.923542209835624,31.476037373181057,47.23584648429947,-9.766873881700683
0.076,44.37917733051488,33.81758423594124,55.65479910043073,24.46261882609727,-5.891298726463496,28.422149383051334,47.64287326722916,-9.920459420648378
0.08,43.02053761827531,30.91989354247253,53.44755365301065,22.64464551253421,-6.1758301627058145,24.569961065512175,45.79378977106277,-9.686717455253252
0.084,42.615265150044294,28.272283415939356,50.22102739311516,22.03011322655248,-6.84969572418639,21.713704413711582,42.8531837007586,-9.657425831555535
0.088,44.16420173621583,27.232435783594894,47.56035383682288,23.255623573728826,-8.185562026749672,21.21835225232934,40.01950163415422,-10.372284136509045
0.092,47.440623482531194,28.131067360958767,46.054734512731926,25.902569590920752,-10.442369644743671,23.19575987724688,37.78025988253623,-12.024639427496034
0.096,51.07928313334187,30.104359200243785,45.15338468478134,28.664027458768068,-13.646496758528986,26.524468164811324,35.8173715538146,-14.363375168784174
0.1,53.417197224397924,31.658459161671235,43.82601881930096,30.10184949016601,-17.47522807998549,29.626579125065014,33.52696085779513,-16.80769532177837
0.10400000000000001,53.45885657160875,31.55181112690173,41.429996418149734,29.48049311136467,-21.311817430925707,31.38885873473083,30.677548527016675,-18.69734910202953
0.108,51.34254849585331,29.44596735770046,38.17275245766229,27.155646152612967,-24.449421913940775,31.649222509136585,27.704127238436286,-19.559877450064697
0.112,48.08380505631247,25.977647036055938,34.91774977364804,24.293029366467618,-26.37515589669289,31.01870362617403,25.45895206043835,-19.29211020619453
0.116,44.864475695231405,22.30606354806268,32.567045935451695,22.124822818854554,-26.998319756011636,30.266576500366426,24.620415028679872,-18.203969710774494
0.12,42.364099772235946,19.453065967407493,31.48436917146299,21.22360875758937,-26.682525040345418,29.751307458056218,25.17877821222583,-16.90873349051944
0.124,40.50912937084042,17.80209997912257,31.300152455411542,21.206797431095495,-26.06323298369067,29.226851702134155,26.32696087313559,-16.102448722119583
0.128,38.73023983648635,17.019621255909247,31.22088088471815,21.048844812040386,-25.703187361164783,28.13976305821049,26.861628841116474,-16.30056030096652
0.132,36.517492184552886,16.395941850049677,30.630800407263518,19.794185245687846,-25.76510886032665,26.17633753790183,25.88351557178811,-17.634800284810417
0.136,33.87296585847024,15.3578183649479,29.574505843168744,17.214386780235834,-25.899222249090588,23.650203196743924,23.37601708078248,-19.797559845678435
0.14,31.364051708073916,13.832487674939205,28.796603542334616,14.014198740609753,-25.408720268834525,21.458452849329774,20.29528368800298,-22.145843553887026
0.14400000000000002,29.742548218999822,12.24886161115991,29.264297187198725,11.435438417359077,-23.636867048401516,20.57488865342983,18.080496259230216,-23.939533028444796
0.148,29.40273426147347,11.223653773110229,31.496073445322466,10.519624014123622,-20.377505817721715,21.429895914910603,17.86726479470788,-24.612496061315266
0.152,30.08270364535642,11.180697897477533,35.15138464848454,11.500933137466752,-16.100711072638305,23.600275064652948,19.873011219809197,-23.97914956686522
0.156,31.02863147821735,12.153398748380688,39.16052997567053,13.703798340901443,-11.846322015470022,26.027322900739172,23.321853488095158,-22.28678208606811
0.16,31.489503080861663,13.850355576211008,42.30811195342291,15.99676329849176,-8.788731152439109,27.64322683985101,26.91729074703473,-20.076152552201567
0.164,31.181668011720124,15.86500886852859,43.855466900750244,17.48215034956962,-7.701511608989506,27.958324453796664,29.522765268194988,-17.933890321233918
0.168,30.432783230530372,17.86939446359163,43.85792921031754,18.01021150802038,-8.58572690540785,27.28161382101215,30.672611413890642,-16.25908805330017
0.17200000000000001,29.963270757467875,19.699455415488316,43.04816782414341,18.22324768341071,-10.673666655801625,26.479364784813782,30.68283487036979,-15.161732912884602
0.176,30.467336160599537,21.31828044192641,42.388909898192225,19.119072799715898,-12.82733794748907,26.442997395873725,30.355752009581092,-14.527138682868316
0.18,32.212167261363376,22.70985008274105,42.55216244545057,21.408455608787886,-14.104414074665819,27.5983377091383,30.469751780933006,-14.158406789102408
0.184,34.83421746389924,23.769141041108238,43.5456848461656,25.01174399987863,-14.206492373502059,29.67075034266869,31.306194727819584,-13.899834610842234
0.188,37.46077478779497,24.290743963447575,44.695250798365535,29.013323431973156,-13.555097529772006,31.850275096760342,32.48133398154023,-13.661173073387697
0.192,39.12736853820266,24.108022898938263,45.026154238532186,32.11901378549709,-12.976244967470159,33.26539316102961,33.18692957800207,-13.359751004740598
0.196,39.28994860200072,23.29574886898409,43.84314716230092,33.35917119114193,-13.187473910041334,33.48437454856386,32.69238133368259,-12.867747624662961
0.2,38.142079976907844,22.27237859246263,41.18040403859406,32.6334488604723,-14.353399865119677,32.76370403670068,30.802641200026102,-12.026906419878635
0.20400000000000001,36.515699294197674,21.671073663839607,37.81687669395187,30.745784997210656,-15.96092027787558,31.853785666677837,27.97732351224451,-10.740860231144119
0.20800000000000002,35.41448155905274,22.018186018946242,34.87563864057737,28.922871533071778,-17.0615645624643,31.518062898082157,25.071964634723084,-9.077422994721605
0.212,35.46058251939859,23.41795740321681,33.27132443148852,28.116628520064197,-16.744673866258843,32.07976473944312,22.908081237479745,-7.297866747934627
0.216,36.57066748692121,25.446804645062088,33.313977490960966,28.490024012140974,-14.59672118106886,33.259117789850166,21.932979290212344,-5.773065396476186
0.22,38.017945070608285,27.333993261911928,34.662146648268006,29.378928438158272,-10.890702842381094,34.38978776669741,22.139165726482,-4.801400123348479
0.224,38.80920805546323,28.32290803381786,36.5672067428398,29.70759577783293,-6.439296737851654,34.803684615805025,23.200861232476612,-4.447506721075218
0.228,38.20464036217893,28.046201992375508,38.285306270437815,28.626840987953415,-2.208303405483262,34.18557708731085,24.725330685119452,-4.512616729432331
0.232,36.126508563084144,26.721788649448,39.4385632710182,26.014787714596775,1.0858176491394431,32.71987927886029,26.469486920844247,-4.680942167293621
0.23600000000000002,33.20166446053924,25.028595730474038,40.08046497503293,22.537927599112372,3.189325576816337,30.909714567893403,28.354645096562507,-4.768265070534959
0.24,30.42419699686323,23.735110485423913,40.48269142524937,19.265082821780275,4.264873724779234,29.234458710820846,30.319858775014573,-4.90135204280115
0.244,28.674125331249506,23.314762723009444,40.845239717624096,17.088251242762706,4.644923212486061,27.89961742725857,32.18901749469113,-5.501101074560401
0.248,28.331588692818677,23.7366083997592,41.09321356024116,16.281005766999932,4.5744632234379505,26.804710729464865,33.64989119072558,-7.031407636117123
0.252,29.15440167105765,24.521800030262373,40.87046911625946,16.421948086668355,4.099610172689685,25.71084969114692,34.36652580998102,-9.638634490152317
0.256,30.482251135715053,25.029562124579567,39.74985430002221,16.7034920529387,3.1398970092549625,24.489532419820225,34.170200084242566,-12.906192558651986
0.26,31.649057289917888,24.821744671659523,37.55669056296094,16.44149190086356,1.6702442710872631,23.300255628526077,33.22434158509615,-15.90056580997506
0.264,32.352356819472874,23.89946369192228,34.597717897716755,15.484792576247486,-0.14133275758392472,22.56133624411767,32.03610898787409,-17.542049764020483
0.268,32.72298695868564,22.667168258576766,31.59495652872651,14.270406118210222,-1.9366138864524274,22.688822182080624,31.23096823612857,-17.11835460028526
0.272,33.05929141676609,21.652033564878238,29.318476937591686,13.511561718372308,-3.308603172820707,23.752693482535218,31.18579147863678,-14.662707741332202
0.276,33.460675750396355,21.17386196255991,28.15011385407981,13.741202865280577,-4.006430149284597,25.297745030404002,31.759455566376666,-10.994332237334259
0.28,33.67691831451104,21.19873456160455,27.88997380563793,15.013454077923043,-4.072042097370682,26.513300040847763,32.32481438750598,-7.3792489050545385
0.28400000000000003,33.321436463008546,21.467740949175514,27.94783236607583,16.943946183313095,-3.821049121914852,26.69611473757528,32.12475794588623,-4.976111041721857
0.28800000000000003,32.270648650637405,21.758136924527935,27.757937940716317,19.003387010376045,-3.669532493582949,25.708264304436906,30.723955863962985,-4.328055234943852
0.292,30.903153535003597,22.058837027523236,27.128441495558324,20.82370138747858,-3.9034577305483538,24.108864119539902,28.263430283577122,-5.147339153975451
0.296,29.967117725848546,22.536660353442077,26.317724412699075,22.313183548443217,-4.533830666866358,22.85150262386594,25.37672596971054,-6.4980287356217055
0.3,30.12528792999919,23.335911423792478,25.827911578517984,23.52996440286377,-5.320219073074416,22.727232163420076,22.838669274415295,-7.2795740610315045
0.304,31.448661602343815,24.369488713884916,26.068992981729462,24.43621493594207,-5.943285899263818,23.86564210650809,21.170001711658205,-6.773432000016798
0.308,33.16388771916299,25.242655821703565,27.075997316681914,24.725928065139136,-6.204866104375069,25.577203926978058,20.40963072074623,-4.969501110923401
0.312,33.86619232958293,25.371479487317053,28.432385631385674,23.876436656523456,-6.128890369123075,26.640852933326663,20.151824101368042,-2.53173720944808
0.316,32.18857943622546,24.272680173726084,29.47505326044718,21.438677676138617,-5.908947014159303,25.918465006877042,19.83899395834582,-0.4495208171371292
0.32,27.625312862231098,21.89031357425652,29.699396519816027,17.424298507682106,-5.740391570427102,23.00918823422314,19.161985752564824,0.4341495637575159
0.324,21.03207767373896,18.75074577182146,29.114771916890252,12.524496890332816,-5.674268869085349,18.56274285893582,18.309124535808024,-0.23073629023506204
0.328,14.427753810364669,15.80372672563026,28.281262757925,7.960142831577002,-5.586863692526357,14.034599749062693,17.86693355092028,-2.2139008872259884
0.332,10.116812718022985,14.003536441367007,27.967463513482414,4.994472691337883,-5.281284253619342,10.974561672553286,18.404640169561695,-4.874843688187659
0.336,9.573657827462572,13.850647758508835,28.634781518065093,4.352543147715914,-4.664819824831037,10.232170623646404,20.007597451070975,-7.473284843328977
0.34,12.728329418910615,15.168707149014123,30.103024589370026,5.887534924760255,-3.881792590440357,11.554342101724753,22.090175186096772,-9.452887900041869
0.34400000000000003,18.05832229346626,17.243423104345343,31.62857429581913,8.687268208583792,-3.3052672888839396,13.795964501787761,23.656693711408398,-10.580874650500858
0.34800000000000003,23.39377407428587,19.214461978666865,32.32273655901827,11.545328711493298,-3.3695010623231223,15.595907007532055,23.8667185705575,-10.905770646455855
0.352,26.947078105924177,20.467033935216186,31.636884348967843,13.512829579874053,-4.333399595243502,16.102489296594598,22.56097241066759,-10.59959478713875
0.356,28.028311939617243,20.828956273570153,29.641046977350662,14.243701821815383,-6.112482328057853,15.341997322034542,20.425678732266356,-9.813965084663298
0.36,27.120430239039067,20.507414553311524,26.965169870315798,13.989413531705711,-8.282432317422408,14.07953959563918,18.68543436579165,-8.64564972450291
0.364,25.35229055092583,19.840270789580657,24.454294818551773,13.294790840170439,-10.273795281481888,13.282698962890976,18.469047065853523,-7.228351991222643
0.368,23.721337292213313,19.03369521714174,22.720037882185373,12.61109372806508,-11.631487555068418,13.508460842985219,20.164981182137623,-5.847719320491459
0.372,22.52940782789687,18.040610489087463,21.831575357131584,12.062883785931295,-12.186334825393782,14.574030065224841,23.128193545685182,-4.943473416353629
0.376,21.352659721506807,16.649270676121006,21.33467260730288,11.486829650783854,-12.05978451813257,15.685578880992345,25.938023978292698,-4.954833699779434
0.38,19.527567400442507,14.731975831026514,20.61044656777087,10.68786595051124,-11.511397505691313,15.955920350732919,27.12406000968053,-6.058493084460213
0.384,16.806262783593628,12.48671410844777,19.359512430947056,9.705333967308066,-10.738522847728598,14.98838007540383,25.99284198621861,-7.9447810631369045
0.388,13.691228917450427,10.4641400590289,17.863995219378133,8.866309621160656,-9.758099118361233,13.13112363780795,23.055242317139328,-9.795055030694531
0.392,11.209176141202986,9.320325949265628,16.833473598750942,8.569338281937435,-8.438503633528084,11.240687759618078,19.777137976060903,-10.538211092838294
0.396,10.256248799556484,9.422618601798833,16.929429617002075,8.940091696204561,-6.664283408562699,10.11133537416899,17.78100677413243,-9.316634833280345
0.4,10.977497002197536,10.56896951838748,18.297398355173424,9.634760929661722,-4.511289571834334,9.971239706677487,17.959763219780307,-5.954937493949699
0.404,12.61315946138912,12.014386695724212,20.4206325958124,9.961536857961066,-2.313766644509034,10.37326463278681,20.008985692277243,-1.1773717829359804
0.40800000000000003,13.905130026216977,12.800371940237415,22.36259574710171,9.268823705182163,-0.567373420198237,10.525523602310358,22.619024279596047,3.5960973927906426
0.41200000000000003,13.819330182440035,12.215827156420595,23.240151275106875,7.373053936802637,0.29526336322245683,9.82675091713213,24.198539886928835,6.83481599786151
0.41600000000000004,12.147069321835948,10.14873748660786,22.657999882334188,4.749115700418928,0.12206609078234898,8.2535017232606,23.73705247774898,7.598988333543042
0.42,9.651568406152656,7.16687850021534,20.88877201404475,2.352917677605211,-0.8741016788256681,6.381889862303934,21.34539257010522,6.007087986239857
0.424,7.677582176438609,4.2868423719120425,18.71398091217356,1.1624627478809852,-2.224230939976369,5.045989362359277,18.194776958566198,3.208589377679874
0.428,7.41277534486854,2.5157529690031857,16.99234563962709,1.6713920836579508,-3.441026005895246,4.82504812037135,15.883647217240252,0.8424965084159783
0.432,9.202028854576477,2.3763777709843095,16.18545621202428,3.611141011767326,-4.2465792820491775,5.665639939685152,15.57200548756686,0.2429274577336562
0.436,12.315660306608983,3.65878397715834,16.119808941447378,6.0720654573492645,-4.671158351767774,6.887109128443676,17.367112580214098,1.7856527817396741
0.44,15.332262454476911,5.540716770520401,16.14431003624941,7.987320433988446,-4.964982533842038,7.589859009649509,20.312376361892184,4.715875795662906
0.444,16.91503822745497,7.013562709289258,15.586667158073055,8.712553533318832,-5.390264567391881,7.219155155598878,22.965256561730452,7.5433761035988915
0.448,16.522047548137618,7.3848203683846805,14.202256016420057,8.364517135703567,-6.004973641531905,5.923976652204976,24.18975637684525,8.813566497869498
0.452,14.626805479552065,6.586220478197363,12.318291267272611,7.718113723983116,-6.563913624016173,4.467503885455958,23.692915698207152,7.8538104986130515
0.456,12.346478300658527,5.149600994998532,10.614535937798184,7.72233138175951,-6.602147939769019,3.7432573075068767,22.045161599658236,5.098332889548665
0.46,10.746298919623845,3.9097431476803677,9.7208213228989,8.929968115902131,-5.649101280948077,4.22518509299309,20.244806473509023,1.837007942346891
0.464,10.26375041218543,3.610384044444091,9.89259544111964,11.167634519928416,-3.4742392890997476,5.675995659625185,19.13875840362403,-0.4784807563714937
0.468,10.558824706284362,4.584296442956203,10.926651987156637,13.613118293748112,-0.23322883598576283,7.269143371853486,19.02248019038627,-0.9792778202437624
0.47200000000000003,10.829583474101108,6.626142545730037,12.318026922895584,15.217955572322161,3.560551179205641,8.030115939543581,19.601229913836463,0.22663775068501835
0.47600000000000003,10.388674986196953,9.099166678310667,13.547289248966173,15.238112204976016,7.21258857141507,7.336506444804995,20.277727408226177,2.193974446426619
0.48,9.141959819781643,11.210806097606266,14.339323544338487,13.592877944654958,10.079900035497628,5.224680314288675,20.56096302157681,3.710761341077138
0.484,7.6856379921089015,12.326274595124454,14.757288544262682,10.876816995090365,11.75054508902038,2.354277327810772,20.33751236554595,3.9599324841105026
0.488,6.938246713217709,12.181257171651271,15.081023885077542,8.034086379155186,12.121740111895129,-0.3345481387849265,19.837818384850216,2.91376019898149
0.492,7.515819107197727,10.911571122968683,15.552864200144612,5.881577189502989,11.37387855484402,-2.082921858244058,19.353011130289683,1.2765887096249902
0.496,9.255556847104957,8.934077892892367,16.173065132972074,4.752562705628289,9.866529687188727,-2.651715864022683,18.929769947177004,0.03462583063239677
0.5,11.221114491485377,6.777370695698295,16.693048354098494,4.446862565510287,8.01402266822943,-2.354436457920762,18.284035136887706,-0.1203056424069544
0.504,12.23074995514818,4.943889335011608,16.81150884614094,4.482974065754149,6.177826140185499,-1.8059415144580484,17.022292681145796,0.8214420169463628
0.508,11.572545230421195,3.802567679763392,16.398526966044994,4.453374954745904,4.59438085835871,-1.5705416961527616,14.994657921427764,2.190722060235782
0.512,9.447740274262026,3.497788406512282,15.57021098511506,4.240844173003509,3.349415842499051,-1.9217850171578577,12.505454893011603,3.0104418293362243
0.516,6.8715309935662034,3.894115813380587,14.574294166715571,3.985149934490999,2.3996755187734378,-2.806750920251618,10.225460500875796,2.5110687765565474
0.52,5.098468107815786,4.606163449397854,13.59924960181403,3.8692220682962235,1.6399207364382793,-3.9563610344078644,8.852953810529353,0.5136631065301986
0.524,4.912089774437296,5.1438553163310115,12.66404439641504,3.8991632341554716,0.9888664932315692,-5.038892172131806,8.732725816181656,-2.5033999904565536
0.528,6.183196890677691,5.133391456564834,11.658384948367857,3.846025124405239,0.47138665586171946,-5.775158539865228,9.6528323633582,-5.645772141146615
0.532,7.969197329732985,4.52539643014349,10.502651447306304,3.4038447901443227,0.26144513961011917,-5.993940082171418,10.948829354795183,-7.99374658219179
0.536,9.088006102760644,3.6710711916838097,9.29312472861248,2.4455085282670286,0.6249801235276564,-5.656277214367655,11.85060419467292,-8.954901874126744
0.54,8.837715765639295,3.2125371005416277,8.335539249846581,1.1998864823501192,1.7729975618770037,-4.8487053621204215,11.887367383962342,-8.43752372391761
0.544,7.430616384561343,3.799018642373218,8.020599012450084,0.19549787480299052,3.677857367104063,-3.763323906183503,11.12166593604491,-6.813719386568305
0.548,5.8511973566926585,5.733596385880654,8.579121857690097,-0.04084914717092225,5.968352649936866,-2.670393108777464,10.057959340683723,-4.728644836494704
0.552,5.213521927109222,8.731641892550023,9.86800781469432,0.6476182664587684,8.011282298025213,-1.859895248477312,9.292894161467474,-2.8442866398706883
0.556,6.011356673595748,11.938113644970155,11.340044082764836,1.8490571549237047,9.16405189867078,-1.5625416915208192,9.137108210168794,-1.6214672528888037
0.56,7.742281977233368,14.255733521907715,12.276941252167944,2.727346848840635,9.099737199286348,-1.846640442399,9.461402167790702,-1.1940328141364125
0.5640000000000001,9.166867996068857,14.860601968691345,12.188779585271842,2.4765940818891905,8.028061849002198,-2.5393803061248925,9.861087130462424,-1.3648952787684527
0.5680000000000001,9.027006665522935,13.615339792460325,11.108253708536619,0.8091840099155281,6.657400027448649,-3.2613299893013368,9.984545497590505,-1.7190296693437328
0.5720000000000001,6.7771160319050185,11.135857729555097,9.566146785922992,-1.8330263128263384,5.87692043654926,-3.5921356310921,9.766754019869545,-1.814396509697232
0.5760000000000001,2.8975070191312646,8.463369051387104,8.247711195683099,-4.491622383481365,6.29703666505698,-3.2937066000521718,9.415276120288963,-1.3945991387025456
0.58,-1.3772947634438975,6.525267652224028,7.544486123024914,-6.217963837349581,7.893793104259604,-2.4473695607082258,9.177110983630271,-0.5266745013520149
0.584,-4.70236054624931,5.708449312377537,7.307846152146545,-6.586764848556168,9.973802045062497,-1.4064470915326344,9.085471207133997,0.41647649305537365
0.588,-6.242258818468316,5.778874606608655,6.965310132605489,-5.8762030360776,11.525440058777273,-0.5780706803718183,8.894674777760834,0.9575833343934521
0.592,-5.944304566333779,6.166089189196002,5.938130009546876,-4.809546055280334,11.789013965339924,-0.1649864689212146,8.27259721499067,0.8242804555009942
0.596,-4.3516869640168965,6.4214154818959415,4.1093444770897545,-4.024680616168972,10.719513854027033,-0.025426462786859005,7.123673088127433,0.18829230654913687
0.6,-2.14662355675266,6.543477850639572,2.032769274049162,-3.629566767439419,9.039658635714716,0.259804286781419,5.800265879575555,-0.3474116233974911
0.604,0.22832786851592246,6.940697822335508,0.7116851132151698,-3.165371350622152,7.803800809657513,1.1255626919048716,4.9942821553526855,-0.07648376733740747
0.608,2.5831922053313647,8.01521432691387,0.9964244782943226,-2.0512569289161817,7.689059199065117,2.6702690862302028,5.26779238367611,1.2959393280186013
0.612,4.658711600921501,9.624509088621451,2.9101272922524863,-0.23932692721122706,8.425184827533645,4.407027269305583,6.460803232950397,3.2351939219436687
0.616,5.786818787422494,10.813915678070707,5.334581761624094,1.3772969001123023,8.738115973464836,5.298586095980825,7.393643964325598,4.347515257672832
0.62,4.905607897283016,10.095943082079025,6.341546987839184,1.1708711216557433,6.920737197832622,4.1459419226503424,6.176314116070117,2.873748085322644
0.624,1.0869522304156454,6.225699700691186,4.1089870129531825,-2.383009344987628,1.7874737839132218,0.20033463829166642,1.1173627493005798,-2.451590265051862
0.628,-5.693864181919975,-0.9294999944636055,-2.0274835923404426,-9.665313714850488,-6.4786280970759496,-6.298542919619573,-8.19374460195676,-11.569027012568242
0.632,-14.066013317432144,-9.96312492085954,-10.97520424625225,-19.299203155685465,-16.075793238932143,-13.963868036000193,-20.249191060957084,-22.74415295130433
0.636,-21.464799654201705,-18.264299331839112,-20.10311049113355,-28.40514298721608,-24.139536356485998,-20.633585231858095,-31.860039273440965,-32.96496347949947
0.64,-25.083691926881468,-23.038675642913734,-26.229040183065095,-33.7110713448005,-27.88974416216759,-24.1482916293634,-39.26104074030486,-38.9920098367334
0.644,-23.140680998959418,-22.534120429444013,-26.930111376462868,-32.99379924499642,-25.832479836629854,-23.19991514067032,-39.61345888977866,-38.62940018324501
0.648,-15.81876726817229,-16.866225751931818,-21.581886091921483,-26.131012704762803,-18.427409332560536,-17.88240943275097,-32.220105602285436,-31.635007500615103
0.652,-5.356490698403293,-8.022610800072682,-11.640517887361964,-15.20711299646068,-7.886034451606767,-9.683785102430562,-18.871051013952588,-19.832295793858304
0.656,4.857469127253125,0.9850609024368913,-0.03664730457963117,-3.5903199315852152,2.792983736906436,-0.8933215674759081,-3.1372724610301876,-6.369758132662784
0.66,11.77200291645672,7.409514789685638,10.026976970502442,5.55396886800412,11.067471327430795,6.316999360309972,11.046831937214531,5.512750583338333
0.664,14.002727783411867,9.864460188713556,16.312716796061608,10.557261312029283,15.760852252603154,10.715858953957115,20.848546431612895,13.633080868491403
0.668,12.309712579254779,8.704933275945798,18.24818343114236,11.705687161365,17.24120111178386,12.345915157542539,25.370854206211934,17.43464438951837
0.672,8.979619654494373,5.553634968527252,16.81392575946108,10.689097593576857,16.874973069625348,12.226107721980394,25.541507864445297,17.799820625652252
0.676,6.4933863182733855,2.3077713930773007,13.775161056270628,9.430793290798544,16.118974250483827,11.61637052826637,23.250174341678616,16.302932235144674
0.68,6.230750810506809,0.20489846156694513,10.733601361177577,9.004121164256198,15.772779316795642,11.277958224921479,20.27434790064052,14.350246929003728
0.684,7.909001627944022,-0.5691547507063532,8.502726070164288,9.226908058982664,15.749270703446095,11.145423937515309,17.56483147535743,12.639207951794868
0.6880000000000001,9.997065459218161,-0.6138343202576797,7.040898768089862,9.074651819540627,15.405848876430785,10.564109537479661,15.165486336203047,11.133316818479997
0.6920000000000001,10.796470014889222,-0.659350155134613,5.846335209637402,7.57897441527162,14.172541238530174,8.908347093976664,12.649746296309313,9.458825657186793
0.6960000000000001,9.523758585465016,-0.9761135518055211,4.5019664658373095,4.615569919431708,12.058296284063328,6.1632641850786545,9.709990597801337,7.399885200599611
0.7000000000000001,6.785191745376155,-1.1976924408020886,3.02947956938782,1.1045355355122002,9.735630171902027,3.1092377741699213,6.516562234353399,5.1695408232310465
0.704,4.208384430574115,-0.6251273340043082,1.8730851383111955,-1.4765972673479038,8.170425783120118,0.9744550773042686,3.671079705894347,3.3142869669556765
0.708,3.4598293527588213,1.2177402105967872,1.554472159125032,-1.950918663838646,8.04203598379841,0.7288013088493033,1.8319361646770482,2.354004381799431
0.712,5.237302118074694,4.15740908265772,2.2458235979930543,-0.14160255818875767,9.320463811054879,2.447410241118184,1.2957837844059714,2.424391265847084
0.716,8.815917415171604,7.346890239998613,3.541400908746855,2.997419292738348,11.241209693865622,5.14466420646095,1.789449886721044,3.1493950624829656
0.72,12.407262872194199,9.66428903928825,4.588058414942279,5.890258402544578,12.688150036935792,7.2254860142051776,2.599204471974656,3.821638479544401
0.724,14.127123148192327,10.294251444096362,4.516765723449169,7.181927956400223,12.763487709432216,7.349570639630265,2.952546138665597,3.7828598249636944
0.728,13.003300814405744,9.137809650021293,2.9194345463106814,6.423304419972188,11.23064366972253,5.1977479000080375,2.3943005817867062,2.7772570412893662
0.732,9.453483198109378,6.813830462391313,0.08868795693500586,4.224504492151656,8.604973614651785,1.686179992498845,0.942552842829449,1.0898549536802544
0.736,4.9916410910662545,4.278465047500969,-3.117987154046256,1.8192121861127148,5.863968275696576,-1.5175717350871991,-1.0152724433675666,-0.6012757425905282
0.74,1.3605807690117429,2.3117152162751875,-5.699085127831926,0.33589255901479564,3.9552488727373114,-2.9130773973956128,-2.987500647396361,-1.5729725869589513
0.744,-0.37721693197369843,1.1887882397309735,-6.966042913875972,0.21053502836388827,3.366863793101671,-1.9923205658979177,-4.607551934602588,-1.4182709786743803
0.748,-0.30412589490897024,0.6918136617121009,-6.810924497533209,1.0501623453993947,3.9713635383397325,0.49914713685973666,-5.7120942466895395,-0.23481450720407349
0.752,0.5420445715511795,0.3947543327311518,-5.66993725621208,1.9717362692924896,5.193039093555399,3.002508053747876,-6.277283419584357,1.4413761499660547
0.756,0.8505815141085291,-0.012231046594094241,-4.247118266508909,2.1637697322262417,6.361398248549369,4.016579494535983,-6.322628594100349,2.894786903333335
0.76,-0.18611133268329638,-0.5597932187380157,-3.1553060083070434,1.339463530090482,7.04884794121978,2.909854378038985,-5.885286065083799,3.537497995068244
0.764,-2.4298941397456275,-1.0595588302927377,-2.6419389296942164,-0.15184806028628106,7.223981882064659,0.22489848915527189,-5.0606166372481685,3.121636870422644
0.768,-4.925184934459062,-1.3192639413510783,-2.547157126241825,-1.5892533727938183,7.170420910382166,-2.6892054671886676,-4.070186103331549,1.7740315340259407
0.772,-6.490050863493195,-1.334165545245404,-2.4974660850858097,-2.3311634189061685,7.251436214972419,-4.476004839981359,-3.2804682899650635,-0.13129901107488795
0.776,-6.412524490777835,-1.3106519707110817,-2.194859512839278,-2.178945786437227,7.666022684650441,-4.526943028656039,-3.0961957458984646,-2.1769070733047253
0.78,-4.846606738978069,-1.49966688581334,-1.6225625988097452,-1.449758556143597,8.332830975203628,-3.248103031403358,-3.7612947945860054,-4.0751682162619804
0.784,-2.6854787189905913,-1.9660008558682822,-1.0441642828982935,-0.7376396318558767,8.938004209726156,-1.7071117070383308,-5.171675803199776,-5.738473898247901
0.788,-1.0333478779970493,-2.4868432769318156,-0.8244529803794514,-0.5371825280426554,9.103029692132802,-0.9304785069938419,-6.843967680037258,-7.240756106933675
0.792,-0.6122265931969562,-2.674816454734338,-1.2015937576013354,-0.9587835467934926,8.575185087524662,-1.293355125824934,-8.103968109354486,-8.702196800439175
0.796,-1.457491748940953,-2.2718508087947757,-2.159349191221782,-1.7072511052337163,7.323020590783976,-2.3769389498795777,-8.426778858422981,-10.17940230151197
0.8,-3.0301574736505117,-1.4078813429579302,-3.4594949558089567,-2.3042849154988447,5.504738983698873,-3.3369695779843633,-7.750320638476662,-11.616191122876357
0.804,-4.617294618331276,-0.6246138158834587,-4.79072333442911,-2.3994729281954212,3.343309245270616,-3.494941980919093,-6.561715281642639,-12.872108874556886
0.808,-5.776173987050975,-0.628760379184973,-5.952114702012871,-2.005029032221934,0.982256081995537,-2.7693353060855483,-5.702356709490349,-13.813489608188473
0.812,-6.548968659446503,-1.8968118673408814,-6.9591888472286465,-1.5193647628769815,-1.5791186078521093,-1.6799048622825228,-5.981939382974472,-14.40386134846175
0.8160000000000001,-7.336560375286063,-4.3530580955255775,-8.009859862554608,-1.5232194771898584,-4.42709428023937,-0.9517610881874194,-7.7837372597813985,-14.739469568542713
0.8200000000000001,-8.542457523769517,-7.320138726994071,-9.323346946548972,-2.46107075937946,-7.581651429245845,-0.9956425529782251,-10.861971289727371,-15.00974282421132
0.8240000000000001,-10.215024275100602,-9.784619488448255,-10.93842735865073,-4.375494916012703,-10.847694183641499,-1.6139913915798516,-14.423821809579652,-15.408161954464337
0.8280000000000001,-11.930092099698365,-10.85602641071025,-12.610887738316222,-6.834022004881051,-13.773989245570013,-2.1268739203378635,-17.465981169676258,-16.040927009156576
0.8320000000000001,-13.001111687300808,-10.190504789901318,-13.883283569515891,-9.086803917422156,-15.770710927576307,-1.8268788216390277,-19.207315529693616,-16.87993136544019
0.836,-12.874388303566167,-8.157805215821593,-14.302436832380172,-10.382204440135197,-16.358762600039867,-0.4610869882736184,-19.41792308312054,-17.788708085106222
0.84,-11.469118935304227,-5.660674571969755,-13.665013611286925,-10.290633858744535,-15.432111366150474,1.585724779831314,-18.488157151121342,-18.597351052706387
0.844,-9.256184096702324,-3.7025516927855677,-12.143789867575787,-8.888225869535225,-13.402545878622696,3.524461336736037,-17.209953116368325,-19.192134429908403
0.848,-7.029941589351195,-2.9278390983929916,-10.232170082608834,-6.723767003747322,-11.126992950912626,4.64107492170537,-16.405701393341012,-19.5725939980701
0.852,-5.513021047138625,-3.3642910594833966,-8.5427166178012,-4.591584916953888,-9.609046334448793,4.7011387989569275,-16.59396583470289,-19.844857631471086
0.856,-5.032320900119558,-4.4843831935869725,-7.571311213652276,-3.2245532119366107,-9.606063676119721,4.012333400530132,-17.836054657503947,-20.170019427316344
0.86,-5.415172434205391,-5.5214273979361534,-7.543829814441507,-3.018806291718221,-11.308438690995736,3.140276517299305,-19.79695817684181,-20.69031159192481
0.864,-6.143072845528122,-5.862288155329868,-8.387814874714417,-3.9063266241130066,-14.259800846234164,2.4916504591160917,-21.945184107105042,-21.474566791425957
0.868,-6.655954146353766,-5.32047084532606,-9.824715782710857,-5.423751821289911,-17.562339711701675,2.0622674886224472,-23.780180373080196,-22.495592335472345
0.872,-6.6196799789973095,-4.1611196242597455,-11.505367569326218,-6.914145319094263,-20.252328313797136,1.5317391267100366,-24.97492451953243,-23.62793145263334
0.876,-6.029750008957871,-2.8963910393982957,-13.110579762670334,-7.783518227860645,-21.678480782790874,0.6161571951548569,-25.408118604789195,-24.66342733744409
0.88,-5.139434433027043,-1.9829525474735838,-14.376226644828266,-7.707573334237008,-21.70149166664457,-0.5800319740463965,-25.112298160688507,-25.3337504290032
0.884,-4.269044380543471,-1.5686432313633283,-15.048068240355107,-6.696425468339973,-20.63585729434887,-1.48093061671757,-24.186712924193106,-25.347274889706508
0.888,-3.6283455560428575,-1.4240875833940496,-14.855633647414228,-5.015731681088624,-19.001955245013814,-1.3260642430727447,-22.738752508932794,-24.4413409656847
0.892,-3.2550757385787934,-1.0986197214715023,-13.573792062626895,-3.0330677944302824,-17.2443843841427,0.3405652624154557,-20.87873634249997,-22.447041807811804
0.896,-3.075322465694413,-0.21844652958960786,-11.176292361408432,-1.087466379278558,-15.587791209978107,3.2847746189477096,-18.762385284562242,-19.363049211631417
0.9,-3.0321828266474937,1.2278109352774091,-7.9921777862616565,0.5581234299260034,-14.087118439137825,6.576848468984327,-16.62659550946207,-15.40497579951652
0.904,-3.163863621424988,2.7912586207884127,-4.719116423894217,1.6888217566718882,-12.795195306196257,9.017039044708897,-14.753582820961482,-10.997378587813419
0.908,-3.5767421369314407,3.728734521409473,-2.2352036174584753,2.089821743322742,-11.892792446218873,9.759107527861026,-13.371611864471646,-6.697522475833059
0.912,-4.354190114508738,3.353630366230992,-1.2681214666701144,1.5417047968697566,-11.659852391714454,8.746731891711585,-12.553515758837914,-3.0709714438602305
0.916,-5.458526657205172,1.4109674623704125,-2.0647901694432336,-0.0954066242205247,-12.27507238808925,6.702320309359971,-12.157618391743952,-0.558073742863711
0.92,-6.707016930111864,-1.7225351056565663,-4.233447215946283,-2.7407942270826506,-13.568338175663659,4.6867146586355535,-11.85690341445773,0.6277408988606252
0.924,-7.83023195842969,-5.125814212009512,-6.856107800059406,-5.983532397277165,-14.924753658514685,3.4997154967686837,-11.249466420807039,0.5385675478378298
0.928,-8.57816422501196,-7.688710790881345,-8.849322215129316,-9.098379171268418,-15.45946843847758,3.278472275888496,-10.015467663605047,-0.540475070051067
0.932,-8.825448553019823,-8.583270159447212,-9.419377570199579,-11.228320160269648,-14.413181271536805,3.53225907692722,-8.065940100068351,-2.174816525796148
0.936,-8.60446824924887,-7.617734192749922,-8.397212268421478,-11.689500859276565,-11.575953156821148,3.5552414894289583,-5.6172061752155855,-3.885301577812188
0.9400000000000001,-8.043214995740623,-5.294714052316209,-6.286696408564355,-10.260694816349941,-7.490782859530354,2.9429227502000934,-3.1515776998773504,-5.246046282480012
0.9440000000000001,-7.247585044737804,-2.5378816614220754,-3.996120720946586,-7.311204270272795,-3.2920324228318614,1.875425705147081,-1.2543541613335405,-5.971358230119139
0.9480000000000001,-6.204694920268251,-0.23523480946510977,-2.390665437794662,-3.691939389270738,-0.2216743844653415,0.995102893820714,-0.38806934170688745,-5.977174189973177
0.9520000000000001,-4.793372299012211,1.1495990049457112,-1.9014034353655265,-0.42636446895879754,0.938792294942906,0.952119683571095,-0.6999920991037136,-5.3916238461514965
0.9560000000000001,-2.9143361390048104,1.6939562077061208,-2.3931631315220896,1.6510687603905567,0.21024035708824407,1.8980923145394724,-1.946391928607893,-4.503514198682355
0.96,-0.6779144221094144,1.8195983104870552,-3.335311667262369,2.1522767515485306,-1.65297644849814,3.274134053887739,-3.5781542861510207,-3.6510851593893907
0.964,1.4969822762328358,1.9329478309673913,-4.146645773157547,1.202510328701132,-3.6063066607089507,4.054416704618573,-4.93792131853359,-3.0786467255245156
0.968,2.9564500415908754,2.1334473644425613,-4.516133340497706,-0.6913535922682681,-4.88755959228312,3.313432590501375,-5.494048480528562,-2.817447380927599
0.972,3.050786178626792,2.164844451771528,-4.531132529227387,-2.8834640891259755,-5.399436671573753,0.7994224147914656,-5.020541264995673,-2.6491419557876252
0.976,1.45141154764889,1.6296707860110335,-4.56552610302216,-4.823064645360985,-5.690972765313202,-2.832703915921558,-3.64944944541031,-2.1900070319239235
0.98,-1.6198569897155481,0.30916666646942037,-5.01293711023992,-6.183540460802268,-6.550184499062137,-6.270963826104818,-1.7893496442613293,-1.0671640616431641
0.984,-5.378581342829687,-1.6201175908192158,-6.015297199510188,-6.8642180334826355,-8.45368027761003,-8.152524218551061,0.05210145220004936,0.8805779902176831
0.988,-8.729299657187568,-3.6217424231047337,-7.351975425421224,-6.919139414519749,-11.195121958014,-7.709958874994578,1.451403907782396,3.4781176470841997
0.992,-10.691060333183195,-5.087244921301605,-8.553374397269366,-6.488796417201403,-13.91414906077352,-5.1331112731933555,2.1790567685700326,6.233822978112196
0.996,-10.799374052606433,-5.685680405090657,-9.160793036662856,-5.761835051569198,-15.51234764504338,-1.4735615265808404,2.2173036288861017,8.513202096434702
1.0,-9.279960569080488,-5.549053869124193,-8.974635129219195,-4.952903837697515,-15.212420873123762,1.845576250957317,1.7072087432849115,9.799058141804386
1.004,-6.899144811366465,-5.168411378601264,-8.145304867322025,-4.267177996273278,-12.959929947161086,3.6599969570706534,0.8884653204991535,9.908505963005918
1.008,-4.57226438611358,-5.062062395681393,-7.065387639187452,-3.8356314742142494,-9.442763682327344,3.5237361783961476,0.053252375203791225,9.060245655293732
1.012,-2.93588811304522,-5.4233391595451685,-6.130118474397659,-3.6455474035746622,-5.721115336260354,1.8085476584594402,-0.49400125584978394,7.763026209326343
1.016,-2.098877739067647,-5.979633290466916,-5.52239310062931,-3.5204780279536916,-2.6933534437594133,-0.5735084120881804,-0.49509979336759535,6.58223626031625
1.02,-1.7071227910356286,-6.169910844435142,-5.147177796514016,-3.1828831049489983,-0.6959855665153198,-2.644333519363866,0.1813071013487324,5.905310391380477
1.024,-1.2503336240879253,-5.519102535529871,-4.7230327924584525,-2.3836746806391558,0.5481570441007984,-3.778066987192189,1.4791254891491867,5.819952326138304
1.028,-0.40591566601546303,-3.9683624778789253,-3.9690643235094107,-1.0403883109324799,1.6237350721011867,-3.8842665388456203,3.15072433257882,6.14784948517486
1.032,0.769942393541645,-1.9583952140983931,-2.78383723741036,0.6937001035316075,2.9560926435552206,-3.3168985636215327,4.838030602603988,6.599505785626901
1.036,1.9104596317891107,-0.20527171876993133,-1.3173813649124462,2.475926073845409,4.473751883565492,-2.606670757526032,6.220332593431656,6.953709117521029
1.04,2.597660224362733,0.6988586784343789,0.09640088277791392,3.9177161338365374,5.615641020795225,-2.1707495382579642,7.158233911482778,7.166169310689586
1.044,2.6495591295429266,0.6175197483861751,1.1069342853049957,4.748380774676638,5.675745652000687,-2.142722205913297,7.7520233636970985,7.352622493992303
1.048,2.247927388888333,-0.07261769691337161,1.5195560826647125,4.909500403987935,4.2828322745297545,-2.3710749348891795,8.27482443786032,7.678634435772001
1.052,1.8242545102463934,-0.7333048285451138,1.3847718832891058,4.535853611564248,1.7281617176633612,-2.5474785637189,9.001410400509315,8.242570362488065
1.056,1.7766990886346354,-0.8736562524430802,0.9536604745252926,3.844776234860543,-1.0793598555519766,-2.390429670011999,10.031495294470435,9.020846911623515
1.06,2.1921234951917237,-0.47453293193865687,0.5179054251097641,3.003988888655331,-3.0310150713944184,-1.7900716572856359,11.210151248078134,9.901474186338055
1.064,2.7730837193095264,-0.01729200750460258,0.24107678188306325,2.0687995844409643,-3.4001526762955727,-0.8467172884008916,12.202492605734772,10.767886804518625
1.068,3.0104685423021973,-0.21326085961933217,0.06062265284370305,1.0162598508656657,-2.269430316057127,0.18463520332405547,12.685566089335161,11.560945997880804
1.072,2.504199842543568,-1.5936275424149748,-0.2792461924844698,-0.149065702186312,-0.5392589320625158,1.0087612703032534,12.544872142244653,12.277305434739997
1.076,1.2462514887084577,-4.191795038872661,-1.0769631966863962,-1.2998249783433646,0.5116959218775534,1.4044031199403628,11.949118618444901,12.911525027603375
1.08,-0.31028670645945233,-7.491030298507681,-2.472827898964235,-2.1706091396165057,-0.08406536760888095,1.2921417857042368,11.263752619111415,13.401872939882127
1.084,-1.4343555139908277,-10.646960573127693,-4.280955145267786,-2.440651756437516,-2.4115408288774125,0.7411854099898747,10.866306991401505,13.628606499637405
1.088,-1.4536871824289817,-12.847647740004462,-5.95667007428925,-1.8745264248364197,-5.540239217204864,-0.06221699076877485,10.979535425843494,13.47942688738178
1.092,-0.05418603783948761,-13.608524846288995,-6.74615100282926,-0.43597983936227713,-7.918499171751497,-0.8650108964822052,11.613421870205803,12.947755259826323
1.096,2.5916744863718852,-12.884053183620969,-5.9922333945521995,1.6659757469991687,-8.129656743548868,-1.424161229860537,12.622028720355509,12.176545974590553
1.1,5.910706555683465,-10.988195669811079,-3.484450346928327,4.021345312002929,-5.628574986167819,-1.5818111378633453,13.808312315382887,11.399571750264833
1.104,9.17637535076933,-8.40520407794946,0.328961847325123,6.129957077508772,-1.0795524761404742,-1.3146393111075527,14.997972374887366,10.79276849742629
1.108,11.781140084632714,-5.611800453631638,4.407498759726957,7.5350316531197485,3.889226672851872,-0.7431530445613612,16.039719941256422,10.328020930151432
1.112,13.407387071274227,-2.9849450360691723,7.478491761544797,7.941837963614303,7.409724229012568,-0.08856985095377645,16.760448674691183,9.741131950060376
1.116,14.051679602739542,-0.7939090907077984,8.556773344710736,7.292305716115553,8.220355882034355,0.3939428331239454,16.948285534537163,8.653496125066475
1.12,13.931535033319108,0.7837928821451845,7.390994988749593,5.796044799833222,6.231468073870916,0.4928727826220958,16.425015134034936,6.811132398698261
1.124,13.36000085649049,1.6826976757753536,4.6209335113096826,3.91742348773662,2.5341382254403295,0.10750630491686719,15.188313646121339,4.302177924279682
1.1280000000000001,12.652626717079562,2.002131471764944,1.5444319767717762,2.3007026964069333,-1.14242770778942,-0.7122210196266394,13.528947716722932,1.6139479410792492
1.1320000000000001,12.073534306124985,2.0230874527137623,-0.4393683717553569,1.6105830648187527,-3.252536488947171,-1.768713034557102,12.005804997375332,-0.5381304110127187
1.1360000000000001,11.789518266390598,2.117940174355188,-0.47028501302369863,2.3014213586827488,-3.131021878344555,-2.771222700016734,11.23214741400736,-1.5405455145976994
1.1400000000000001,11.821537595801543,2.5728777032475914,1.3654253076448977,4.402074812005245,-1.2275840367858728,-3.417865936340723,11.563212147019556,-1.1898660809599848
1.1440000000000001,12.019922953403753,3.4092023456196356,4.068583029597496,7.422702604575307,1.1912150927565035,-3.4870828061140706,12.863041791649609,0.1734105660774512
1.1480000000000001,12.095715207219403,4.311271886165581,6.191254338317399,10.455345578087204,2.6922821575761593,-2.9073181646959405,14.508352141827832,1.7972191909575228
1.1520000000000001,11.728869710116758,4.743345536560618,6.518786415283589,12.47506308554643,2.3495886946984577,-1.7821660876488465,15.660379707190419,2.862169005106649
1.156,10.725113938392347,4.225818747993587,4.6344007737874,12.73597796153338,0.12476042383338792,-0.37721539239635415,15.680633097919698,2.861041051508405
1.16,9.129304194563504,2.619960823286653,1.0767156086219707,11.067277851555179,-3.2040440754326505,0.9303797551552211,14.440750197311106,1.8111022869453883
1.164,7.230956570478256,0.2625970763945755,-2.9606010111261445,7.92693673688553,-6.4905011535225725,1.7329672383112196,12.35216392451678,0.18766071300562537
1.168,5.445817539494268,-2.1377591072689857,-6.20997079911314,4.189900975328845,-8.780835355856018,1.7114058498612021,10.1156558440816,-1.3533484442284411
1.172,4.124113710934506,-3.803132024915535,-7.875732055805249,0.782977734241733,-9.692379641270563,0.7731578285448435,8.351634758126078,-2.2839809090016567
1.176,3.3892565573344005,-4.2369075825997715,-7.884856542217101,-1.6502862755108323,-9.449355667432291,-0.8660631094050215,7.33350285334433,-2.376591084489295
1.18,3.0799210042755334,-3.456684458470889,-6.7722776468030155,-2.910499940207078,-8.607961898626648,-2.694873664014362,6.965616415672551,-1.6712438731232586
1.184,2.8395297796937875,-1.9835054623793225,-5.295344972725577,-3.1777369006709772,-7.660285792877209,-4.042330320841901,6.998938313288534,-0.3102552883718559
1.188,2.3308979630473114,-0.5813308962321999,-4.008616733315803,-2.7893891985630956,-6.739286497882971,-4.31287901309192,7.305156993956812,1.6165799164072467
1.192,1.4356601447602877,0.10500814295536642,-3.032499454148777,-2.0280933205052722,-5.584270120984446,-3.2302928954197663,7.996875232950405,4.0876447761566705
1.196,0.3053680720684051,-0.18617101807355763,-2.1292654646442486,-1.0651279916720124,-3.7837459302494416,-1.0043570311989516,9.284524315585621,7.003124950629531
1.2,-0.7539200396564776,-1.2876470448219193,-1.0012847827104152,-0.0567159476244159,-1.1239399259208398,1.6815286023917102,11.164612083730464,10.009518247425957
1.204,-1.4712365736814972,-2.760582293126346,0.41514037504943335,0.7315479926017714,2.156952263413979,3.898597237367444,13.190414209968775,12.460397703371072
1.208,-1.7689220556453589,-4.1501958190276405,1.842359207736253,0.9074100894854027,5.358552609157349,4.832641056232749,14.533607837357376,13.604245044919937
1.212,-1.781798312981374,-5.192341604463663,2.7951546269779444,0.11642991789058676,7.580640755694225,4.129311599536738,14.360163812423789,12.94475895183979
1.216,-1.7346665148321323,-5.875999486823641,2.8570083330639062,-1.6999735776401046,8.115374981903177,2.060481818679237,12.3205692927413,10.573755237186113
1.22,-1.7746306065560762,-6.36642011366904,1.9238690315338056,-4.128253916002411,6.780877180354058,-0.580311909748578,8.842226269340493,7.270012417563825
1.224,-1.8476450104746136,-6.850918469664283,0.28786521925435515,-6.337901787475635,4.0285884515662795,-2.812037328566052,5.021469694120764,4.2532491288889975
1.228,-1.7115148479477749,-7.418501887093553,-1.4872766680727425,-7.402965790148055,0.7579681298970007,-3.875679453387484,2.1376046001609623,2.6744588152493423
1.232,-1.0865272524615415,-8.034005448243267,-2.813553322396744,-6.742260816398269,-2.059003855837825,-3.5291723826081003,1.0465426698889848,3.0991894422126363
1.236,0.14050355671692305,-8.59792309031727,-3.3215914443888037,-4.448946131012616,-3.76692840720984,-2.104986814522184,1.7819831984681058,5.247533869175006
1.24,1.7673587924704408,-9.043813646687669,-3.0035983242981352,-1.315842104125248,-4.253179742704021,-0.3181756986835722,3.584471416393009,8.13424427089548
1.244,3.2930316939548594,-9.387678896355773,-2.192174575605036,1.4886681237999912,-3.9204799067643448,1.0659027481857497,5.33871047256722,10.533633438367811
1.248,4.118728917298739,-9.68801341863447,-1.3954604256908372,2.9436526649970576,-3.4300585286660894,1.5509902496685668,6.16750671617784,11.53281408106929
1.252,3.8220965329283776,-9.95185674900711,-1.079826959982097,2.620245363145332,-3.353662259685289,1.0758975937392992,5.840055267773225,10.897577119411856
1.256,2.364289924124297,-10.070443294065258,-1.4914510944631778,0.8164104430885102,-3.909895324741183,-0.03605005383986515,4.7808851237563905,9.084622227210453
1.26,0.1229772886247229,-9.840665663792096,-2.571697510241031,-1.654844966086837,-4.885231991486155,-1.281664674894435,3.719458376569102,6.936948774013503
1.264,-2.261613157043597,-9.05853353194681,-3.967088092748542,-3.882126089886622,-5.757953557135544,-2.2109266147440434,3.23846950627783,5.253709439988618
1.268,-4.152535594700392,-7.631624264597199,-5.122378954687196,-5.238970211403051,-5.954287176407752,-2.580013360995302,3.5035260067940013,4.462198011426079
1.272,-5.167563486459587,-5.651012919025531,-5.4469544448480365,-5.552027687705402,-5.1083315501136095,-2.381753142552829,4.3034060062757735,4.531868333824216
1.276,-5.30437012723718,-3.3710030884042386,-4.516711954295454,-5.015990252269801,-3.211290826651627,-1.7893462785107856,5.3129568992117315,5.1250739369337674
1.28,-4.894440417074838,-1.1087806082605967,-2.25469068063834,-3.957518034522728,-0.5791343703185885,-1.062825307404199,6.351768498331069,5.865659646282514
1.284,-4.40265763624091,0.8893847562878645,0.9965220482369834,-2.6150634597352793,2.3241140939133653,-0.4637006931109029,7.462075558745276,6.5541919509115605
1.288,-4.178177844231782,2.533165664382791,4.556263137559663,-1.0676991261376898,5.098215679948705,-0.19348129566265282,8.76871232521562,7.216978783862629
1.292,-4.276109204630796,3.8764551483235827,7.632041614248639,0.6852459985433352,7.5414631196752255,-0.34808538099177855,10.248385101835375,7.994058995928072
1.296,-4.4282901383001105,5.021840748581439,9.596335440736315,2.5908639516793883,9.644730549396073,-0.8947309341557217,11.59632064164434,8.952476071312468
1.3,-4.21103325171031,5.9862864698277996,10.177736997431088,4.457874368722168,11.46627677161619,-1.6830910898729536,12.298141294869074,9.950688984754425
1.304,-3.3125755166227746,6.624160865634256,9.491970129353533,5.980898580526651,12.965458849280555,-2.4955147443622243,11.890275169305184,10.629042466501968
1.308,-1.7444528270374904,6.679216258815821,7.923048124475617,6.859428141477396,13.914112320102744,-3.1255213283837113,10.246033661604251,10.547672356112415
1.312,0.0908126510682854,5.947651865706645,5.9384674119230905,6.921326754258029,13.972479098279122,-3.4518692447279338,7.711716201157215,9.424872574305795
1.316,1.5533643489939695,4.478443430154416,3.946590064229536,6.189142631303694,12.909797166468698,-3.4703749110728843,5.008926389556688,7.358635546981269
1.32,2.0791834951820998,2.685939153521666,2.250877791652645,4.872699147997377,10.851246682629505,-3.259429512719321,2.9471798950933206,4.918996616126794
1.324,1.4878966503447786,1.2744988450362271,1.0871783375771678,3.300770263735666,8.373929353590206,-2.8956420363692477,2.1088014261061305,3.0238252340968996
1.328,0.12204705624329204,0.9740424494196263,0.6527194513324979,1.828764235510239,6.336335587017141,-2.386729455963205,2.6529168081375634,2.59147906397736
1.332,-1.291402272371978,2.178282356091179,1.0381324382476986,0.7410006204376085,5.46978095627701,-1.6857845325545,4.28415799430217,4.078579685904813
1.336,-2.037498404998324,4.635086650526044,2.0497329071665007,0.12807213303889764,5.902429392838293,-0.822266893433472,6.339450520537234,7.095836132622448
1.34,-1.9001065927258978,7.352668363474445,3.0337637046121024,-0.2545428205913378,6.886122323241558,-0.08181108584673424,7.901215101355131,10.31678572886491
1.344,-1.4602758836053376,8.827212557270059,2.900926722044039,-1.0577182366603077,6.939006771262186,-0.09140416522978967,7.939206160064083,11.815332563402233
1.348,-1.9836654787694705,7.558796235818538,0.46243368316293143,-3.2290077147102902,4.425250442944873,-1.6882339633198864,5.5146897392672845,9.774937013097375
1.352,-4.8610809685167515,2.690090837108831,-4.981210088184365,-7.6657607470574,-1.6308812443265186,-5.546677052567381,0.08734068748270563,3.3216264772330852
1.356,-10.82614612235889,-5.495614471462504,-13.073007241212636,-14.712173010217738,-10.883650092330576,-11.728173658103888,-8.138034116135128,-6.896921357511366
1.36,-19.347663987801994,-15.461722083309121,-22.195157136143997,-23.71488868228155,-21.508971341645562,-19.389469102493123,-17.992218241257447,-18.697602715876624
1.364,-28.531613960223755,-24.779110889776184,-29.82148647593888,-32.91060842475201,-30.705675841511137,-26.85120639181568,-27.42947686009227,-29.00851432608642
1.368,-35.66929444770381,-30.862300218842954,-33.369773034718584,-39.820467063268126,-35.692563091118714,-32.078506770409376,-34.01456743949199,-34.952046652394145
1.372,-38.249912191979,-31.81633452432703,-31.204551854311504,-42.08181818508577,-34.77301050713358,-33.402427987270706,-35.685451267819936,-34.91159707235291
1.3760000000000001,-35.015404822935814,-27.085087986747958,-23.344612050537975,-38.40828951626129,-27.999444149638556,-30.186744760340808,-31.510755055960665,-29.113519361633116
1.3800000000000001,-26.564078775892096,-17.65268719126257,-11.541690613106418,-29.239695878792105,-17.131899434128922,-23.130790681032565,-22.10831262667599,-19.464635682541385
1.3840000000000001,-15.176904522982007,-5.7065003252723905,1.3415486268996553,-16.733461746286473,-4.929278716163107,-14.049489578617774,-9.50023740706882,-8.743431202233758
1.3880000000000001,-3.920975316764636,6.104457130179346,12.380461117805444,-4.035823346442893,5.885472773783779,-5.22347224004216,3.561305400635084,0.45773801182753804
1.3920000000000001,4.557617783668453,15.521086401868633,19.593837671494054,5.8707584614742,13.521091335461097,1.4052601700283534,14.499116419989527,6.561627837960092
1.3960000000000001,8.997613440472977,21.314638220160205,22.47525957643075,11.22887307469158,17.50594472849182,4.834866613320573,21.655230578772503,9.278470168262036
1.4000000000000001,9.803987514331553,23.48936121273664,21.86367172802033,12.006814350996539,18.49032637212919,5.168526243607343,24.591338153494146,9.313351917811024
1.4040000000000001,8.571838188840722,23.014474711394342,19.31166159293644,9.651253010868198,17.65054764068126,3.3506823491586863,23.913025909203927,7.768072124554987
1.408,7.158755935517463,21.260430178599922,16.326964032574097,6.272317464536407,16.0517417187655,0.6591674885764562,20.810752343456496,5.603594200495497
1.412,6.798606175972729,19.410322412267163,13.849978425061407,3.694704976231977,14.286594093007865,-1.7869325448000861,16.595292252937494,3.423984137746911
1.416,7.659533859692246,18.083276528277416,12.137891234131022,2.798664315134568,12.47285056397282,-3.336879389920605,12.39644872053832,1.5686047672038013
1.42,8.990703595023525,17.27486261350079,10.968352370713443,3.3901942377371386,10.505461919000988,-3.8718492633147346,9.043019538697603,0.3222967920363873
1.424,9.701541983062583,16.5899933137291,9.976304563591327,4.574740070070903,8.34280071050488,-3.678450650590925,7.048066613619941,0.017417236634209576
1.428,9.024802439499005,15.620884283906864,8.921912257714656,5.368574558950655,6.144046158845638,-3.237030630643992,6.591638179071952,0.917734115017359
1.432,6.899192998224143,14.251484870966522,7.775213180536468,5.207037974304569,4.216292898433589,-3.016898667832607,7.4704979211740365,2.983151961732359
1.436,3.9128495901894964,12.731871212071528,6.642850334396847,4.119415388692184,2.849134325632246,-3.324819643901815,9.083767006890824,5.717491848799709
1.44,0.9249409671386224,11.512451249225165,5.647885026194871,2.5680923309248165,2.186257998655102,-4.2170932324402335,10.557375681039982,8.282667633644117
1.444,-1.370485650959811,10.95521698920324,4.875873857913138,1.113438125953671,2.2166561793404953,-5.488733136263058,11.027211238696573,9.86690824486055
1.448,-2.7005752166934816,11.086977259906941,4.3977334236204335,0.10980823609839518,2.8546975972407043,-6.732129666004502,9.97672896561608,10.095496420283975
1.452,-3.1846589820333957,11.542210235146051,4.308669313614096,-0.4100771537966086,4.026022295516031,-7.478416342273318,7.4492580840214195,9.235996263410094
1.456,-3.1040212210974745,11.740433971741394,4.71687758603562,-0.648797407324567,5.678612476763603,-7.395566683067084,4.001296878445859,8.043260907986788
1.46,-2.672664533703397,11.19227438645065,5.653266887942023,-0.8487056192024482,7.7161229878204605,-6.454951519589751,0.4032662217238252,7.317229888294012
1.464,-1.9449263882704066,9.774687407966006,6.971725039379106,-1.1077672846669948,9.914342636607735,-4.980435142389695,-2.7294309115840547,7.428965294720861
1.468,-0.8884938579020334,7.831797162710822,8.344881062934109,-1.3085953374341521,11.913149260491993,-3.5189632970767737,-5.15473353232805,8.089851727650327
1.472,0.4823210266202391,6.046670202477442,9.396245444651694,-1.1799420153565334,13.333009556287893,-2.5831133366574917,-6.954122071243594,8.51436437132715
1.476,2.0310626405303447,5.133219433174902,9.895887341640623,-0.45483973161859925,13.941171961991438,-2.4108160539391537,-8.286238257034068,7.876344920086327
1.48,3.5206964669647327,5.495928849229383,9.896897953868997,0.9567818630927372,13.772817604417865,-2.8742670768581147,-9.140096404652025,5.801671080625317
1.484,4.724465674789412,7.038877477798687,9.72328141422416,2.8704342190897085,13.114765015034596,-3.5863363852611783,-9.272918771166491,2.6126849592902013
1.488,5.546642598357548,9.213751604511973,9.789619911873508,4.848856949772604,12.334204223507417,-4.147070427303908,-8.390634818226825,-0.8220537929106562
1.492,6.051897820190724,11.26265303138073,10.338466607777718,6.339780744353769,11.650386543360211,-4.377700488422731,-6.451373436178922,-3.5387097311635225
1.496,6.379694227644614,12.529498347192995,11.25072099676539,6.874630767703636,10.988301202895894,-4.408843456189965,-3.8676233980634396,-4.962332542989181
1.5,6.593233250718401,12.67725259273276,12.041195109350449,6.2403600875948,10.020352605243769,-4.578167520635829,-1.4413750616626744,-5.150846407713924
1.504,6.581331360191134,11.732851215319544,12.0667409750976,4.55619678236588,8.387065362659776,-5.20686545453058,-0.019727548158728236,-4.680752478092226
1.508,6.093824339188899,9.980450340943586,10.856366159394508,2.221043694057741,5.976944030110339,-6.397138935396912,-0.06314524375390995,-4.2618670487164785
1.512,4.90272453162544,7.800831587432338,8.39515525271049,-0.23651268409932769,3.111176570119425,-7.960282845983224,-1.380365464385196,-4.3150548340882136
1.516,2.9843115323739364,5.54327346361163,5.19213143322883,-2.3496796996913556,0.5023809330393814,-9.51758059508821,-3.2127111459640365,-4.76418441066147
1.52,0.604857212851905,3.474259119648128,2.086397849090046,-3.8607967518581,-1.0083730321230813,-10.6888990581193,-4.634515589092536,-5.13766995986653
1.524,-1.739592350579335,1.7958132455345333,-0.10029957060776162,-4.755809461102245,-0.8159394774528361,-11.242740393563086,-5.0284993000389715,-4.906434775457534
1.528,-3.521197843180019,0.6599239321988961,-0.9020184031732636,-5.198024111831842,1.1475030105679527,-11.142210663356604,-4.3747874871432835,-3.8621894089994937
1.532,-4.431748533454293,0.13023065764509978,-0.38393122187604445,-5.417825960428331,4.319458806304694,-10.48368498818611,-3.202537934246063,-2.311909573152472
1.536,-4.5435557527293815,0.11618930326078525,0.9233660223281681,-5.616109106077252,7.684879180556639,-9.410648534077843,-2.2562439681876496,-0.9848286734594751
1.54,-4.302216178647491,0.32749936045559425,2.271866144319466,-5.925298565032003,10.14856135482435,-8.090907441955169,-2.0906846001985278,-0.6967890938933659
1.544,-4.339368180732451,0.32441212314564183,3.008707831917248,-6.418681362562959,10.9318033225703,-6.747313714220281,-2.83251725340037,-1.9549098571599686
1.548,-5.168385040886807,-0.31565401081283984,2.814456010148601,-7.1234855550762815,9.824368133224723,-5.673045328734385,-4.219379135167998,-4.705590711873025
1.552,-6.900150008781775,-1.791726948715075,1.7789651000305806,-8.005204269305027,7.197199989910279,-5.1539223021173015,-5.847654607630492,-8.338368519807219
1.556,-9.136552847192025,-3.9606727488171076,0.29586147464606327,-8.942518728310851,3.7740225259338196,-5.308797357254596,-7.448832347743277,-11.94395532756434
1.56,-11.11866157962646,-6.396455244778634,-1.1656323444351404,-9.736274466291832,0.28640767351922847,-5.951892589467634,-9.024538763041368,-14.68804991336704
1.564,-12.085414026019556,-8.61014142351154,-2.2870147482279624,-10.18494580547381,-2.8258722043673963,-6.598087067185751,-10.765050744881702,-16.13232934125234
1.568,-11.68098024642525,-10.315148692333832,-3.017900309445899,-10.210850821541179,-5.539495368926701,-6.66808474403544,-12.825030240045793,-16.369149436214062
1.572,-10.19846410480774,-11.578049218150937,-3.5405944594637244,-9.955356919566395,-8.14448359968764,-5.821538057065652,-15.132156899391791,-15.92174610268584
1.576,-8.501540583387287,-12.757039025326801,-4.11615581028145,-9.758363734783078,-10.978512342139831,-4.228919143483411,-17.357834612320797,-15.47181273485941
1.58,-7.6408752222865814,-14.263933614365348,-4.915310494986185,-10.006097730215949,-14.151745585580628,-2.5925733591678064,-19.083597801183053,-15.548383696970324
1.584,-8.30408988743636,-16.267881002185632,-5.914803668544819,-10.890697646938698,-17.40913378906969,-1.8324037777784636,-20.05047515344743,-16.318414146930472
1.588,-10.378374220678344,-18.520308488971395,-6.909546688672314,-12.220613751317261,-20.212219048329125,-2.5798755364233337,-20.31845070142839,-17.570777297404952
1.592,-12.894564878836459,-20.42522139740694,-7.638413747117887,-13.430023351683674,-22.00097666003868,-4.757902138416149,-20.243432729520578,-18.87554260947717
1.596,-14.435051544722327,-21.322673298441934,-7.955804570529847,-13.824963215003532,-22.49506341521204,-7.515898988716838,-20.28801205611316,-19.823468312977425
1.6,-13.859447224837304,-20.832516802849796,-7.959487700983303,-12.959460528689753,-21.85221725426583,-9.60330928817579,-20.778192684563365,-20.215344341001774
1.604,-10.98418490483046,-19.070995936203968,-7.986749766797288,-10.939705830011173,-20.59804882854607,-9.996434806695294,-21.73563647502106,-20.120078431997577
1.608,-6.823850395504897,-16.61233040572565,-8.460936308105413,-8.457813223908135,-19.362016199640365,-8.430729258304172,-22.871312920716655,-19.788428140606054
1.612,-3.2135369290524753,-14.213656675548282,-9.649803281001883,-6.492102922166612,-18.553412410022847,-5.523018077223018,-23.727809956611146,-19.472880308433833
1.616,-1.941087414527014,-12.459108380303064,-11.458787566692475,-5.80219198517233,-18.159236495618398,-2.4149099607647475,-23.880382890889514,-19.257164012127866
1.62,-3.8184403628359704,-11.514915858908882,-13.38476252897532,-6.494952035380411,-17.769719339128113,-0.14792852518382826,-23.102772606632136,-18.9924366972023
1.624,-8.169599518744704,-11.106923052881449,-14.672444970347106,-7.909839087207906,-16.827649022044596,0.8742459647692344,-21.434037823248968,-18.382451603669455
1.6280000000000001,-13.046242976449738,-10.727143452808226,-14.621609329238838,-8.920649771882191,-14.969930342281554,1.0219423008257316,-19.14137409405688,-17.18086122788474
1.6320000000000001,-16.104416294851074,-9.93831965692176,-12.905226141881668,-8.50493324433732,-12.25640572403387,1.116169448597622,-16.6163976206838,-15.378375967377146
1.6360000000000001,-15.704012579449213,-8.599474206411264,-9.751700219865338,-6.279151428220203,-9.166686465566558,1.8596854332927317,-14.271637947593165,-13.274127187947453
1.6400000000000001,-11.70892499471491,-6.9178823280938015,-5.915635327894229,-2.721297960520159,-6.378059398344018,3.374467480297862,-12.479185221725192,-11.381586602678285
1.6440000000000001,-5.56892210805932,-5.312642530802725,-2.4235132461042355,1.0525047560593412,-4.449923817659254,5.132382586798468,-11.522630715791642,-10.206419152813993
1.6480000000000001,0.38201439879138377,-4.163859764486931,-0.17661591509289032,3.849522165332198,-3.584609248711198,6.315471773475289,-11.527566173970506,-9.998908317807302
1.6520000000000001,4.033053149403921,-3.594797743434885,0.4070245743194931,4.995144375282496,-3.580886785739329,6.36770049732659,-12.384281880742291,-10.608497948965317
1.6560000000000001,4.433736329468584,-3.4193113816410303,-0.46314586857941453,4.63307559364732,-3.9881457909560094,5.367293607183355,-13.722416615021588,-11.529782611284631
1.6600000000000001,2.113907279759868,-3.272105598373877,-2.074820770936734,3.583144289648869,-4.347049177645843,3.9955261882638795,-14.973445335290531,-12.111816180526978
1.6640000000000001,-1.3181680940183744,-2.8313810767756125,-3.5268091620204873,2.862138258875982,-4.373297821728405,3.1425590384330455,-15.52676535358476,-11.831402859768609
1.668,-4.048937158193127,-2.0273762271037405,-4.122212339957665,3.1337569694473935,-4.006817493335882,3.37279700229414,-14.960908253262541,-10.507939730509483
1.672,-4.932109058029152,-1.1207427740571965,-3.6541611455914946,4.38672562356547,-3.3429598728554493,4.593386703056538,-13.231766487199694,-8.360993761986947
1.676,-3.9185067904839954,-0.5914213227356333,-2.4422308701203486,6.00499765663207,-2.527738310468693,6.12898769494354,-10.708076397711844,-5.8930067207490815
1.68,-1.9026754493891271,-0.8973809673586066,-1.137730816769169,7.153543100929145,-1.697368578389959,7.114689641957746,-8.039902159369912,-3.6602808104104985
1.684,-0.14092848239474254,-2.217019228543199,-0.39208478305479133,7.25288473231858,-0.9879138057515311,6.979703702114967,-5.892037418839818,-2.044887359464389
1.688,0.40041309466751773,-4.314347384784692,-0.5618313831625263,6.260917648422954,-0.5774532442044702,5.719894145749558,-4.6736618222168165,-1.1375617693629145
1.692,-0.5434788223642171,-6.582512068550079,-1.5644055061671533,4.647358950104941,-0.6710123553351686,3.845700812774577,-4.382956832376501,-0.7604585279845737
1.696,-2.513090446052823,-8.255983247289361,-2.935408779495018,3.1045581380842195,-1.4071216170039111,2.075608423019624,-4.647223173719036,-0.6031565309331464
1.7,-4.643348815370118,-8.715806585390045,-4.073928921341526,2.168301348676664,-2.727583975026682,0.9712972167838294,-4.948696272845707,-0.3788512336573968
1.704,-6.097077365589248,-7.743512435451311,-4.531678864595776,1.9841362399855251,-4.299697690074399,0.7500485634537211,-4.904777900331087,0.07782422628650876
1.708,-6.396151136030555,-5.606044530645887,-4.21613485010287,2.3202986707692155,-5.589296086812721,1.3210294701266747,-4.457692877014523,0.7985672847427152
1.712,-5.533027820200342,-2.928385074573038,-3.4032024286014924,2.787744797208532,-6.08497634408856,2.4737920045315978,-3.861664479199934,1.7353150482456956
1.716,-3.880197465193753,-0.4171500858979099,-2.558289805810305,3.1095844287766496,-5.568292846225101,4.057336989354375,-3.4663397868916017,2.816779147344435
1.72,-1.9993479063061543,1.425725906662761,-2.0889307941302437,3.260847989915728,-4.27366871751445,5.993455411392302,-3.458982525126344,3.9619282146193786
1.724,-0.4509953962367099,2.4664638678394297,-2.140326096664026,3.4193851543653047,-2.8084368581458907,8.160801224052454,-3.7167615275277424,5.05772173106015
1.728,0.3426194846016277,2.908428993248215,-2.5510106421621224,3.7761345627666962,-1.8547098986574557,10.257109515837326,-3.8665143902819725,5.926828301634691
1.732,0.18340796207588328,3.113993595286909,-2.9635855747739566,4.353952645739554,-1.796721796438697,11.805922982343565,-3.5170134978212655,6.333114390191927
1.736,-0.8590369669874138,3.400869232061897,-3.005000597122003,4.962276501325107,-2.4893536081357457,12.347804960502163,-2.5081440040597505,6.056944278724949
1.74,-2.455500374664557,3.91848377919875,-2.4663881828876955,5.319807018239601,-3.3053608952029676,11.706203348673844,-1.0403846183839307,5.020344894698976
1.744,-4.108110987173692,4.651469620188037,-1.3858629327940144,5.254712095911721,-3.4545048440269426,10.156532646493682,0.40217368180721147,3.393122915589754
1.748,-5.320774498936164,5.514194485586038,-0.014384759213915466,4.833848463264822,-2.4178707862853335,8.34970174483273,1.3016171904949356,1.600530458719129
1.752,-5.778744002330939,6.458322998989786,1.3136363483965754,4.340523623167719,-0.25543434810927224,7.019185608537906,1.3861813391089273,0.19445613272541207
1.756,-5.449451800616177,7.516810916063371,2.3425090526342007,4.11187626874996,2.3926821691131845,6.636297103431909,0.7883029983164178,-0.36419463926393647
1.76,-4.5729172666846205,8.738118964372802,2.978378477431024,4.31816495887044,4.611861908605322,7.183864818052997,-0.03172313249371772,0.08107846427650678
1.764,-3.5334915187886393,10.070487032630881,3.2774787125243705,4.8364910400797925,5.670187171186203,8.194107890775774,-0.54209538969668,1.2859462080551871
1.768,-2.6836278335758,11.292260425618593,3.3563591073204755,5.296355246194054,5.369122675584759,9.007492596314147,-0.4310292411849126,2.6870292857494267
1.772,-2.2112273342801094,12.056774079789426,3.296947429725458,5.27872723369191,4.103253454974917,9.106736283015898,0.2393191543133142,3.636627584902263
1.776,-2.109004282118065,12.047209988549719,3.110302389288985,4.5553068305049536,2.6028536117598904,8.340451917434837,1.1072919314898417,3.6761441510740727
1.78,-2.2435649174043077,11.147682147037164,2.752357329358162,3.217695915827484,1.5142945631054854,6.917221863564874,1.7475108114321443,2.7240115107622325
1.784,-2.4681079430401183,9.518556022799245,2.182881336730317,1.6221692989560879,1.0604257670409396,5.221464699706143,1.920412441553629,1.0856127055141656
1.788,-2.699785166833683,7.516958683368705,1.4125535079172762,0.18117674885638024,0.962675853527708,3.5760867128066667,1.6761353035181954,-0.717432859263087
1.792,-2.912507430842113,5.504120880852248,0.5184906710368355,-0.8580114388274609,0.657817387885733,2.1296797902739995,1.2726757242076743,-2.198592625715144
1.796,-3.06459943041319,3.6588828186332325,-0.37117722731897773,-1.5170431365838688,-0.3364293927402402,0.9191625443717619,0.9808442093428598,-3.1141021460012306
1.8,-3.057399004532371,1.8932793984738776,-1.1413724273282275,-2.0247496528080404,-2.1238816439707975,0.006460503984407007,0.888568728029163,-3.522858232159402
1.804,-2.7621254948522824,-0.06287365658082544,-1.7444273644177049,-2.624464218098371,-4.359389313918298,-0.41966667553210524,0.8382366089528532,-3.6830393529203276
1.808,-2.1053353706818045,-2.4550243587246867,-2.223556768114708,-3.379250880746099,-6.437365156952082,-0.09386740575375851,0.5306341211924464,-3.8615408115842347
1.812,-1.1416462775679466,-5.288191820050308,-2.6761502974895386,-4.085138606728943,-7.8014154676815215,1.155608470231047,-0.2691088936023842,-4.168564648256808
1.816,-0.057166201803289685,-8.230859001284543,-3.1616571508943974,-4.352966098633221,-8.195703184482785,3.2358737712776486,-1.5402359292127001,-4.508810215545512
1.82,0.9186095005403561,-10.704580531414813,-3.6246945037690255,-3.81845409042306,-7.723948470756565,5.728612489074132,-2.9602088038537504,-4.659188944010105
1.824,1.6353200200684377,-12.125893860083012,-3.8745566199669415,-2.3597511968548623,-6.705079108556159,8.017873874195953,-4.037887708212718,-4.408384148632224
1.828,2.082749741496307,-12.178626760110904,-3.654628124952088,-0.20863341677254255,-5.450298143906612,9.533074521668702,-4.355367714474253,-3.67599043163333
1.832,2.3671872496691417,-10.970095976880573,-2.7696962010581765,2.1205883810835644,-4.109117733268694,9.99152735640603,-3.7821270941778415,-2.5443346208760977
1.836,2.6130266771172925,-8.996803506662342,-1.2131980152044393,4.037755908063639,-2.6903845949049034,9.497604288274712,-2.553322801251922,-1.2085546670834142
1.84,2.85764857404435,-6.934437190357894,0.7560843599660909,5.105328903291301,-1.2115578918202354,8.430648558847555,-1.188241197150488,0.10552685120096461
1.844,3.0244141158660582,-5.3489057248647125,2.664472404827981,5.193159010669147,0.16823529788172475,7.223192947062076,-0.2751166091937236,1.2063002645461984
1.848,2.9730664696051825,-4.488144005367818,3.975437947458166,4.470378339706119,1.1332667669057273,6.131221887751684,-0.23471775601600564,1.9389293643391161
1.852,2.603221604955591,-4.235308686162018,4.309777358929365,3.2697177545472123,1.3565059122125636,5.145619483819016,-1.153409239418579,2.1717708582352566
1.856,1.93611083101987,-4.231766055847837,3.6430202678315347,1.9077606206352726,0.7140385839829495,4.087719993438668,-2.734227618338912,1.8128343053456897
1.86,1.0907739323337537,-4.11897283813141,2.3417157608928996,0.537259878620933,-0.5939463746706117,2.786162536791946,-4.402109712477381,0.8709368669421846
1.864,0.1711984220573739,-3.7755212796986823,1.0066510264497532,-0.8955286589807336,-2.12013279431964,1.2357996214593625,-5.521413627946821,-0.46833259847073005
1.868,-0.8266276897380131,-3.4193516788084333,0.17587706905263367,-2.568363856911711,-3.4271404197657818,-0.36319709334825234,-5.640030056927734,-1.8152257390692021
1.872,-1.9857853907004122,-3.5041759213512145,0.051290264956498355,-4.610654788114495,-4.365082168925602,-1.6843300355809965,-4.663192526316433,-2.6523504015951147
1.8760000000000001,-3.3153899257485113,-4.451583248659164,0.41169616169741907,-6.930642319867018,-5.176725379323944,-2.406058179093776,-2.8774691921108992,-2.5162833374484097
1.8800000000000001,-4.593432956203777,-6.3661670182733765,0.7448685409199978,-9.145979032267672,-6.331448342111351,-2.3339156709610993,-0.8384224363414929,-1.2066127305870022
1.8840000000000001,-5.344880104119698,-8.881963584276171,0.5575625831806273,-10.657840123163941,-8.15229357879834,-1.4422985131449517,0.8587300394027748,1.0963327563768321
1.8880000000000001,-5.03602537037366,-11.24782708943253,-0.31545527418899777,-10.86666385205465,-10.465921659904502,0.14281264831886542,1.8209165270353656,3.8893726120478327
1.8920000000000001,-3.4278264693040263,-12.643307735027525,-1.5834999888996246,-9.446056127139947,-12.521663631382824,2.188591398843918,1.9931957845516464,6.55593878150152
1.8960000000000001,-0.8562933624139024,-12.567284902448485,-2.633100333081663,-6.541501454811694,-13.284252473840295,4.401630998441477,1.6393501858182211,8.611847728017686
1.9000000000000001,1.7640191866029662,-11.101523984385596,-2.874623229662604,-2.79354773625452,-11.966372588589694,6.453442909246615,1.166921498490479,9.864301045750281
1.9040000000000001,3.296106291122056,-8.889252532666411,-2.0831078874541604,0.8666786298127547,-8.498199568647951,8.026957055247136,0.9045532388087721,10.39975720925273
1.9080000000000001,2.9599133861670515,-6.819950775025054,-0.54521536854099,3.5751735086590655,-3.6544857740210626,8.882976391166316,0.9431727728089148,10.420926379158576
1.9120000000000001,0.8206541918877921,-5.568381471267092,1.097572406585468,4.892516859616031,1.2717138747809704,8.941626822502847,1.1348665858412268,10.047151663379939
1.9160000000000001,-2.1088163694775783,-5.2312519682076255,2.2426020937979985,4.993847320331484,5.095373900455054,8.335666203866815,1.2559218665513727,9.211885334707082
1.92,-4.283457886876005,-5.284957984106395,2.697675477047973,4.580655398703747,7.322603691235203,7.365450737499531,1.2101170015264326,7.743682539795794
1.924,-4.370329252610943,-4.885693458226155,2.8307251759327094,4.560051171203771,8.36585793471171,6.381961318769333,1.1536919578523497,5.583700391174515
1.928,-1.9424797320944585,-3.371250065526901,3.372511882937416,5.617491362596614,9.243164503459253,5.624590742204907,1.4339324744456423,2.9767006556605455
1.932,2.269029101992381,-0.67669601148304,4.983812935675019,7.895969430723118,10.93277588275445,5.117251279443957,2.3751420978016426,0.49151363579252205
1.936,6.738222979241814,2.5880655716669123,7.84539476628815,10.947316364670328,13.749518034290784,4.700351720533895,4.054091738682304,-1.1806974305195865
1.94,9.913207943733934,5.441619631384359,11.487871655231137,13.952560922131308,17.10100007103246,4.161132392630558,6.180388805694652,-1.5576446991647033
1.944,10.979134809786988,7.055943714545047,14.976171907339973,16.096589968587384,19.773234670728364,3.401691097201742,8.179752636355811,-0.6341389075876833
1.948,10.197244734684118,7.195425658180493,17.323603421441415,16.895258014529112,20.56956686977258,2.5214643822144525,9.441565935456904,1.0798794435710986
1.952,8.646622497522792,6.317547489243058,17.91214813211252,16.32128005903251,18.944534843528,1.7626793063715924,9.598486044985979,2.802919279187253
1.956,7.542636315068278,5.283286634773442,16.700138788403933,14.701256907329524,15.273039273842743,1.3537516019525058,8.68952245229471,3.886148530690143
1.96,7.5225297095521855,4.828073809337922,14.106720181847633,12.46864742695669,10.615689351986381,1.3361394293299085,7.1021818171088995,4.154756444189125
1.964,8.3016519774667,5.107333328216383,10.696990525481297,9.935534404693968,6.14006429137645,1.5075564250956912,5.337457504738793,3.990778336989742
1.968,8.884365310144654,5.586525643769093,6.873554280891069,7.204916858632731,2.5363733924512992,1.5099105734452432,3.7386196493734243,4.090801111243538
1.972,8.187368260848586,5.349851345956569,2.7713229250209457,4.254701431931053,-0.23154344706035968,1.030279123725978,2.344921190343054,5.034773782179636
1.976,5.69256421827351,3.64507889683353,-1.6090359835028845,1.0984173140239086,-2.7376971292466408,-0.009257266559954402,0.9369636843552089,6.8947002441267875
1.98,1.7671535207590194,0.3651437976231844,-6.159155109795781,-2.0921356400849853,-5.594895148380539,-1.400827948684519,-0.7822285154204258,9.12096776528676
1.984,-2.50001165636127,-3.803752606165487,-10.487298092777348,-4.975285499345464,-8.951640999856217,-2.757186099190771,-2.9696835670309323,10.789796163929095
1.988,-5.835999753738063,-7.650786114361061,-13.964606207619479,-7.153233685928106,-12.295725139688198,-3.727603962274577,-5.52517287225897,11.08434734567235
1.992,-7.364795973293765,-9.964373268252615,-15.964720324758243,-8.322501272633447,-14.653257054929847,-4.175563667754481,-8.125311268369815,9.751039366993439
1.996,-6.921792104470711,-10.037893719606794,-16.144988127459445,-8.370354113223991,-15.068312010025418,-4.2152324450538,-10.36501386872536,7.267630577337855
2.0,-4.994670936241771,-7.917144002924701,-14.615688531904706,-7.3846145959966885,-13.091863254761122,-4.109663737121419,-11.92688000638492,4.625855306486931
2.004,-2.386064272813111,-4.292597290968005,-11.885786541252273,-5.586189437330168,-9.011564659226764,-4.08704904687947,-12.670720263710976,2.840822762358921
2.008,0.17260563244322746,-0.13638251010712354,-8.639385134196123,-3.2522624158117757,-3.7288409473261814,-4.2111669125409925,-12.614504057975381,2.4480333270807364
2.012,2.2535260461993545,3.7123259808729134,-5.469724290754994,-0.6681475689946375,1.628298002383283,-4.3654260981366235,-11.839039605598522,3.2673957186266103
2.016,3.748744829523193,6.807369100812795,-2.7116142475899148,1.8922620099908878,6.135018152935986,-4.345097364042092,-10.391683052629741,4.549509735118754
2.02,4.7379391339059955,9.104094090410229,-0.46455376227461276,4.1760981563856765,9.331067333775426,-4.006800608712389,-8.273160045818079,5.417896385920114
2.024,5.331942068682633,10.771036453117226,1.262754875866757,5.973598356957192,11.217707529439359,-3.361463776786136,-5.516109428758883,5.355050750186244
2.028,5.578133388545671,11.940729725643212,2.3873319770342896,7.134229909683607,12.031132709393034,-2.5918947205145546,-2.3196732539484053,4.444798859109682
2.032,5.466593442985476,12.562230867960492,2.701292510110738,7.577700693184976,11.972145105695171,-1.9809171875463256,0.8683087990784129,3.254516915698125
2.036,4.993175222201345,12.43777350838648,1.9938421844539684,7.284896614213677,11.059139921154056,-1.79189957481036,3.4250461929168354,2.452242555238524
2.04,4.19353576080179,11.394801253225207,0.23598921157817543,6.260579323407988,9.170296919675858,-2.1838566994180195,4.7565108677495,2.401297166393947
2.044,3.141574842176629,9.496508316204528,-2.2793346465795823,4.523711146161763,6.245647985194267,-3.1571908324374194,4.571316896361772,2.9902203583327363
2.048,1.9284454845908066,7.151913401058529,-4.953637005813336,2.1462682116361784,2.5067837247275717,-4.542579973516162,3.0901611990782105,3.7855119736404994
2.052,0.6522693086367326,5.03554136993137,-7.073212472465729,-0.6704346450063827,-1.4567181986878204,-6.018838032367391,1.0464453696663765,4.383801733115654
2.056,-0.5466770954317237,3.846760390200529,-8.079497755669763,-3.5337614993484268,-4.816595053074108,-7.16824177715168,-0.5632280949577151,4.700024174850389
2.06,-1.4928381427390462,3.967756034379576,-7.83870512271649,-5.920955374277665,-6.836122690498215,-7.624561700719381,-0.9406493157535847,4.959025746946962
2.064,-2.0587759388228637,5.184590156302102,-6.768738023515034,-7.382213797876852,-7.243573864982477,-7.2770237902153045,0.039925970457704185,5.364898123680737
2.068,-2.295177688335523,6.633195925587612,-5.759941958717224,-7.8161313148774205,-6.4636532468298,-6.464588096839806,1.5924785402409525,5.664379568881311
2.072,-2.526301928079378,7.037359082607042,-5.8982794165817705,-7.652162383097846,-5.552804260271421,-6.01947389514647,2.1930907551246754,4.9343369296925434
2.076,-3.2988441741943912,5.190995823784917,-8.059155994522255,-7.780059408219745,-5.811919474170234,-7.052073191342075,0.18180637240195807,1.8306311350948477
2.08,-5.143259499706156,0.5064790953081832,-12.52215446912454,-9.187503427733615,-8.200575297042024,-10.50477412617411,-5.43411681238576,-4.7216487778407785
2.084,-8.220846916893212,-6.608423046420757,-18.7345828314552,-12.425162393059642,-12.796903479274512,-16.614769323611494,-14.328950493688975,-14.72181586718048
2.088,-12.05427439174678,-14.743089038303362,-25.3463597177897,-17.172129415033986,-18.58042387223617,-24.57858367977022,-24.702213737980394,-26.642249965641117
2.092,-15.520603209696414,-21.8773214035584,-30.530225029663953,-22.151853094177866,-23.66860647185493,-32.63522720904191,-33.751068140132524,-37.66320455581282
2.096,-17.181795062268215,-26.04061853846587,-32.5146171418237,-25.514747071000173,-25.965852492530196,-38.604492110383745,-38.623470632838746,-44.60782951261797
2.1,-15.870573353719962,-25.995472265929735,-30.197828853197628,-25.574562888892842,-23.98821592176442,-40.71596274498008,-37.49081266053586,-45.20010003001641
2.104,-11.252491293320395,-21.665489283944506,-23.59755578469145,-21.563938496715792,-17.50354427198915,-38.34091138314311,-30.26060387150928,-39.042625766111755
2.108,-4.074584173693858,-14.143064583657921,-13.95067594321003,-14.04778005571555,-7.699924379455702,-32.27583689832336,-18.615112527272323,-27.836102133344447
2.112,4.049223002962113,-5.29610394437546,-3.3832913404470393,-4.772163284053606,3.2076479866483325,-24.40859302243319,-5.3663737161179075,-14.709967504462801
2.116,11.24018799441178,2.846650508198336,5.766682729701291,3.9928505298660273,12.76330936206668,-16.90980636685798,6.589197799787604,-2.97387262323792
2.12,16.048938785267453,8.675790995914447,11.701467884894402,10.299197582115097,19.11229567881384,-11.366970734038746,15.230861655226068,5.115898619327133
2.124,17.937914551517903,11.364004279541954,13.718110846340679,13.194312922504189,21.559637479549163,-8.247825486210651,19.907897348065287,9.027502164529686
2.128,17.335968818419623,10.93634795358101,12.327911089051192,12.922535226833366,20.626093513012517,-6.948913243984844,21.214729094296686,9.795054518310419
2.132,15.284311715091789,8.10081383314126,8.907542483653408,10.61499062445661,17.63616197107473,-6.336802118756515,20.40549121642868,9.20009508351368
2.136,12.896580871350208,3.9586824444293516,5.060979948960148,7.676770106065981,14.067819612927154,-5.446368076811327,18.697751145321487,8.763110271444072
2.14,10.896336775894977,-0.3122490070478885,1.962756328184108,5.183834889628171,10.975701381901285,-3.9776970921330577,16.795760195888402,9.062495919069727
2.144,9.449306395183033,-3.7276656892914897,-0.0042145449263149,3.57496151775693,8.733836872773031,-2.329549282434395,14.820650281785941,9.681403515253596
2.148,8.306786681039458,-5.694979049439628,-1.2039329538040404,2.717959142055566,7.134760288096192,-1.2282553589240843,12.564542940016434,9.704878260638537
2.152,7.120900844724327,-6.107580801645861,-2.3591083292211588,2.242866082078552,5.730081258326599,-1.215615028196618,9.853982967769202,8.42872069791699
2.156,5.753334227606288,-5.293170501711266,-4.027195334911429,1.9219988310254896,4.205587124161623,-2.2970389523812194,6.806052213834047,5.866103549437074
2.16,4.384411437358867,-3.83972776954191,-6.243599497624594,1.8616213290385648,2.593123950917393,-3.9575869592698707,3.83802687068942,2.788424577494334
2.164,3.4050682118851583,-2.338973068025074,-8.484600584473096,2.423240423651552,1.25033842913714,-5.478539323287812,1.4725008798194377,0.32745517732608675
2.168,3.171109757494108,-1.1559893185156125,-9.960012005847668,3.9320308480175328,0.6476010873668625,-6.359634588492679,0.07105445981492653,-0.6171217774004258
2.172,3.7805013993551646,-0.32889269753540606,-10.046507110134153,6.366585640804859,1.1081265900990132,-6.567240523175103,-0.33938956725141234,0.17414606432079127
2.176,4.993852023466555,0.3549839456620729,-8.608850897387997,9.222561520553853,2.633643523643282,-6.464823240474864,-0.049898113378939235,2.1522968903410282
2.18,6.309379908426874,1.1408045299894747,-6.0721385536657735,11.63210413175887,4.873397566986746,-6.520397912637951,0.48521449712707543,4.287038705036481
2.184,7.1711016405283905,2.0974187103262683,-3.206060225016669,12.715875101338764,7.249397454776856,-6.961940404678961,0.8596688964686336,5.567946006868382
2.188,7.213305609663516,3.0489880237920737,-0.7660421946348697,11.99168323539217,9.16306852419368,-7.613214920635617,0.872326442249336,5.456258862141443
2.192,6.425575521030628,3.7004639669058914,0.8090135067792992,9.634624122145976,10.195130644128138,-7.9956246616342685,0.574121771666043,4.091165601027694
2.196,5.180797279401954,3.8844436126707818,1.5072651881101624,6.4586550972831285,10.229722515224088,-7.60562023508294,0.22237492984077623,2.176804842156924
2.2,4.093488518926182,3.737524620521757,1.6079082450987023,3.585278421988675,9.464608325147834,-6.224567913366274,0.15819310512718587,0.629772677562165
2.204,3.770968232391854,3.6724359683599648,1.438997228167615,1.9576613384016701,8.328681189863008,-4.056202419705256,0.6837117748427581,0.17441025230967844
2.208,4.531403964920878,4.123844637587979,1.171801668059457,1.9064648287106696,7.330282775176042,-1.6470150706957858,1.9686422007224378,1.048578160671272
2.212,6.227587524590615,5.225703296085783,0.779249632358713,2.99308831136259,6.894852850693017,0.36156202310112073,4.005227067783905,2.936560450462317
2.216,8.275116994610222,6.640970931150918,0.17483579392334647,4.225208372851622,7.2372745891775825,1.5080175771174567,6.618345761161223,5.125554133108652
2.22,9.873174798304072,7.673987289418497,-0.6111367410322162,4.5390749381717015,8.303038833760624,1.6519449304031135,9.503118711052174,6.806824301127054
2.224,10.35416440131413,7.642370953935144,-1.340834692706431,3.3249968729987742,9.800702644509848,0.9623715733790523,12.300322022839987,7.411246385730273
2.228,9.502372241504968,6.2918852115824055,-1.6571043890520492,0.7245271037944434,11.299077472677979,-0.22099580839930733,14.683714909444229,6.839803985251272
2.232,7.679705181077001,3.997849387745821,-1.3046076227215826,-2.436702972434661,12.367623332672828,-1.5463669142082397,16.431969516342704,5.50852008058127
2.236,5.689156539607521,1.6125213687542237,-0.3266437826296764,-5.043516324582308,12.707980455699477,-2.738244713335585,17.47823697365751,4.1890119547428615
2.24,4.398268418496853,0.005611897940896782,0.8742016115356881,-6.230899975804464,12.221027080597917,-3.632524761327191,17.899871152961396,3.6880357789366327
2.244,4.312562537511353,-0.4256447071822711,1.6896210295856573,-5.7723763136880235,11.005005068032661,-4.168050514164619,17.859538233317,4.494506187794805
2.248,5.31603561435807,0.01476205584517487,1.594906279034464,-4.135448103591699,9.291583583657546,-4.386598349791017,17.503487599381994,6.525922862793992
2.2520000000000002,6.731630046283168,0.510127187206785,0.42081671310163227,-2.1882317295375984,7.357017676221769,-4.436994552078178,16.86217869711846,9.1044129525776
2.2560000000000002,7.673362019946637,0.23157795117324564,-1.547655587312799,-0.7396549771539052,5.438741113429223,-4.547783413799658,15.814009362582558,11.185969910870739
2.2600000000000002,7.485041368939873,-1.1531595227402787,-3.720997679364906,-0.18447569998720148,3.68377481210553,-4.957701732437522,14.125243207987374,11.762173809409397
2.2640000000000002,6.057892379900106,-3.252353799985511,-5.492873243049446,-0.4107241352875013,2.146084829917301,-5.77771986253642,11.581468223668246,10.281491504956122
2.2680000000000002,3.861347053069802,-5.150781850820132,-6.515610357857408,-0.9935099561284364,0.8128340101980713,-6.8602940772461105,8.152611817825582,6.9068651322767085
2.2720000000000002,1.654161719599058,-5.934569754785904,-6.8154262476230505,-1.5219121793978707,-0.35606702622205183,-7.769688036734692,4.113004065554351,2.489722430183731
2.2760000000000002,0.07139927563155357,-5.215596768990837,-6.676279957751047,-1.8291059099223448,-1.397812738868021,-7.902635710221829,0.05127112915290288,-1.7519554180743662
2.2800000000000002,-0.6804284984426356,-3.362377269337723,-6.415517150847103,-2.0038785303481457,-2.3389698762263333,-6.7613726332508595,-3.2906435040890303,-4.710606439870501
2.2840000000000003,-0.8546287723269774,-1.3005489653458706,-6.179542813240781,-2.201248783842033,-3.197538699771703,-4.229412018993776,-5.2988663498549435,-5.810325377435246
2.2880000000000003,-0.9170772792397068,0.0002428182708181792,-5.894083327034176,-2.4197720010271624,-3.9822196795495852,-0.706096482001942,-5.768707260685817,-5.191833262235434
2.2920000000000003,-1.1968709574792813,0.048709753486701146,-5.3883204788611305,-2.4198892389803994,-4.6772226124715734,3.0085478071904044,-5.034155855395943,-3.5820994791154828
2.2960000000000003,-1.6485720739436078,-0.92667342552014,-4.57317700062292,-1.8569039006772314,-5.225236785092931,6.057343291041006,-3.8488690794682334,-1.9210849163440944
2.3000000000000003,-1.887660519287901,-2.155909904106994,-3.5657050475888106,-0.561713095393686,-5.529923608985276,7.911091287941622,-3.0614761448034997,-0.9293781369613736
2.3040000000000003,-1.472322946242068,-2.8059604206906017,-2.6531947232230912,1.2318831551987,-5.482305344346928,8.608427848694078,-3.2231970452784235,-0.8331366311090509
2.308,-0.2650968388061026,-2.4824572343884057,-2.132212374917139,2.8809727724483105,-5.024910489691182,8.690232466918573,-4.338513108550073,-1.3745890530615341
2.312,1.3597290469609105,-1.4735674782221224,-2.136898673448675,3.5938492296045874,-4.223291547719146,8.860590999479134,-5.912042534724668,-2.0742541306333298
2.316,2.6178959814671297,-0.5988640013464952,-2.557867909993132,2.82812528880178,-3.309511140287473,9.562496240995106,-7.27124450611329,-2.583085092056951
2.32,2.6652430503566786,-0.7644487272816294,-3.128916841360286,0.5920468140020139,-2.6614180000763366,10.695482774674739,-7.992907703472394,-2.916239238522569
2.324,1.0274202345059287,-2.458344581902465,-3.5961086793057535,-2.5147992553471923,-2.69022407308627,11.667902550931721,-8.162790131472017,-3.427570584246835
2.328,-2.1313469013492536,-5.462412048944399,-3.869667054149606,-5.557445865629031,-3.681180960050666,11.747201251667583,-8.310215509502633,-4.543259849357768
2.332,-6.0439128033189995,-8.921967675982042,-4.048455527171598,-7.675674432596233,-5.642044500389638,10.52091268485761,-9.0379925872834,-6.40837081826152
2.336,-9.643252990641852,-11.721817258871102,-4.290997920811542,-8.422216588494356,-8.242051744181943,8.210211107043364,-10.550644029106449,-8.671559128511808
2.34,-11.99616872068967,-12.982807517759355,-4.658338258619452,-7.875381846930848,-10.900987024638056,5.619406125744812,-12.41232970628251,-10.562972018458023
2.344,-12.632842198428925,-12.413672036424256,-5.019955748196406,-6.476063335655842,-12.984582915894988,3.767389250546586,-13.705011349450327,-11.23970880300628
2.348,-11.642381114052418,-10.369984528516927,-5.102746932822704,-4.729664759774122,-14.038215971983437,3.3818626899448936,-13.530362110440837,-10.231323133225393
2.352,-9.536067855520043,-7.627105336143034,-4.6600121541150115,-2.9627259377232305,-13.945504464051341,4.545312515071295,-11.58062538968003,-7.735738267509573
2.356,-6.974723665755024,-4.9991794834604075,-3.632800408472262,-1.2589442882283448,-12.941140696038106,6.694327016231762,-8.418335561267625,-4.595805832146292
2.36,-4.530344496618529,-3.017445945649841,-2.211163522027003,0.41274867249551406,-11.476646310653914,8.934507300932658,-5.270945514570797,-1.9501106585151153
2.364,-2.573530127631687,-1.8021795481243315,-0.7262070354861772,2.0117623839869996,-9.989734297275605,10.504999062961708,-3.4009175318206175,-0.7146180351830825
2.368,-1.2776198832079944,-1.1498303501125884,0.5603346849541397,3.326302043315689,-8.698960187096493,11.118097303448256,-3.402323506321496,-1.163844819730159
2.372,-0.6849717775869368,-0.7536582502434763,1.6189766845199856,4.0338484963969385,-7.534008956760352,10.993617273446919,-4.836173053531245,-2.834607750344905
2.376,-0.7574237685448311,-0.4095344254977036,2.6671915949760026,3.8762488167032716,-6.233751825456338,10.609637405730343,-6.422446861558596,-4.797002483749656
2.38,-1.3936639088430993,-0.10465718432775084,3.9921666907190887,2.8242473359816165,-4.5529713971097285,10.337426797279138,-6.721267740764189,-6.141531915979265
2.384,-2.4233921085241414,0.04841856146979051,5.705401746090075,1.1320103307852882,-2.4549264719806017,10.218431637855666,-4.918074565956453,-6.413762884438421
2.388,-3.610483190081853,-0.024446504503379707,7.590977226051875,-0.7562496505408651,-0.1841364129059877,9.999832487817987,-1.2710040836984076,-5.7729184858048335
2.392,-4.6942277988741505,-0.22036848341474702,9.155181787353683,-2.381709397961785,1.8283546649629316,9.403001615105088,3.027257560729086,-4.801175744221137
2.396,-5.443814415006207,-0.22678169870871923,9.887548445561551,-3.418237696500549,3.177964192551894,8.43489792038466,6.503037001277314,-4.093474487283702
2.4,-5.714448849998869,0.3631941080614718,9.561213367217354,-3.739309293190032,3.6854756710708054,7.492769313829372,8.173645989606118,-3.878683867918225
2.404,-5.4725271886390585,1.8463471013406787,8.398619368213597,-3.3879387373695717,3.47194249345546,7.191926626600156,8.008555466077205,-3.889663962722829
2.408,-4.789565231240484,4.221826771818776,6.977940627612392,-2.5148998894043304,2.859286376225575,7.98292258002154,6.830117339906497,-3.55503275162828
2.412,-3.8433275313158637,7.110055071772661,5.905979492051953,-1.353088309609439,2.154740319758626,9.79058805503095,5.739303201084844,-2.3919266473446337
2.416,-2.9075567771716626,9.846625054023288,5.465651980139045,-0.21830727141785822,1.4562416100472118,11.928610086875047,5.454225009822141,-0.3607316552354307
2.42,-2.314341298841106,11.70947703611684,5.427335821371418,0.5089583962074649,0.6013046201416574,13.353668176610253,5.932390380866916,2.0349039216380733
2.424,-2.359439267521019,12.202137618728509,5.18549396736508,0.49048713361799434,-0.677005350176914,13.17812031203409,6.504137583043852,3.9765213645281556
2.428,-3.1624157615567343,11.264010723034286,4.1461931577525855,-0.399384533709231,-2.482574123514425,11.15440240317302,6.397873411877697,4.761932932866033
2.432,-4.536833688546428,9.320933338691388,2.1441821368131917,-1.9248908484084057,-4.534322768678989,7.86976344046303,5.302429350815817,4.204232830881541
2.436,-5.957215936569921,7.154950043900056,-0.3409821410093721,-3.473789502860741,-6.143994375425766,4.5393254883095375,3.621916850752192,2.7700138382342283
2.44,-6.717341211575697,5.613375755806788,-2.341651970317135,-4.265454501856761,-6.460330473230088,2.4528989413210924,2.2464546623466384,1.3749843979141456
2.444,-6.232174997379558,5.2796443324972895,-2.847582866750713,-3.7071713487067797,-4.874826581055758,2.3748884424623595,1.9945744235239609,0.9568166008970751
2.448,-4.359726912078329,6.226275539674971,-1.3232953432686108,-1.728969153315571,-1.3959225686844947,4.183674979267197,3.067849422422361,2.0316506409228694
2.452,-1.5658091413540332,7.955567694384401,1.9822256390911255,1.1015795219197493,3.2334633679185334,6.9377304067962875,4.8562053977884165,4.461717112841785
2.456,1.2205400578426842,9.586247526687389,6.1271415779023055,3.7933640295295543,7.773520530767973,9.349709624273498,6.231772507541718,7.543125838988027
2.46,3.0025045266870696,10.200697755885772,9.886755513257963,5.372801932736389,10.975665666038163,10.400608872014072,6.149155854337816,10.33387242176898
2.464,3.197188926081028,9.229522110942366,12.277215328445338,5.342598194335503,12.101749638336294,9.80672279869205,4.217237636317548,12.042194546551325
2.468,1.935059877578026,6.7093787301541585,12.915368820395601,3.901872732903106,11.209125718145133,8.098677287426815,0.9201376390866045,12.285260002480488
2.472,-0.02730118090989042,3.2783272668727435,12.043998880211154,1.794975205841551,9.063518301199057,6.281027563443762,-2.6354739589151333,11.131783864995892
2.476,-1.7203011504636119,-0.08045001577992866,10.277829772039745,-0.10206287385572477,6.740215490613,5.282961814515687,-5.274852730697626,8.968240528604984
2.48,-2.479767885747644,-2.4545255785183415,8.234871201632776,-1.2330286516153883,5.125805081473047,5.478465540841784,-6.310138259264112,6.303795912211322
2.484,-2.2717698110144173,-3.3819752299493766,6.291819218739767,-1.5831674776121956,4.575779186559393,6.543962466943824,-5.798124022767454,3.6293297410266305
2.488,-1.6338750680391247,-3.021564483656967,4.56104696286777,-1.5681432765440184,4.869525043853745,7.701611279812916,-4.399744286365431,1.3664176127013814
2.492,-1.289474046094058,-2.0406893771514447,3.037105603948106,-1.6936848742673378,5.444604127506304,8.200170082775658,-2.9682450604860513,-0.13296695724096352
2.496,-1.6760481564507395,-1.2735664388530707,1.7697904883979343,-2.2028127615132433,5.736457368339255,7.766068511838391,-2.1145134565484742,-0.605732055405305
2.5,-2.680295139209618,-1.317406315960262,0.897228733180385,-2.933130695528295,5.426343957446329,6.749205567252099,-1.987428267392886,0.048992428055218085
2.504,-3.7546707664808388,-2.2685528827420756,0.5223432238819508,-3.455421813145486,4.486605312075905,5.898946025750846,-2.3478874022316107,1.6764831929826887
2.508,-4.32151332247939,-3.725290521919764,0.5366908942711413,-3.386020455948079,3.051315589372817,5.893518574229246,-2.8358939259154425,3.8317137006184954
2.512,-4.178475208530821,-5.03206802642182,0.5567821917751399,-2.6491110940390357,1.2663517721940825,6.908860814902311,-3.2302989468620176,5.882918043388525
2.516,-3.631049643558792,-5.628836799154271,0.08464223154272554,-1.5240863054776517,-0.7588409429103313,8.489454939117817,-3.5347850709467785,7.230368180939157
2.52,-3.274518783701675,-5.335251403863378,-1.201187092366001,-0.47699549489564896,-2.889471596397608,9.783777865823792,-3.877873777861467,7.538760978461005
2.524,-3.5616639954766898,-4.41737226374417,-3.1793294489760706,0.11059167989454077,-4.865343023188922,10.033369777417322,-4.311918376716485,6.869907676003734
2.528,-4.456079009160286,-3.419288778036275,-5.245653646464019,0.126644817918536,-6.301996182022513,9.014819937025445,-4.684006185645932,5.631333811214801
2.532,-5.4223654301977176,-2.8607480592016423,-6.573252293628734,-0.2832884783496481,-6.841828191361301,7.175488315036716,-4.679057959845883,4.363765166752206
2.536,-5.765672325677262,-2.953358824675477,-6.527987433190722,-0.8786529753694952,-6.378722561352901,5.388740132903424,-4.004100074252331,3.4790194413351405
2.54,-5.101926482475147,-3.480816127802664,-5.023789605902245,-1.5030092321177984,-5.198673662556097,4.4466925786651466,-2.607641539090438,3.0873207900730466
2.544,-3.644945967157157,-3.897068654538078,-2.592362806651153,-2.140331455718891,-3.9010337826099972,4.608203112703237,-0.781942277259049,2.997279204770467
2.548,-2.107955795324443,-3.5891865635214177,-0.11771484396636334,-2.8236625076363353,-3.103491248497557,5.450956456634156,0.9345287103830948,2.8740687764068094
2.552,-1.2748332647170901,-2.173997609611987,1.609584758551994,-3.486055269815643,-3.083215398020639,6.116108372775126,1.997534611059564,2.4472936194430366
2.556,-1.5079177339870689,0.31446025780372544,2.2820943748008564,-3.8836168260439705,-3.581689298002069,5.822535831468361,2.1198112396347812,1.6509724716766927
2.56,-2.5212318214015115,3.418615721391026,2.1720616910391777,-3.6928608425698437,-3.9323539244626313,4.337452459547479,1.40079958251515,0.6290376979234885
2.564,-3.5694489762459227,6.429916111486009,1.905411700405118,-2.725774297942931,-3.4578705672396843,2.14726739873983,0.2653251789772275,-0.37536436139753837
2.568,-3.9244735229982024,8.655347826563895,2.0542753030892924,-1.1193210737459658,-1.920192557398049,0.2171729763173248,-0.75501493645418,-1.162756968708722
2.572,-3.3389180338020723,9.661030411729579,2.794075889687165,0.6493091801743779,0.2566947056547182,-0.5281739341304743,-1.2758960303650317,-1.6625149534731483
2.576,-2.1760869902781517,9.404539200519679,3.8408707653737584,1.9775992422947646,2.1551539707534886,0.30239824132338256,-1.1972814187088456,-1.9207868300868336
2.58,-1.1402604398343583,8.203278201424666,4.659252414699089,2.452125821062058,2.8436750699973237,2.3405597723141116,-0.6773660845394014,-2.020432087927564
2.584,-0.7920449401849394,6.57495251817542,4.809232106713468,2.085027622496925,1.9166540942211157,4.638685605466489,0.0289365871582552,-1.993366172915853
2.588,-1.1650158008612186,5.025858516832155,4.202821882671394,1.316406934434434,-0.23133037548281754,6.145581250263314,0.7682886265386717,-1.7900516666231818
2.592,-1.7538280991310824,3.874576580929779,3.111074013812739,0.7605926422157774,-2.5730166854609755,6.216763340613813,1.579468643305129,-1.3239017874475594
2.596,-1.8741799042882503,3.1801587436367083,1.9499376827747466,0.8465300630548742,-3.9748482390110706,4.9033103168819885,2.6353297098491852,-0.5597498094132005
2.6,-1.1644827138651883,2.7780900057339784,0.9746457711921499,1.547819618277066,-3.793708693533644,2.8794812586332483,4.063351772432223,0.4151839198922076
2.604,0.12579347884091385,2.40992881757046,0.11537055854500355,2.382207592650142,-2.197094619253689,1.0885023073073943,5.775752179445107,1.394308634589012
2.608,1.2503651718887274,1.8562109203609878,-0.955774509926925,2.6712425069428427,-0.05219629223159017,0.28515821121101287,7.416126968644297,2.123886034777593
2.612,1.3982380043375793,1.0095178449765188,-2.5772195611181834,1.9022290823494392,1.544241902838126,0.7024840360420072,8.469765841982852,2.410283753245551
2.616,0.21304009342898622,-0.09411481884986461,-4.794256858206612,0.02334826892563102,1.8470364350727961,2.0070034596139266,8.515204302047284,2.2223139260090345
2.62,-1.9451035788312003,-1.2917109521993622,-7.211066338641539,-2.497031306210248,0.8426703098870991,3.5148821394873533,7.482156111764046,1.735528811419604
2.624,-4.186438256151314,-2.3450731644174825,-9.092640640222596,-4.871536287782521,-0.7672137624596349,4.546463148547174,5.757135365989792,1.282880032898281
2.628,-5.595731568216116,-3.0014571605824263,-9.67880238592226,-6.33905928292435,-1.9513402285422714,4.7285109806696335,4.049656190476291,1.2172167165728025
2.632,-5.747510862273406,-3.060514534627795,-8.552023811891491,-6.483807982089063,-1.8743279087653226,4.112027061954212,3.058913616243059,1.7433173818623953
2.636,-4.910055538392681,-2.430515821878236,-5.850375631509546,-5.376090339531196,-0.29059457243286024,3.0969391941784474,3.1165686286165983,2.799249118107321
2.64,-3.8397299878041267,-1.1842849333378713,-2.2499638236940385,-3.500952720810276,2.357777230178179,2.209359280299773,3.9839026562102755,4.045239805108341
2.644,-3.2845364653985456,0.42126292963874423,1.296154482296636,-1.5171491055220168,5.1654690879707985,1.8713971284879976,4.941915955010511,4.98523788689826
2.648,-3.5142875844150163,1.987450958717186,3.926682995766659,0.029487711203244338,7.1691787201900325,2.2466990102192543,5.153510940178284,5.184608074506699
2.652,-4.171720941645031,3.084198019022061,5.171916595114514,0.9127026919835366,7.745642430157977,3.210857886766908,4.128000908125419,4.499708873861615
2.656,-4.512532797644422,3.4094164752960636,5.07833111390406,1.2742988846139642,6.832112879401737,4.4457544239199525,2.041876324273046,3.194623237226427
2.66,-3.8872013559523015,2.910757544114411,4.098711121653246,1.4913424931718442,4.89708322730657,5.564115950007406,-0.2820328007054247,1.8626245841370546
2.664,-2.168907711715585,1.8105620511329636,2.8455205314855756,1.943389505027727,2.722321810170785,6.2267079021674085,-1.7397645107320439,1.1748606144285496
2.668,0.1268243353638503,0.5077293957110331,1.8238260121259848,2.7779888022073864,1.096360367823159,6.216792714004674,-1.489198841993122,1.5645801804357053
2.672,2.100489654049544,-0.6046879987865212,1.2544370068107233,3.7954640407259586,0.5459952769813776,5.466897061165187,0.6026930663943575,3.01002082594053
2.676,2.9545054651350275,-1.31404542970263,1.0650047739305175,4.53616656609754,1.1931356629456893,4.072366803416301,3.859915057963551,5.032255275865718
2.68,2.4120804000539593,-1.669040438039513,1.0012449711618132,4.525980364233735,2.760791270257605,2.2724314821844933,7.085866945239404,6.913821976694863
2.684,0.8451844775013121,-1.9204726716835667,0.7971423775494713,3.570260878221971,4.715135877246188,0.4172860633763147,9.105754510434096,8.029311936391128
2.688,-0.9471773796635878,-2.3715002858481027,0.3032315258425742,1.9282813508172336,6.461544596011618,-1.10572284326523,9.287654631982107,8.104900795848042
2.692,-2.1704491706683466,-3.2244981518295113,-0.4864106396396144,0.25450802024034,7.527176472623722,-1.9839010061727027,7.772197323758427,7.278391995950389
2.696,-2.4161172117755196,-4.495618406779098,-1.4661913511124656,-0.6771790400474034,7.6779932402269795,-2.0764401131879784,5.32381657462124,5.9559283613886045
2.7,-1.801115170023066,-6.035121185169371,-2.482490635075578,-0.34836681137240433,6.94241140559828,-1.4769060347600167,2.9061536252476676,4.5686918926410875
2.704,-0.8125884835265835,-7.606409085314543,-3.3627384143974,1.2387515265533091,5.568500254195095,-0.48178178524899695,1.23446961001952,3.39146299379527
2.708,0.01410690595688413,-8.961367418914495,-3.9079148118093165,3.550722891997653,3.947211773790259,0.5281972011694369,0.5266218119529429,2.5131817993743546
2.712,0.37372332776972805,-9.88169031403427,-3.8999837217298534,5.778016227630578,2.5327204649914767,1.2455159346614577,0.5340466151278487,1.946126216473036
2.716,0.2890410617574122,-10.181340044005308,-3.1488240452877134,7.2249867544142194,1.7631719141769038,1.5698499556738508,0.7973907596044183,1.7540920389065966
2.72,-0.023207681785094803,-9.730943309611046,-1.6131774648759603,7.598571323175625,1.9572504482009156,1.6210278101992062,0.9282455618838605,2.0643642279999312
2.724,-0.3850347481088918,-8.522046122477382,0.48284249768203313,7.064773989413984,3.2046038260143455,1.6417968515769488,0.7709605586694473,2.947840610898624
2.728,-0.809244011189187,-6.744043889385256,2.634443381420146,6.062712501238726,5.2838755612803485,1.8350794605990601,0.39581839636260185,4.261288131623693
2.732,-1.4800331071459278,-4.809904876875084,4.1953983699199755,5.00499038610557,7.662431213206592,2.2144863011760356,-0.019503357318266135,5.595154608523318
2.736,-2.552199415326048,-3.247936477077128,4.661810447680339,4.0782898151912,9.627729140124721,2.5785734019765902,-0.2927861769451159,6.417312701959872
2.74,-3.9449521825421083,-2.4952657094420054,3.9408370060469586,3.2309650177455085,10.51858775090192,2.600473385278254,-0.27746866479506704,6.353421118630687
2.744,-5.274966761635979,-2.67607566405838,2.452007845197865,2.3313151293038326,9.980233001109996,2.005296114687954,0.15397320923937619,5.440346676624804
2.748,-5.99479604232451,-3.495912759230367,0.9540586693581408,1.3501165345620636,8.109232191366283,0.7224981536437884,1.104237750594529,4.158911081994352
2.7520000000000002,-5.696524907046468,-4.355238699010217,0.14604594720728659,0.4171488228447523,5.40690865273294,-1.0667137685364985,2.5788106193801177,3.191869217169602
2.7560000000000002,-4.382474858712291,-4.6309941247345225,0.28650438176840387,-0.26511516449318334,2.569734942909578,-2.981926536108396,4.408825416923518,3.0449052671760355
2.7600000000000002,-2.5184301247466068,-3.9741723782870766,1.048495064505306,-0.578680739228381,0.22374802748807854,-4.579905533208591,6.231593528781177,3.764349185645342
2.7640000000000002,-0.8040918724788026,-2.4451157646923747,1.7444786900198501,-0.5630723134203177,-1.237814024684762,-5.479541114876147,7.620901805516352,4.943798138895324
2.7680000000000002,0.2198428889189823,-0.4063028970512219,1.8049627375563255,-0.33475075735367743,-1.650929501053516,-5.440324230388483,8.326953853753519,6.014717489298281
2.7720000000000002,0.4779710662377814,1.7336212439325687,1.202191551747764,0.07101440422062621,-0.967803318359004,-4.403205172439629,8.46514018479681,6.628291789834791
2.7760000000000002,0.383718750706441,3.7462743802578133,0.5367172245349954,0.790275848352342,0.8273305309050549,-2.510759364529469,8.494841402064113,6.846973626954398
2.7800000000000002,0.5325269547272327,5.5966301110333765,0.6503642941418004,2.012112867613648,3.643323086522834,-0.1551077843666242,8.910885942691646,6.972757710709416
2.7840000000000003,1.2190327233611216,7.214654299787256,1.9679260572446324,3.6821599819138946,7.060967710729338,1.9944238980534792,9.778051945370201,7.108353394726473
2.7880000000000003,2.074102089286135,8.19650059967681,3.977266905509964,5.222217822402602,10.13422852214374,3.044751682671874,10.395620974475861,6.765252958870404
2.7920000000000003,2.0909612374131274,7.705839276276165,5.230483380507972,5.523473445505072,11.456440823097315,2.076409034203282,9.37344614677753,4.859152848766444
2.7960000000000003,0.09053416857058139,4.754697938191864,3.9905949779286884,3.347752654702484,9.609102769147498,-1.5103024653413357,5.2100675456607135,0.21840825165455247
2.8000000000000003,-4.577629904466269,-1.1981061741081318,-0.7737236199194604,-1.9953744903514967,3.8746310720222907,-7.635500196603255,-2.8508471016960186,-7.608832319459397
2.8040000000000003,-11.464081854392848,-9.631835636740089,-8.570212201720103,-10.035032270253541,-5.129148791178415,-15.339366209281287,-14.11401214022342,-17.706894494643684
2.8080000000000003,-18.938968297850067,-18.746905899816053,-17.258455668124892,-18.991570816166135,-15.308083849284724,-22.912317344007104,-26.303488630633225,-27.758392744313227
2.8120000000000003,-24.721952937907638,-25.89955640913607,-23.79531967473857,-26.289570951138405,-23.65269015483097,-28.37261571261323,-36.20232812047699,-34.76554448611171
2.816,-26.7989990352401,-28.581914170559592,-25.529541763211554,-29.551728822789016,-27.356221247379413,-30.126990637192314,-40.836417785168834,-36.25718416385106
2.82,-24.320600117690848,-25.531214907494167,-21.42675126507223,-27.631820051376234,-25.003344882143843,-27.5741029387162,-38.67633283585101,-31.39128325868504
2.824,-18.030228798624286,-17.40421343845683,-12.58043464928479,-21.159537161810967,-17.235140080820802,-21.34816592283859,-30.285119753031566,-21.375358971998917
2.828,-9.98171175566955,-6.61897252366418,-1.740487422363164,-12.295044595557705,-6.523952973536547,-13.096068427709259,-18.088107006981453,-8.969446322306851
2.832,-2.675473323030236,3.609708876714043,7.892093298130485,-3.8049372550672125,3.8692558068210063,-4.881793923850322,-5.37760681987233,2.6930698831318454
2.836,1.9816914236239171,10.601969603448737,14.012553102840528,2.0909193144993177,11.25539696919551,1.5437919479640432,4.9771054285967855,11.36937528042262
2.84,3.3968994852937398,13.260831229549897,16.015752962908454,4.533471850606475,14.53041738563801,5.282413438981392,11.500039379754039,16.433465981542145
2.844,2.366818590721034,12.34518110645534,14.934216221505956,4.141269914107358,14.373708079974648,6.437204900252736,14.357040147086689,18.756627328448893
2.848,0.511780599283157,9.863030187765155,12.634648353708254,2.4355944891932744,12.587875775561113,5.850407796190796,14.847714153688768,19.878718415666008
2.852,-0.6129769784351504,7.93483959397682,10.759228866334794,0.9372573543085738,10.999193583410761,4.591839805474907,14.484990448567492,20.99460342094766
2.856,-0.25535694209846493,7.745832566906401,10.006206562838571,0.4475979345334302,10.5418560372546,3.4760429617091404,14.19331432628134,22.322780693722812
2.86,1.2961537977953173,9.111869094143803,10.05181654187788,0.8494893099905418,10.97932445186997,2.7979759195887057,14.00477284281046,23.148514749041404
2.864,3.048889203945466,10.82852937280495,10.049134170895726,1.4593823950642717,11.330086048787496,2.377205640235145,13.331743182750262,22.433182730164138
2.868,3.983014308655205,11.533914487068397,9.328688432392369,1.6488948231122222,10.667756775826833,1.8517234941717367,11.590420959753182,19.58600607531421
2.872,3.6644508769304904,10.56285348734745,7.851680766839873,1.3343534449440346,8.790290264633498,1.0011688649458224,8.75753457806993,14.930103802269631
2.876,2.4654713670212347,8.313384904925329,6.187194940736612,1.0416955302873148,6.3638395733894875,-0.07403137995745523,5.528145279767292,9.59266730963317
2.88,1.294373928822482,5.955432381845774,5.0854368634807745,1.5369378617143998,4.507336493820317,-0.9896138292225662,3.004856453060784,4.938178072382915
2.884,1.0201805219410403,4.70221941945738,4.9832066661456835,3.287706055798771,4.1292649917071715,-1.2936988441497568,2.130466832723776,1.91283044874107
2.888,1.9445254736704805,5.098350200929486,5.754708913175859,6.087382837199388,5.419620778748133,-0.7362075173787299,3.1905793967992855,0.6725556475824632
2.892,3.6218843267233036,6.734890865786211,6.832963536233799,9.078114874019905,7.787449340942603,0.5543566147220642,5.6571963634567854,0.6767753837537032
2.896,5.1199617071727,8.538881294672501,7.612317732679494,11.167336951820005,10.243321745800445,2.0979360298115792,8.45407953606804,1.1373055258407057
2.9,5.548475627067347,9.436886177077145,7.836727902655546,11.591309728224552,11.961769489257478,3.2671861102479665,10.477448340986097,1.5248032872220891
2.904,4.549199207268091,8.990020750484057,7.734883598796706,10.319609386066604,12.681759681496192,3.579765940237239,11.1046701183072,1.8269554541951405
2.908,2.470991651428098,7.618225718540082,7.811863334765157,8.067379198692349,12.717524015343944,2.9212514396925076,10.41971966081135,2.4200026163870243
2.912,0.13972589319150253,6.296440012401693,8.433561251893298,5.9088988986610245,12.629860513098015,1.5855575163968814,9.054303049962938,3.6767720753731954
2.916,-1.6164943308883708,5.928556282796098,9.49755800138893,4.717244923028163,12.804197351083127,0.1283406864646848,7.779565450141918,5.589898232308965
2.92,-2.406309044548975,6.768340325279736,10.387891165544646,4.726899771468862,13.200816961741685,-0.9104730691091388,7.064958055582448,7.662717059769318
2.924,-2.4290175399180205,8.233860584646884,10.268913411516742,5.452534811291017,13.416705467790116,-1.2541310638618255,6.844665937116536,9.145301321911463
2.928,-2.2748600598023625,9.225388765869631,8.55835407216139,5.994708910600354,12.977952914998518,-0.9931356781018861,6.594880206727194,9.469876253836537
2.932,-2.5264590737156962,8.758062711027073,5.297130770942399,5.554818191328754,11.66415408811958,-0.5028948472814256,5.660311010158265,8.630155559965482
2.936,-3.412167684691326,6.5430416868887855,1.2147848180169305,3.874768141279299,9.656015872823893,-0.22117685893577788,3.653619454057613,7.2613767719850335
2.94,-4.71521828347066,3.1780738574387364,-2.5762989858952885,1.3618981066871059,7.419023454205205,-0.4239197122338947,0.6992559882168621,6.350948281890045
2.944,-5.968818716394422,-0.14940605782557537,-5.083382226243682,-1.1438231708429334,5.4333259018620845,-1.0905308543689383,-2.5872965625492097,6.732413955273504
2.948,-6.784495063771197,-2.2732810218601793,-5.870230230870246,-2.8163455022400488,3.948454754986552,-1.9340976415146471,-5.368320593002068,8.622756691364756
2.952,-7.084189003370168,-2.635016230371223,-5.20978835356774,-3.2467842365360444,2.9169180898057347,-2.5678505280795165,-6.962864039417818,11.463643415715888
2.956,-7.071024808541566,-1.515291738447207,-3.8599395999439916,-2.575196345478848,2.1391813814242093,-2.688210480781202,-7.127647764983683,14.15618603193516
2.96,-6.989492118738967,0.18263000236940474,-2.6324629876555554,-1.3230267011420984,1.4920199041883766,-2.2184003441425233,-6.13885210539559,15.563981155749822
2.964,-6.872069369590397,1.449303691596295,-1.9876271986108223,-0.05532377511489395,1.0764226337826086,-1.333725150431075,-4.639402021617726,15.034482405907054
2.968,-6.461880318871965,1.6859596500434826,-1.8724829580567386,0.9066358980640289,1.1722688799153316,-0.38000422087088737,-3.3376577012457824,12.680703815292024
2.972,-5.392053322086207,0.9366011505760414,-1.8855776368870791,1.5468602631401795,2.027706397826665,0.24991324013801464,-2.721248767060251,9.297768565065292
2.976,-3.5144360318164507,-0.2545842118641737,-1.6257558305315558,1.981907790507983,3.6211545448339715,0.2510486134556711,-2.908898690910741,5.971899935255809
2.98,-1.152676318837786,-1.2432089923740746,-1.0140321118835902,2.1932015150136657,5.551816384543933,-0.5071436711833375,-3.6942813913786647,3.5897854052380462
2.984,0.9402530489262877,-1.6714481329850863,-0.36215293871189014,1.8962856195279851,7.160652793025243,-1.9262266230346263,-4.717740970376606,2.4938015887145957
2.988,1.94449449366364,-1.62594848224648,-0.15352300800836227,0.6573857194850241,7.809231723355291,-3.67474445764375,-5.665852952675178,2.4176706613050447
2.992,1.4507268271151093,-1.5094791529427813,-0.6881402839614079,-1.7949541667135547,7.166875914659459,-5.260795545115071,-6.399763721396075,2.7003017969212975
2.996,-0.23711318956175065,-1.7352837186559602,-1.8117470857694293,-5.259700859487807,5.350422604171767,-6.165164288833861,-6.947964894523474,2.632797244277319
3.0,-2.199675693372742,-2.468345526519077,-2.952610434002689,-9.000006812939857,2.8216529744154455,-6.044717922076606,-7.421820620621842,1.7454075446296202
3.004,-3.3636826326080467,-3.551682937126984,-3.4454003995495626,-11.993976839209632,0.12976892147802133,-4.899752395122375,-7.899469235739803,-0.0635313746468762
3.008,-3.0888608625380027,-4.645824568485738,-2.9649559092617075,-13.409094660815157,-2.3532693929778876,-3.127790167180213,-8.352795297528418,-2.583310242026929
3.012,-1.5388461840908736,-5.468980009860581,-1.8144466277755669,-13.050444675188587,-4.547932419071763,-1.40733480906818,-8.672083437995289,-5.442085767939494
