Timestamp,O1,Oz,O2,PO3,PO4,TP7,TP8,Fz
0.0,2.3163693185779266e-12,-2.9700686354772188e-12,-4.014566457044566e-13,3.510081114654895e-12,-1.6129320101754274e-12,-6.66489086142974e-12,-5.115907697472721e-12,-1.3855583347321954e-12
0.004,-14.299256569987335,-41.11822641946043,-37.409275062787785,-23.55781566593437,-48.31609740757481,5.226324416572822,-0.9245427215178808,7.586331322489443
0.008,-25.86591862853951,-71.43588857162348,-64.75516840423379,-41.9669288950345,-84.18391242636791,8.75141495442314,-1.0600900999874483,12.633691284037816
0.012,-32.99966507258362,-85.0363254294687,-76.58167858981311,-52.30784236705017,-100.82787024398644,9.485499073110532,-0.4920411944644769,13.484536010749856
0.016,-35.61732882742283,-83.26406368880765,-74.28057981129835,-54.99107311224189,-99.88148600071494,7.308569991666317,-0.4731946444790651,9.849577778091799
0.02,-35.120034019199906,-73.40756404820488,-64.84623941003639,-53.18007460448236,-89.81384311188947,3.033092320372276,-2.891989900864175,2.7077990415776156
0.024,-33.625037774950236,-64.53635894928951,-56.92785617677382,-50.907904246524694,-81.06646513965521,-1.9727388716253529,-9.157869235166672,-6.230636783120222
0.028,-32.941636214443854,-62.8193837704478,-56.37200321509806,-50.954330677299225,-80.63718573662563,-6.3077078159289925,-19.11830133318415,-15.179692374010045
0.032,-33.80217501565262,-68.86204246836508,-63.65612846119267,-53.64402009650552,-89.0508405323687,-8.971420028965923,-30.66685130554238,-22.71080992298382
0.036000000000000004,-35.66946975348821,-78.28512720180018,-74.39202724900906,-57.10261676766643,-101.1122867663249,-9.542552036136712,-40.334455462335164,-27.82485780589005
0.04,-37.16529252138367,-84.86595808925361,-82.30243951334643,-58.662365815542906,-109.59433993908459,-8.11025153476912,-44.64604986053685,-29.82098524074334
0.044,-36.887586802382415,-84.27187001989091,-82.83801902314087,-56.5395553580229,-109.53078789856059,-5.093522445651175,-41.641363527508524,-28.24902896561306
0.048,-34.18257747556285,-76.26086146928597,-75.40111516381612,-50.80739616331022,-100.65746779719828,-1.068480826249015,-31.789200897979953,-23.071405207533903
0.052000000000000005,-29.52892312540701,-64.37353795209927,-63.20651183782762,-43.244855121352856,-86.94801132736279,3.3472442303555994,-17.848182024588368,-14.920722152856584
0.056,-24.363607164269965,-53.64271837188136,-51.21674111873499,-36.30827172967055,-73.95275002455585,7.565911515618168,-3.7585281125048624,-5.200892722178523
0.06,-20.44254786605395,-47.81492003595298,-43.497435982814764,-31.8755160531609,-65.70635947308496,11.094249244341455,6.921616138078569,4.163102321635982
0.064,-19.0376087125414,-47.643280899700095,-41.44232366423179,-30.444301289770763,-62.9645391435364,13.608219705549814,12.318130878023183,11.325232335069106
0.068,-20.318413141597503,-50.98327767833605,-43.62064679455932,-31.103520645670407,-63.50474326645276,15.017983357054106,12.70282853299895,15.18883956044742
0.07200000000000001,-23.2390653173248,-54.4047118338091,-47.07809609509655,-32.19668011982281,-64.01622074049493,15.470257045846068,9.976925921026044,15.793365842674504
0.076,-26.0012344915111,-55.23448388068588,-49.16664015704643,-32.24844273150221,-62.27352811819537,15.271160501450595,6.519813112589034,14.196409920142255
0.08,-26.875718820804792,-52.834952117374584,-48.81128222894528,-30.633171984169827,-58.27118581349956,14.754623057480117,4.011556099665256,11.885978302908573
0.084,-25.010645765386826,-48.56869220178384,-46.666065858210615,-27.71915678408253,-53.84484724477701,14.15332969735556,2.7974917148739777,10.036034390282332
0.088,-20.817829954184752,-44.68197498882504,-44.286364872009365,-24.51637196532237,-51.228904318965135,13.552467977837395,2.0581420782018753,9.02358379063562
0.092,-15.773985070670761,-42.95334829739493,-43.01643273369196,-22.12758548968405,-51.62675231295684,12.953496602611082,0.5748343932072686,8.463316778906712
0.096,-11.72881552373569,-43.90858170410447,-43.29922682537301,-21.307804216206762,-54.66736829869092,12.400367631392996,-2.3834791857781923,7.698925365025875
0.1,-10.02831620017676,-46.840101172611355,-44.64477171678041,-22.252510896034693,-58.85449121265292,12.062226579197457,-6.544177340106906,6.401098013232588
0.10400000000000001,-10.888309899618314,-50.408882129405285,-46.10247437774595,-24.60637254386451,-62.551084553133414,12.18024479678597,-10.757498451509406,4.871889438158355
0.108,-13.321383439838016,-53.34132345914532,-46.830415738660584,-27.611904733596425,-64.78923958444037,12.894151418446043,-13.636449487861476,3.8638234220287337
0.112,-15.67797719583379,-54.88895180576318,-46.472206522676004,-30.35823627997062,-65.52887268518174,14.060714507734076,-14.336202096888371,4.062387804398487
0.116,-16.519669526217655,-54.955172232122806,-45.23727978115696,-32.08026375297133,-65.40851940683729,15.210869872789957,-13.034932305146405,5.592472265901073
0.12,-15.342644507773997,-53.926098578438385,-43.694683763240036,-32.405813028328694,-65.2298088178044,15.705028195421676,-10.841451288152065,7.869871948523031
0.124,-12.754981197317253,-52.370819050234225,-42.426667533529724,-31.455753325989683,-65.5103917450078,15.03008619462095,-9.196391296019932,9.88565640046129
0.128,-10.028292110618498,-50.75328851210668,-41.71240381899642,-29.743599165987042,-66.28752614375045,13.081121213735841,-9.102188688339702,10.735147624737511
0.132,-8.329960928067457,-49.28852019829277,-41.422965014918205,-27.935414562637355,-67.22058712356153,10.265434443763326,-10.612789693954085,10.074094451727664
0.136,-8.106728204950226,-47.98473512798779,-41.187901256713246,-26.60026696401745,-67.88737993414092,7.355374131666267,-12.861319820851406,8.2408088860501
0.14,-8.94761374071134,-46.759138831311674,-40.68854625830095,-26.033134736076036,-68.02203684192487,5.145033428526645,-14.5780072822689,5.981736260452617
0.14400000000000002,-9.997646449129498,-45.56507657060576,-39.913879678177494,-26.223908225892984,-67.59544958440428,4.071637286900469,-14.79543770076561,3.9637315456123368
0.148,-10.637989476462089,-44.467928039438064,-39.21394457611453,-26.95861946824496,-66.74816045877249,4.005807033344027,-13.350676414383095,2.387098015178168
0.152,-10.988504436350631,-43.67299992844156,-39.13755525699913,-27.981535724943633,-65.7024144450693,4.338095015898162,-10.936138161413844,0.9370995890772953
0.156,-11.897448281164223,-43.49824531149743,-40.141068641673684,-29.126245077550255,-64.73518535892103,4.320095427463599,-8.70711594290006,-0.913668230166433
0.16,-14.401837606089956,-44.23522383399606,-42.26854791814888,-30.326349004055814,-64.13981171642313,3.463354570103945,-7.681039657973386,-3.4839745945020226
0.164,-18.98073054488772,-45.942600491276636,-44.99821180703764,-31.51710438060114,-64.1333973863544,1.781487734852874,-8.264866294907335,-6.632697400898229
0.168,-25.083785460978962,-48.289874743422416,-47.397676404938935,-32.538769764860135,-64.72656421217083,-0.2556675494783818,-10.144988373440242,-9.835513192479523
0.17200000000000001,-31.25416173624872,-50.61215794571184,-48.582819895754774,-33.1592965407483,-65.67562407706201,-2.0029172682496537,-12.53307159867666,-12.499229835031768
0.176,-35.80169400157436,-52.210754683161326,-48.27682866348336,-33.231305750225545,-66.60850220468294,-2.981686236675557,-14.598661380621198,-14.292227753017492
0.18,-37.61873527380084,-52.69356455033711,-47.0726483217764,-32.83943530715281,-67.20340489933437,-3.0938627906249323,-15.826673256481964,-15.28192917081455
0.184,-36.666384189091424,-52.13043264490009,-46.164007371455966,-32.30014765333,-67.29251281298983,-2.6092478725985373,-16.134027217480863,-15.813324449964894
0.188,-33.850960046796985,-50.90196616541934,-46.61331979584825,-31.967957685866427,-66.81054661480795,-1.9587248975833873,-15.729839244827794,-16.226344426716587
0.192,-30.40852643548889,-49.38143767179535,-48.61257671734912,-31.97824733380495,-65.68500632066834,-1.4637609008223293,-14.871016165059018,-16.59803196404634
0.196,-27.219193547297913,-47.70679745077777,-51.25186514393137,-32.12832083899201,-63.82605196984109,-1.1726006877122188,-13.70778417085383,-16.679694429063318
0.2,-24.461686665695613,-45.757413128175436,-52.94719993065379,-31.97507700648777,-61.208719611355434,-0.9015490193381339,-12.299731093134948,-16.0756043954559
0.20400000000000001,-21.790544039048257,-43.33862200953279,-52.32159603217687,-31.10540724903056,-58.00154405524923,-0.44953246048619633,-10.734002629915718,-14.551832645831325
0.20800000000000002,-18.867622902991755,-40.423103282933624,-49.030920285271065,-29.413477869458777,-54.62183022196607,0.16543092014698146,-9.239485121503428,-12.283222018941482
0.212,-15.876985453106087,-37.306594832571335,-44.07460010749841,-27.2252731641443,-51.69039352799424,0.6204838265022019,-8.191159754721511,-9.857595079002094
0.216,-13.65536738884678,-34.57087618585321,-39.4051581128408,-25.191519413253896,-49.89786908341135,0.42603445121387296,-7.983902254256137,-8.021854852971636
0.22,-13.30173932302235,-32.80962516850433,-36.98998952258337,-23.973594059521137,-49.769891643057356,-0.7820890864515846,-8.863987347522205,-7.32796313445289
0.224,-15.523105629228777,-32.28896916113871,-37.829656215095426,-23.91306224722231,-51.43523489152713,-2.9825112765027413,-10.824455603115222,-7.891705800462081
0.228,-20.112883954906035,-32.768812558039485,-41.489328489308576,-24.88367556004368,-54.534044418816855,-5.705530050632241,-13.62039041406841,-9.390627185391923
0.232,-25.910824610934924,-33.64032049503589,-46.405506539710785,-26.418018830827982,-58.348011390161645,-8.209813330501206,-16.86822997829823,-11.268744813045942
0.23600000000000002,-31.29463989075221,-34.289560744904776,-50.74449406700975,-28.00658721225627,-62.06577497025388,-9.823177737671656,-20.16220209138831,-13.024490664561343
0.24,-34.92995443003644,-34.45204703814677,-53.28971424656282,-29.36332590427081,-65.04091237493174,-10.263898012595774,-23.133073973486407,-14.411293034725468
0.244,-36.346783402385036,-34.357937086392965,-53.89625359472497,-30.50160929779016,-66.97697792890355,-9.747858800155846,-25.443551455113287,-15.43835354693649
0.248,-36.03299009498661,-34.52928947238273,-53.264584063584984,-31.5710780934522,-67.92507181641228,-8.840040194338709,-26.773855926727,-16.21919082709238
0.252,-35.03550605847553,-35.33686803294697,-52.236188028265914,-32.57727459111246,-68.11461463275745,-8.148779017193888,-26.87095407289934,-16.806362544793522
0.256,-34.33425397550495,-36.63689992865318,-51.13615295263283,-33.213383396141765,-67.77313081869659,-8.031839573010839,-25.669808854759808,-17.124583933614446
0.26,-34.3652531386097,-37.76178141476089,-49.60713322685144,-32.96049397089563,-67.06161398653443,-8.464753701162337,-23.411693880324414,-17.034277117999316
0.264,-34.95527076981987,-37.92801563203797,-47.03607268508297,-31.433002104731003,-66.15521466516537,-9.120742079295436,-20.671084651673155,-16.468657190381677
0.268,-35.63396230984622,-36.78050991358822,-43.21479708159356,-28.732626194178064,-65.31130076998639,-9.610051353475257,-18.209137988992186,-15.552687905127634
0.272,-36.03721856997617,-34.67673303861706,-38.71504693551906,-25.540679769540425,-64.78607662346073,-9.72231624865572,-16.674176409171036,-14.61227390007201
0.276,-36.12872161460436,-32.53173601337846,-34.715832799335274,-22.863684432232073,-64.65403714687977,-9.526911567572693,-16.305606563716267,-14.045492840658255
0.28,-36.11004724873466,-31.293950427437416,-32.38055735501851,-21.552716922985013,-64.6647040391789,-9.27476222793527,-16.798583457915747,-14.109920744115586
0.28400000000000003,-36.12221566616866,-31.36977188723028,-32.19242381388017,-21.871599676789476,-64.28942334048523,-9.176681477970849,-17.423302754415275,-14.739282485050627
0.28800000000000003,-35.969695416522,-32.29144221678746,-33.61859283188588,-23.33052047363653,-62.91568482266029,-9.21063992481874,-17.344635592658918,-15.516953191221479
0.292,-35.106174844008706,-32.84258780168172,-35.30654978081891,-24.880464739105825,-60.085977878142856,-9.097604464898403,-16.00035566096453,-15.85058410312497
0.296,-32.93216035852048,-31.642954600432223,-35.74968888691963,-25.391707189656067,-55.713303145173384,-8.456489500099035,-13.361792810904694,-15.264618822042593
0.3,-29.252047355250546,-27.93337989991162,-34.07849617596454,-24.194745504862382,-50.193201359812335,-7.037271117437594,-9.960987455677618,-13.65649890189777
0.304,-24.61357871846323,-22.16680722546451,-30.558577595581454,-21.429663163104532,-44.37880428758143,-4.899163034736173,-6.6961542335309705,-11.38176240342897
0.308,-20.25483742614593,-15.990804633003485,-26.471436781051473,-17.992474113526335,-39.34387106228883,-2.4280558130233416,-4.499934717730039,-9.129984041227203
0.312,-17.61012137239084,-11.546698960468621,-23.432762354297488,-15.09020389574744,-35.992363191430755,-0.19209644827030203,-3.9991649383489154,-7.65912980230215
0.316,-17.614922365835902,-10.429501934292507,-22.546881553268612,-13.658600706135555,-34.70214430230243,1.2855153486846227,-5.289700397954882,-7.487957553511592
0.32,-20.16644298656491,-12.843242933189963,-23.85943587772712,-13.927989259711122,-35.16460273794991,1.7442917243888925,-7.877493113790096,-8.65833791950405
0.324,-24.065314631692573,-17.43913269939654,-26.41761505832577,-15.367300192828523,-36.541829354646225,1.286401436921997,-10.803995999781462,-10.68229524439161
0.328,-27.51883438461093,-21.910840541940935,-28.82391428847798,-17.001237081620502,-37.823118233627454,0.2985826253248707,-12.918598140186607,-12.723731424150484
0.332,-28.942831762328044,-24.02587820528886,-29.916008801079585,-17.888038445931365,-38.18500614344372,-0.748736492353272,-13.227580957515261,-13.94236503103653
0.336,-27.68240895251185,-22.63782689811672,-29.258239378863152,-17.550552785405877,-37.26127534257496,-1.5192509295509762,-11.256282430525392,-13.869046456913026
0.34,-24.29653457903352,-18.201121084398725,-27.240221288913972,-16.159839049110293,-35.24140416467262,-1.933827001055187,-7.288481140315802,-12.617143390118173
0.34400000000000003,-20.27718577022336,-12.567763638078585,-24.81308124421769,-14.41750750099134,-32.793745824048486,-2.142578599840288,-2.377099345770808,-10.814237275402899
0.34800000000000003,-17.311322053367906,-8.11120015793252,-23.002964540716892,-13.174291731712957,-30.78297764334551,-2.3773327740164776,1.9450736766157064,-9.29144890447402
0.352,-16.461252910482024,-6.5854055435013255,-22.439176224336162,-12.966007495460751,-29.859480142189405,-2.7761084346942217,4.213838055845155,-8.683763096165723
0.356,-17.69537364773354,-8.306542772699128,-23.1308978732741,-13.719644030200024,-30.13515358655676,-3.2762924033603023,3.6237092349998066,-9.130302046662889
0.36,-19.993231122233812,-12.064514717488894,-24.56880249533265,-14.787064360355338,-31.12134357754052,-3.633578853568176,0.39547549178671915,-10.220678958246317
0.364,-21.949408306490795,-15.811174858907254,-26.071965306051144,-15.309005580602182,-31.989473495313916,-3.5516433732030954,-4.2748215064028185,-11.218174394929207
0.368,-22.521862336944196,-17.717096529985213,-27.132528332903185,-14.698729051340255,-31.993167257575827,-2.867303617055331,-8.707261248040435,-11.46525565195441
0.372,-21.507666130008676,-17.024579542994886,-27.564075204987688,-12.974495528154453,-30.817579987001032,-1.6998700991168825,-11.463946398747163,-10.760787744281927
0.376,-19.49886832543801,-14.30252278467504,-27.439443930703504,-10.77156767127519,-28.71153231326105,-0.46726059254538743,-11.961226370695304,-9.493115272715215
0.38,-17.385872026777765,-11.037958649915819,-26.932597033966417,-9.028869378862831,-26.371534681065217,0.2703784866906762,-10.669173021338707,-8.442092585627323
0.384,-15.75199277712748,-8.85756740861696,-26.216832382767528,-8.528610586719294,-24.676281086228954,0.07749098518124309,-8.807213126308035,-8.345516670164841
0.388,-14.50858205768373,-8.758068506986387,-25.433857511887997,-9.496798257505414,-24.33922728373154,-1.1063731671555765,-7.681586626007354,-9.473791720281273
0.392,-13.00229986927899,-10.697759455030086,-24.695977955125798,-11.459994453974701,-25.59142240111764,-2.8813669924454404,-8.008465821196737,-11.461257624237462
0.396,-10.518162800546161,-13.72902802921985,-24.093673915806953,-13.447269554312083,-28.047165624964716,-4.530088491323854,-9.57817429416343,-13.487468052760708
0.4,-6.863610266380885,-16.550470131066742,-23.67425715682714,-14.441264042134357,-30.811005241860734,-5.32201565925641,-11.40816775777654,-14.692295616049725
0.404,-2.6573187551225463,-18.169498385783317,-23.416348539477255,-13.850529151572212,-32.80340585011821,-4.831478192378136,-12.291314288245292,-14.58722196555243
0.40800000000000003,0.9168987065777783,-18.285391874993422,-23.18605790642809,-11.735962138551747,-33.13155462845569,-3.1174464402045117,-11.434108781144865,-13.250938570764216
0.41200000000000003,2.7290803701411432,-17.246563655272276,-22.727013596030616,-8.704087559210222,-31.36801994032974,-0.6895876498219051,-8.84373449806991,-11.237857574086291
0.41600000000000004,2.3355774413440797,-15.70678218809974,-21.758930354470444,-5.565445049653189,-27.681850718447045,1.7269609107977093,-5.293844512647169,-9.268871801065854
0.42,0.2476230580182639,-14.237846775362218,-20.175057055160323,-2.9780468903645625,-22.806641798123884,3.5071997338805208,-1.9183624070363567,-7.889481885536281
0.424,-2.3550914778595278,-13.154107325153731,-18.24061043673723,-1.280377182640163,-17.879099602691767,4.368139910941448,0.3282273726362934,-7.264273527673408
0.428,-4.280128709009716,-12.557970031113445,-16.608555507230804,-0.5383444157027035,-14.117681110639271,4.416346260863602,1.067883697292264,-7.202312737951424
0.432,-4.938569781386274,-12.461152224673405,-16.058876121944444,-0.7040515051479539,-12.386748477116338,3.9952466932293196,0.5868856963383213,-7.366423298308666
0.436,-4.527927987255388,-12.827595489344212,-17.046331867513757,-1.711772269675702,-12.81408070972575,3.454564786283987,-0.3866850783438349,-7.490423446954034
0.44,-3.6978772301527587,-13.499558435517002,-19.320621034276527,-3.4309642976755415,-14.667326208376462,2.9875769930322704,-1.0811473343893478,-7.470815410795895
0.444,-2.977106999270935,-14.127101294446238,-21.908943513218944,-5.560172758089706,-16.63920443749708,2.6163475270876924,-1.0549112021994969,-7.316701314842943
0.448,-2.3626532471138724,-14.19462068103913,-23.499172334058965,-7.566868281468935,-17.425497996347325,2.2908812958124565,-0.38383641302097793,-7.058490769537281
0.452,-1.3597523071415276,-13.198348123405708,-23.061707023627918,-8.787931576623437,-16.321101337052557,1.995352562544116,0.38789077891851953,-6.726502506993334
0.456,0.5320820158646655,-10.950692819347493,-20.416798573059552,-8.707311389468723,-13.564544362482014,1.7783746397934397,0.48837355185273523,-6.417583439376697
0.46,3.2221024973099697,-7.838955777353001,-16.416864149144516,-7.274484403301198,-10.236262829344016,1.6903948378471139,-0.7451365095080718,-6.366856564514073
0.464,5.7704221840044205,-4.858328849229733,-12.632513270186255,-5.065814552367721,-7.762726505777888,1.693046188685213,-3.5682213916883274,-6.917790142508845
0.468,6.773837494798837,-3.2530140724220193,-10.607268986359774,-3.083516483032237,-7.2042671176551405,1.635669611923312,-7.657675286364059,-8.337566037637107
0.47200000000000003,5.237791764437365,-3.86702215097739,-11.023201394550673,-2.2369303741942836,-8.651369364584028,1.3462675699673001,-12.128020693096794,-10.5604806742973
0.47600000000000003,1.4030818528710494,-6.577881535350645,-13.257868846255251,-2.797900825502815,-11.091055129860024,0.7918881106637752,-15.7579029586669,-13.0293558145136
0.48,-3.0407875780105718,-10.175502080180033,-15.612305617371515,-4.171521282126159,-12.856630377804843,0.19539428644293544,-17.37708161194144,-14.789154843824827
0.484,-5.607314025705343,-12.848546009717008,-16.154985955145747,-5.179639101572381,-12.482034978206109,-0.0015010418260690273,-16.30464579665271,-14.854386070317235
0.488,-4.2643054093239,-13.05727060454579,-13.721741473011512,-4.732450180227319,-9.49008773277548,0.642053387607735,-12.67444642383965,-12.712558208091323
0.492,1.3871553260573237,-10.331724006701032,-8.51610366868141,-2.5085602540606873,-4.67354308279557,2.2639081340959297,-7.482069668830222,-8.707744587357565
0.496,9.689345265172332,-5.574177040279284,-2.0128023268602924,0.750815220653255,0.2625201208332575,4.502078923832544,-2.308802716646004,-4.064125148728355
0.5,17.572494019073265,-0.685523957276585,3.7585938030456463,3.5350354876302474,3.4957099996943253,6.565046373645681,1.1842312472112617,-0.4674481006816382
0.504,21.993323900880767,2.288816418840776,7.126496007031854,4.308980526512433,3.8813979325685217,7.583989611008051,1.8180884489187328,0.6344362347885557
0.508,21.4207723077202,2.096024936605417,7.437719702707447,2.3226915778790653,1.3879926467047614,7.0715436601935995,-0.7052108179133434,-1.3292452820420664
0.512,16.574685437419625,-1.1624349922053803,5.181835417159555,-1.962118817475993,-2.989214966793191,5.218433988508778,-5.73014691111133,-5.796739560746444
0.516,10.013631149407274,-6.1444991254364485,1.556667196536506,-7.087123025074151,-7.765608951995131,2.8446190169400456,-11.922989830280718,-11.334192121463545
0.52,4.799195995894868,-10.966806972092694,-2.202017991005701,-11.336287938237117,-11.641632655393442,1.0085968665612253,-17.7478744998317,-16.25562439750594
0.524,2.955875999392447,-14.131657651177285,-5.345576298410528,-13.603721951244275,-14.003576574309243,0.47604675293775844,-21.944360206965122,-19.283396500711742
0.528,4.566592569455345,-15.161968393223535,-7.706736087287226,-13.8855988873996,-15.007157340729638,1.335513190944839,-23.822892030207534,-19.947919450741097
0.532,7.9561423223711625,-14.617598737040177,-9.367646519132345,-13.124452666442888,-15.241930903625164,2.970760437909244,-23.30544326808203,-18.586021637899726
0.536,10.808073341680323,-13.56151763286757,-10.226888233444768,-12.532931952860338,-15.245776828147207,4.407303022633745,-20.774538799610003,-16.00389174287007
0.54,11.542674313008,-12.841852821706631,-9.836617550261613,-12.82406247570077,-15.181946991203057,4.844522078600303,-16.853073041223823,-13.042513035708271
0.544,10.1387429229349,-12.65627435727765,-7.676712954448105,-13.837762285534545,-14.871681323808751,4.07209195262524,-12.236410681095123,-10.279032713116905
0.548,7.995396902050207,-12.599069539247067,-3.6761220965514347,-14.74144282977689,-14.083520958550459,2.5316992107008645,-7.611618677261102,-7.983607106480054
0.552,6.978316826594401,-12.09064439236933,1.4141821075308378,-14.637871459008403,-12.828449490633133,1.008813844166876,-3.611872625827676,-6.288591546169787
0.556,8.240592087676852,-10.89444670228193,6.104507348088614,-13.192115790950794,-11.467613663994051,0.1521564100891446,-0.7497699336622823,-5.382277718024685
0.56,11.52977644681438,-9.369833345768622,8.742643310844826,-10.87295420787306,-10.560616995608125,0.10934989502564552,0.6969711534105354,-5.544083900295039
0.5640000000000001,15.355686423457819,-8.317465551690873,8.29011655328959,-8.68385206000409,-10.577158672112557,0.4891730279891755,0.7966494335632817,-6.978407179078374
0.5680000000000001,17.8990787816781,-8.484137798668861,4.899086157297761,-7.54610642669488,-11.62824772791464,0.6550657426262054,-0.00579239379057217,-9.572111619514406
0.5720000000000001,18.085748567853962,-10.023161150944855,-0.04095428711695348,-7.726309487866413,-13.369286621958983,0.14630447201249064,-1.0065911048866418,-12.775197850078127
0.5760000000000001,16.184410051138553,-12.276872629572221,-4.474967243671804,-8.676789866381025,-15.152149234252407,-1.0329261705446382,-1.5073422553187372,-15.722091115269244
0.58,13.569930708677864,-14.050148533201037,-6.601384683149973,-9.400446851960565,-16.343272744762125,-2.4229378003229822,-1.0948440658994594,-17.552498595820786
0.584,11.818347539041252,-14.260659683424773,-5.699061086194352,-9.125331124944147,-16.65338819188071,-3.4026070458000413,0.184738066511273,-17.77013039113058
0.588,11.715746534588396,-12.5684903808935,-2.417962421632021,-7.847233156097438,-16.26587959658892,-3.5780821284460425,1.867393436733318,-16.44612258554813
0.592,12.7906216482863,-9.59333688123979,1.6187402190597182,-6.378306265863682,-15.670794316046353,-3.0206423988251636,3.3420623680834196,-14.143914335170503
0.596,13.64367476917541,-6.590736285708754,4.65579916449446,-5.863550814133321,-15.328921601562962,-2.21222400974848,4.183999987510621,-11.6052307195727
0.6,12.862436588394768,-4.761982089560744,5.634266144971751,-7.053328115537499,-15.377885267238515,-1.7373057260151175,4.366808906064213,-9.382460522346307
0.604,9.951680168647519,-4.6171587052374665,4.579063780277171,-9.782645988727396,-15.581556982425141,-1.9077304968799913,4.24661756312571,-7.609803598423294
0.608,5.712297867892113,-5.740092648865293,2.4119393044098767,-12.96937180348332,-15.52255219774566,-2.558538214891323,4.3177170806043845,-6.046746494777497
0.612,1.8380733713384094,-7.061948956563089,0.36355366083208507,-15.133814429504014,-14.885387668589464,-3.147598960926061,4.88426874101111,-4.353147639326796
0.616,-0.04323490942207542,-7.493969561481702,-0.6682239016392244,-15.163639629101514,-13.656415132982712,-3.0943743949034923,5.859443508162292,-2.400480444669509
0.62,0.7048104800053956,-6.546159454329823,-0.4686827706868577,-12.887385765039632,-12.110536767356693,-2.146803196058853,6.820816355165743,-0.41309850670224835
0.624,3.393148261754095,-4.588957657278632,0.5380271175664038,-9.15004471261527,-10.62078733065636,-0.5527327449535031,7.283553049782574,1.157836558609985
0.628,6.4413428742089245,-2.6077837340259373,1.6457537892155059,-5.362346557536261,-9.405429232315164,1.0697139884550202,7.027491083528712,1.9407455399467888
0.632,8.303594310493144,-1.5961283403106594,2.3086089154929423,-2.787991485976665,-8.36442538660915,2.0823296953089163,6.268909378426686,1.924490540460277
0.636,8.336057638374106,-1.9656408685821352,2.4089998295898556,-1.9693857080718864,-7.137231115764237,2.1915829744217383,5.5632829376320725,1.5291912303788537
0.64,7.085173991957305,-3.324540528989026,2.231740811378188,-2.5830593553962498,-5.35936847520757,1.6196233841858465,5.468709884769973,1.4023522917815328
0.644,5.861445449359977,-4.758326019065024,2.193319532476162,-3.7600445053067935,-2.9831539856659495,0.989023254646884,6.174171408751176,2.0659755490113207
0.648,5.912678174097405,-5.392037081341824,2.5578668796969635,-4.6198507983491,-0.4238580374143144,0.9858974035895987,7.3442226135348125,3.62409784474018
0.652,7.7220244419643524,-4.857125945321242,3.3431815002336034,-4.684821244326771,1.6099583218038713,1.9854770529490327,8.291878411898526,5.701091054797016
0.656,10.829057273783878,-3.407915955484573,4.415911398945269,-3.988657166354301,2.4995305153333547,3.844214119020305,8.386847893443917,7.649512601384664
0.66,14.23033543927665,-1.6481935460077173,5.665798225938646,-2.8821953980886548,2.0846119581402727,5.9640761154573845,7.451508243143583,8.8963381346079
0.664,17.002234971159297,-0.12892381381485185,7.056845602663215,-1.7687664683622937,0.729979057383912,7.569096764326199,5.853611853868448,9.194990475520889
0.668,18.691656661350827,0.8969810153829565,8.495900550779485,-0.9732977703807806,-0.9616972119776577,8.027776631609942,4.201418976431886,8.61999244294071
0.672,19.252580032203994,1.4257993139282625,9.625158348638369,-0.7921184598510624,-2.6019372855231078,7.048331037995442,2.811281497466927,7.317699920271435
0.676,18.625353521130318,1.4053075617677244,9.699495664538224,-1.6287025840645395,-4.367764480735262,4.672756125363506,1.2799362306584503,5.20463572100066
0.68,16.361078232489284,0.47062987246192134,7.7358032281641265,-4.013311467787882,-6.982404238874809,1.1302347243894224,-1.4947945359500876,1.8688372176351509
0.684,11.674509125400098,-2.037982072865702,2.919912923975148,-8.39806791405834,-11.307492802698036,-3.3100656153120727,-6.764824283020424,-3.190362303882477
0.6880000000000001,4.024183133194868,-6.660753940259566,-4.853496905006319,-14.76445900554168,-17.71638739339957,-8.363535817305253,-15.075610258793672,-10.07778754120229
0.6920000000000001,-6.105722104378968,-13.20206250879276,-14.57214404714129,-22.26766522753757,-25.574090652477548,-13.619054276930921,-25.562767438122428,-18.061606159758636
0.6960000000000001,-16.820098425395628,-20.356747821510893,-24.133822038937954,-29.232936272659085,-33.18940013924998,-18.408805335458034,-35.86489718739354,-25.501829831902196
0.7000000000000001,-25.226443542373904,-25.91724059261306,-30.908430076742892,-33.623375545361995,-38.33501229756967,-21.80483536427998,-42.82392918693692,-30.27938823205015
0.704,-28.578729659415178,-27.60470589431729,-32.68466101678239,-33.83831078451176,-39.15336650858288,-22.834752866869145,-43.73589049093354,-30.586342362575653
0.708,-25.59118150540037,-24.133281357503556,-28.57473796828969,-29.439693120723806,-34.97873586830122,-20.86343716759989,-37.56325328765414,-25.712453946996497
0.712,-17.177587168881622,-15.930001102826099,-19.442035898589832,-21.4052363274158,-26.641017922972956,-15.956555119351544,-25.49445122108721,-16.425942672672356
0.716,-6.140429708387889,-5.094542186765529,-7.654253593560902,-11.762531719908282,-16.125744874504647,-9.01806991441783,-10.549895239314962,-4.736692325317636
0.72,4.103925858550422,5.454356817505957,3.773049908211201,-2.7612972705949783,-5.760218341067211,-1.570860412945407,3.602555094110423,6.8607551728003635
0.724,11.066974508137635,13.194772777726019,12.23556322166042,3.973348617654265,2.610966271749362,4.761031868240303,14.061852015142165,16.306595711483673
0.728,14.186632305273655,16.994945383631283,16.377675852483936,7.906129284780011,8.09873485103866,8.842291851748017,19.666760251066545,22.624344541087368
0.732,14.762919951146905,17.40828728408259,16.38826834235912,9.4917027315959,10.753533148177034,10.407519871199153,21.102033902154893,26.01531647721747
0.736,14.89477454294657,16.13838028370609,13.670962734824613,9.634765016082703,11.166461325034044,10.049214771838994,20.17025077390991,27.43558364062745
0.74,16.089525142287656,15.023775871437094,10.111789174885228,9.078039315280613,10.003949127666445,8.82493222807095,18.684336530742428,27.94231896738489
0.744,18.378648910367833,15.093922793345437,7.2812738863892985,8.063829200209591,7.738672438229556,7.705797155933285,17.59273219074453,28.188826852351617
0.748,20.434341030282468,16.192721315644206,5.934129466630832,6.43350163467885,4.698317173468507,7.15749614559209,16.76055978903731,28.301940174350214
0.752,20.570760826698823,17.32773669509138,5.980216481270398,4.035373403967166,1.319851804570273,7.044396269494817,15.43566892048182,28.1041733025906
0.756,17.977027684663312,17.435163758339968,6.81285213927676,1.1029863489515588,-1.6834143689776804,6.87426382600961,13.028099109180536,27.46088496915661
0.76,13.389499382771717,16.072726918748927,7.751243274215577,-1.6876927379464757,-3.4383472232257164,6.204760714469231,9.691661584327075,26.49269188436775
0.764,8.78083785316019,13.616401597245263,8.329472672844135,-3.545409415804727,-3.3182677507876854,4.966457876685938,6.361411764041573,25.526600725730994
0.768,6.249423194520205,10.904814884193797,8.344447877226875,-4.053918581419007,-1.3850697263482585,3.514043021575354,4.24823698078996,24.857868482470924
0.772,6.7802601952806345,8.626612449481762,7.7408575348920685,-3.4880379735362057,1.455693703917321,2.392463741815405,4.121309204208956,24.521651043233522
0.776,9.660024788148355,6.883866455233383,6.482287606118266,-2.711055849660529,3.752861145305454,1.9898664409640858,5.833189488990161,24.269783477801106
0.78,12.918128973902672,5.228994352332402,4.557614211366071,-2.670380067071915,4.1794328336218145,2.3063730534195983,8.37376976664634,23.789358001835247
0.784,14.498289986472303,3.090866369146334,2.0919090555338715,-3.8204732722403043,2.1993980567011575,2.973965981530868,10.408747448348915,23.009942340696597
0.788,13.484711353882469,0.3032363882183098,-0.5384503039868469,-5.815755966435445,-1.6097926742143454,3.5108697629671095,10.981727091991175,22.27214395669409
0.792,10.658476279691827,-2.6199371371372173,-2.7036641310499845,-7.663503167459776,-5.7505278472038865,3.639860471909283,9.972585151784841,22.202403390666433
0.796,8.046499498956369,-4.680260843798759,-3.714731533758149,-8.268538949799423,-8.455593551524737,3.460391023821667,8.076473749688018,23.34445044869414
0.8,7.724682826500487,-4.956132280196048,-3.1431999143388856,-7.057062360969601,-8.465474582295686,3.3641711119401663,6.347121193851006,25.76382758122304
0.804,10.585080389503158,-3.1913270812389953,-1.0967625407490345,-4.311462374231338,-5.568069674708717,3.753636307279341,5.5953156783778,28.90257733574735
0.808,15.77578403192567,-0.033727192856330745,1.7381556290028817,-1.0209478827518712,-0.645708236440417,4.746312291075357,6.003236064918495,31.801290440722152
0.812,21.135896677310928,3.2574356315608926,4.37595937427037,1.6621011996945825,4.786708178394493,6.053913500053894,7.149206817329213,33.57437494127089
0.8160000000000001,24.349966049893418,5.446762360778196,5.990366572479076,3.024714252201102,9.263574323473307,7.110917386731943,8.358417600488773,33.8614642974651
0.8200000000000001,24.13878224335189,5.9222414063243125,6.308449079116757,3.09822412128545,11.926832051853145,7.367983877279425,9.133406775049558,32.97565127693712
0.8240000000000001,20.83054151017558,4.9014663626121635,5.691733082360176,2.4964384607369086,12.70164766408512,6.582907947407641,9.391285360624751,31.66573883940343
0.8280000000000001,16.02280796620016,3.1395440897859674,4.84256512229032,1.9173677673414213,12.072580754303967,4.9394999859348205,9.376948457268199,30.632603144766776
0.8320000000000001,11.593475438005207,1.3685129520034693,4.316185019074898,1.6528458414925495,10.675420344388549,2.936474678108085,9.355441632534406,30.09115964708532
0.836,8.673439268553457,-0.16362821424793594,4.121637750815285,1.414384699893454,8.963501572334788,1.1328477724070223,9.331453638167616,29.67413842844868
0.84,7.176200194738355,-1.7497070966064214,3.67418145231432,0.5813213983623093,7.124224132709081,-0.09980045798570147,9.00032174584035,28.72674677568174
0.844,6.115673690749492,-3.870919800066678,2.1385764903504034,-1.3017620252518007,5.210669410863476,-0.6662809169052313,7.971843680664704,26.81666250197289
0.848,4.451091749936689,-6.684058943773751,-1.0144037404187483,-4.108083865780185,3.3434276432085976,-0.6634127184273364,6.110772630324171,24.12392877169634
0.852,1.8896270586734385,-9.70428618174575,-5.543239139439181,-7.076013945081283,1.8284676291695297,-0.2231611376075242,3.7585476362550563,21.43189939234616
0.856,-0.8671997855882019,-11.945066258987868,-10.366160676701679,-9.179249446261977,1.0778403321901822,0.5914720859926992,1.6766114374290244,19.70629993957686
0.86,-2.578944173961876,-12.447694035369485,-13.949585468972714,-9.696610495252441,1.3958201946258164,1.7620085248277313,0.7117943065463317,19.514933778248057
0.864,-2.317481502141254,-10.899519795221092,-14.995160149916472,-8.649179563986225,2.76018191536492,3.1987502810772073,1.3630419911168445,20.649532248698883
0.868,-0.1629427216531245,-7.937183877790841,-13.06589613723741,-6.826965109734756,4.76492474463955,4.646033801840913,3.50121188559468,22.203672839894796
0.872,2.7151510105596675,-4.894113247151772,-8.805776226555498,-5.355561056330075,6.800770862973373,5.713726585609921,6.399846494783951,23.080307897759823
0.876,4.652885165047666,-3.1216087022629413,-3.660264962034238,-5.064622963368404,8.35699040086184,6.04352483296028,9.061119410184908,22.618437590674205
0.88,4.425965421729264,-3.250927962209425,0.7633503797200558,-6.017933396102079,9.273687971503513,5.5194044483821205,10.64105936026375,20.96036069787392
0.884,1.9454870475883552,-4.853208673820454,3.3430618242819303,-7.486418646837087,9.765816724936194,4.391275683691063,10.74911858886819,18.938509019712384
0.888,-1.703775021683324,-6.697616565093897,3.785399121659729,-8.381520328132346,10.202567410213877,3.214894430919932,9.501758227178273,17.556133777979333
0.892,-4.892394911812794,-7.443558400643232,2.5644959949026727,-7.8852387558572685,10.793527845301893,2.607457440903354,7.343562628956564,17.36803746660132
0.896,-6.374834607798295,-6.389335124038004,0.5316893000698615,-5.935102308888927,11.35989293355077,2.938446522370854,4.769363951860923,18.13580172021475
0.9,-5.947437836669289,-3.828788924957535,-1.5318169269424162,-3.270204412800223,11.372434559348594,4.134113197571473,2.1298443177211657,18.978358814071438
0.904,-4.486261562295493,-0.8521965951509682,-3.1970231835146787,-1.042615177415645,10.23616359111479,5.7039641783236625,-0.3936158411478381,18.92429550472493
0.908,-3.3603892242751057,1.268933952448649,-4.418743477252692,-0.2263384046297463,7.665955249816994,6.975011235088488,-2.6860595066711976,17.516510532294436
0.912,-3.582958093224665,1.7604102445585252,-5.366094859892668,-1.1384206968202601,3.9431118742199978,7.398871210375614,-4.587958674285245,15.096439209901373
0.916,-5.240927731183704,0.686515990807506,-6.212567863036722,-3.3370202094905705,-0.12213660265853932,6.775941640175951,-5.875577246438281,12.601871428951597
0.92,-7.52537885660676,-1.1960522536140041,-7.019627751603549,-5.91779670996516,-3.514531330648568,5.292646283658793,-6.351118067693258,11.006681675446012
0.924,-9.318445450971312,-2.9637875447709727,-7.780810688755391,-8.033596159611712,-5.486798983701128,3.381999020584338,-5.980508109811726,10.750088041877092
0.928,-9.925721235573757,-4.073287259123409,-8.52981528775583,-9.318999423130688,-5.90775616450162,1.517996929926971,-4.965444839957397,11.51041811455674
0.932,-9.47181998817285,-4.57530880326075,-9.369996996328837,-9.982403897607991,-5.2640479530070685,0.058247220237405806,-3.677840872350691,12.447201209376558
0.936,-8.736683772161161,-4.916311831661425,-10.383635697502795,-10.560712696500286,-4.330418291738985,-0.8090278720489481,-2.485457286067,12.750479241196043
0.9400000000000001,-8.560186051572952,-5.484807232657514,-11.472495596343547,-11.503140292327842,-3.6863947120262246,-1.0343295381114874,-1.574545329851289,12.140338631617052
0.9440000000000001,-9.2247188648372,-6.240027913465336,-12.276473190183184,-12.851285558230808,-3.3778400869511014,-0.6508155389210715,-0.8808975602414288,11.028833639475973
0.9480000000000001,-10.226441011505628,-6.672855345039517,-12.263820444056275,-14.189986989698713,-2.922268223114804,0.2531647592797328,-0.16792634980026389,10.268249736729935
0.9520000000000001,-10.593387586139078,-6.108301878922912,-10.963181392878248,-14.869492983637215,-1.6367236021395373,1.5244675158289653,0.8053079558062479,10.645953282460056
0.9560000000000001,-9.558550810127535,-4.177007692381878,-8.247885179539331,-14.36946885653392,0.8785288882626605,2.936857375122595,2.1199676273156496,12.446767220585478
0.96,-7.150647092581339,-1.1314360051749706,-4.491427700073411,-12.580490818573129,4.418892936249784,4.226330422968658,3.631771954832858,15.323608739067978
0.964,-4.310768120638556,2.1863097057456304,-0.5071781313992221,-9.86486668645746,8.193538052743472,5.182210869796171,5.037852063348547,18.52038391812019
0.968,-2.428837853771396,4.718230481644456,2.7277791634021225,-6.883492187064299,11.177090776267093,5.744801214682097,6.022789266139113,21.280104444599523
0.972,-2.5763819823165006,5.691990067728092,4.4357711054372935,-4.306079574485244,12.605492549203957,6.026769408738035,6.396173647795759,23.169008982469975
0.976,-4.897629649850243,4.970571129030104,4.321090080680342,-2.5612362998295914,12.330340464988582,6.232334417282704,6.162860882035757,24.159864252005832
0.98,-8.488418875681166,3.0973940226111765,2.672820771671391,-1.7094915850949794,10.854585404930452,6.510996476247064,5.515903416710891,24.493392441632366
0.984,-11.856055974022976,1.0021735465339812,0.2223831823884952,-1.4919621497731725,9.00671706522036,6.846828502812576,4.763518470884239,24.466045214409824
0.988,-13.705900990414202,-0.45212747559385413,-2.1573019002574996,-1.506053263794185,7.459719220504743,7.060361245738849,4.230879024849349,24.30486483716845
0.992,-13.576391628237737,-0.8102913842316823,-3.7572802406297394,-1.3839840864092006,6.40385586160834,6.934735969809153,4.175895690360754,24.19086160553019
0.996,-11.990818286470127,-0.11759301399237909,-4.252699861881362,-0.9137785030733296,5.535157807553263,6.395717323052191,4.718228248048443,24.342328765590516
1.0,-10.070978978870787,1.2473488760435796,-3.7507488619341576,-0.07058714364434193,4.362203528799302,5.613522687192297,5.780613045003864,25.00515795415743
1.004,-8.88569550207023,2.8350871038208285,-2.6915772585361366,1.006691753548083,2.614638486516975,4.945088322262915,7.0701688181797815,26.30688310413218
1.008,-8.931878029624752,4.313894741116839,-1.6698228707525322,2.059331726707139,0.48404789349256205,4.725514630897753,8.129000959983202,28.046582070880135
1.012,-9.988659373017393,5.54203538870777,-1.1906017398115472,2.7954144720147838,-1.4232322838696243,5.040848494300364,8.4868188442473,29.599825154260017
1.016,-11.386286748612347,6.523703150865305,-1.4451986876320406,2.9823900447831146,-2.4089876900083675,5.6309726413770385,7.881783825845654,30.084416241183206
1.02,-12.456355600114577,7.3489187022542355,-2.1727670151105674,2.5514526073991135,-2.064729618488766,6.00284676531777,6.444354545990855,28.770441124269766
1.024,-12.871971861920487,8.149114235330181,-2.699895052305394,1.657269067562936,-0.513402664301196,5.710496265086679,4.731575414492595,25.538254739334214
1.028,-12.71185964309613,9.061142923878077,-2.19735057168966,0.633066569588479,1.6045239490238932,4.622978705671442,3.522992761966518,21.072121012878462
1.032,-12.242868739038185,10.199500969713451,-0.05739869556893251,-0.12879878567848735,3.413700200115237,3.02524183696021,3.4399292114102176,16.635437129629913
1.036,-11.634749404760095,11.582130081108835,3.7430166189170837,-0.3412935532736885,4.180978265951667,1.4700525176593402,4.581043478701664,13.492464608813684
1.04,-10.823435052058667,13.058372863424442,8.496223073700337,0.05923027813790327,3.6199343574098553,0.4589765045834948,6.365680783193145,12.268239267037373
1.044,-9.61430312807958,14.28480288589498,12.93589752520655,0.8994881532274253,1.9763470081094687,0.1537700288742867,7.709605137504971,12.62274830344947
1.048,-7.931418185851877,14.810907552899417,15.708506279392163,1.8744993599776203,-0.11654996698233155,0.3006305864417316,7.515824929195566,13.450533725308674
1.052,-5.993185687383509,14.297045326450952,15.980128840306822,2.7289708586822305,-1.8988359159289558,0.4216141779731162,5.253578393481877,13.508439689301003
1.056,-4.271823603885679,12.750177145534176,13.875459395344837,3.4003851591364307,-2.75418522551724,0.16165428655724323,1.3236106577858058,12.127535668513943
1.06,-3.231615344665167,10.637477470983146,10.511866093173897,4.039121012398407,-2.3901491332446065,-0.43540801621877057,-3.008867101227045,9.588197429187145
1.064,-3.0419306847145657,8.734334679731777,7.539224133874446,4.85736002534359,-0.9284426954344749,-0.9210363466207374,-6.1308388819817345,6.938915656544917
1.068,-3.428648630995223,7.761193462599204,6.382425597244767,5.921045280331228,1.1121563522965987,-0.7117187161436416,-6.810279820158675,5.371573853583512
1.072,-3.795839953403049,7.993870038879931,7.560831657667642,7.023139163857776,2.9556810493477554,0.5215209619915688,-4.7790345104988265,5.510626166514895
1.076,-3.6025045090397825,9.040435939893175,10.400697719349772,7.707879822490966,3.7890714282293123,2.5751038556044876,-0.8788529060685686,7.037514232858584
1.08,-2.7396144447739506,9.973329266770643,13.335824763188658,7.47929656866128,3.053144612274683,4.733289148880381,3.3176960279995233,8.862508450981348
1.084,-1.6705026286799391,9.766816588088313,14.64761484998083,6.084510112234137,0.6897263755137102,6.103264705197986,6.218241760129715,9.736674840235992
1.088,-1.2173150185762251,7.823386910771582,13.278999628745813,3.7137401462844943,-2.768101875867522,6.087435771810247,6.911749680657109,8.93841442604382
1.092,-2.075539003700108,4.33157631906508,9.341690969194428,1.006673425386312,-6.321706449598517,4.729383070318978,5.517670415359067,6.645230131590689
1.096,-4.320350037111025,0.24399510743260233,4.069620186531117,-1.163235612237667,-8.849827428084856,2.7299980503757624,3.042252188050832,3.787716865963225
1.1,-7.204455946167846,-3.1131996567402327,-0.7295522705579414,-2.0269257526254654,-9.515726333632315,1.1133626430090469,0.857240284724667,1.4958480173172921
1.104,-9.397285408897147,-4.614909055255049,-3.4571474526829977,-1.2223393309302555,-8.074668661666509,0.7341321465813335,0.065488467651317,0.4892058084273092
1.108,-9.590119794010583,-3.815353237106292,-3.3731288822631225,1.076828465843234,-4.949660512549635,1.8759728078353115,1.0575494711099402,0.751655277637135
1.112,-7.180558465092848,-1.0986514866081052,-0.8284570431110962,4.2533301276979,-1.0309312803604094,4.139933051219181,3.4391632172126654,1.6387111811001018
1.116,-2.6635250499472214,2.552059377784136,2.9932289946156505,7.510723690377926,2.703532750183723,6.671341757784769,6.313126018437931,2.3275898118368765
1.12,2.484741507697631,6.03541117968367,6.669343657637068,10.183073612692407,5.580170452941051,8.572449645517159,8.74070125479828,2.3000777163694686
1.124,6.4134683367296255,8.59099203189697,9.145356803233781,11.94613122079638,7.426002111796944,9.287706095272492,10.14862509291883,1.5722635431044338
1.1280000000000001,7.688123996143635,10.0036686900256,10.078636722880889,12.839853676263004,8.490984748646833,8.780022050877443,10.498971120642933,0.5748361565565667
1.1320000000000001,5.885243544867125,10.514603577815201,9.816809737942991,13.130892007048079,9.185953860808691,7.445690644921134,10.191145671362943,-0.19898224964241695
1.1360000000000001,1.7228683467108636,10.532966430825832,9.07186934166099,13.112255612957693,9.78576878929838,5.854945729622306,9.789802102823334,-0.5293217326085697
1.1400000000000001,-3.307905056618481,10.36523915218684,8.516688509006102,12.967414790754145,10.287205681729773,4.484146799582506,9.73723671932451,-0.5711894534493531
1.1440000000000001,-7.6156948028813245,10.097764483533163,8.485377176672854,12.743101591661873,10.463672623249668,3.5702159085164302,10.168935119154725,-0.6703944355857159
1.1480000000000001,-10.128997470163016,9.662582700576896,8.887915388890034,12.428894649504358,10.054605999624288,3.1206587246188797,10.898970331024787,-1.0305727771932314
1.1520000000000001,-10.556263879305014,9.038222197375672,9.370825782710222,12.102324256329123,8.999965411287047,3.0390586954028613,11.574279469435151,-1.454454612306844
1.156,-9.240208781869534,8.401459092295692,9.59453460979698,12.021021717296104,7.560958307997969,3.258353006657473,11.90176329971593,-1.3532657343284007
1.16,-6.75908259711272,8.13734797776079,9.482759967991978,12.589064539695478,6.279435500378678,3.793458995780294,11.83629716047255,-0.055447851434284434
1.164,-3.5782547102336224,8.659395564296595,9.280672568403974,14.169803988497193,5.768211814901175,4.697045449716787,11.623543418312465,2.7557264594527466
1.168,0.0217994745378447,10.123113310615928,9.38148890859804,16.818506795702202,6.412437043170133,5.959252458115704,11.669746307707594,6.730248133093539
1.172,3.764092690447787,12.22468498487181,10.031831740582911,20.099585095038066,8.137362687225743,7.428648433686514,12.30022633751722,10.850717287640581
1.176,7.141763779247817,14.216843865208125,11.07661072894453,23.11408489481265,10.352331416368703,8.815219728957139,13.522715235343863,13.780578447350267
1.18,9.373606992392737,15.18565079373354,11.924309574121107,24.789246464674598,12.137390047155508,9.78180505872009,14.94073479104245,14.419738629599921
1.184,9.676125550513133,14.470184869185161,11.795969728275523,24.331380987774093,12.608019243618838,10.088255199561676,15.884667817481805,12.423259344089564
1.188,7.734091153494054,12.024222311175553,10.156245176940242,21.631083359538884,11.314463515468368,9.715548217551202,15.730728615810623,8.429083225904408
1.192,4.070756605251622,8.530108699615981,7.102931262982636,17.409725669355378,8.501352553655845,8.900914087141523,14.25071593958048,3.8651344203740905
1.196,0.0241754334637152,5.176588306560198,3.472493156191028,12.995649819339413,5.08460163968882,8.060688675684418,11.794506073018283,0.40785131695378496
1.2,-2.7501013804592187,3.18311053846731,0.5591649504126366,9.797361913139211,2.336418462447316,7.614361694082422,9.17236237072144,-0.6914045425596083
1.204,-3.027949787624742,3.2609210021478243,-0.4685696339626535,8.704872346290829,1.3729584312703302,7.796190882765187,7.281082545468367,0.8903864763811189
1.208,-0.6319667558836863,5.251870078148423,0.8151528581861136,9.698563563488655,2.659305835624594,8.536321504087496,6.653137056209073,4.43902906254286
1.212,3.463972232757019,8.154662414160963,3.8072107685576166,11.881780499511343,5.791469199446726,9.489298876662568,7.180176400022195,8.541403647666883
1.216,7.614252986324278,10.531421432525677,7.108862623077675,13.920552719313326,9.66376522264145,10.20146386093949,8.18484982144399,11.718244608207137
1.22,10.338033517722145,11.151332657094148,9.214307609605395,14.69104774048899,12.988146415981424,10.346460975945075,8.824298938660322,13.061256535176197
1.224,11.05856264699794,9.571941456638687,9.303649801197409,13.812069925394729,14.90651606112374,9.917535128297535,8.610752479040425,12.585914557793675
1.228,10.329933864459527,6.358658941096131,7.696427889546927,11.78535527655701,15.365127053480178,9.259988154942464,7.7267940326222435,11.14496176271622
1.232,9.428947749480441,2.8349420430759005,5.689663326325975,9.685393078194636,15.068854523360844,8.901054888939274,6.948963261923328,9.950333913869628
1.236,9.567612653796065,0.47052222117311304,4.834675261048517,8.577459803072045,15.037093581563852,9.252707741715295,7.203180963562781,9.945570733772652
1.24,11.202783012268009,0.2302248214920557,6.067484840161653,8.990569895194792,16.02691856407477,10.340256499815638,9.006572223679061,11.339823186457547
1.244,13.818890723989703,2.1796056219142446,9.159432072928439,10.695530546521628,18.119906503693358,11.71494147131924,12.116349595781774,13.54067159668612
1.248,16.279353965927363,5.522882392909077,12.808401456864887,12.875818080730012,20.688114183260502,12.625031977659685,15.58959211332294,15.505972143025303
1.252,17.510292594898075,9.035820849884328,15.331303991260672,14.569087783177757,22.746920086444163,12.379249565577517,18.231597099965647,16.305917667982328
1.256,17.089759229619382,11.636072610108721,15.566738231137226,15.116724241374722,23.4728493177402,10.724893082605444,19.17884164101865,15.59698422658969
1.26,15.423358045423143,12.815131534431114,13.505743181043256,14.414613011113383,22.619438443548802,8.03240769581973,18.295926801405255,13.751617337664147
1.264,13.43523798942525,12.708169392024079,10.267735825272142,12.854544502905366,20.59007387470875,5.172772667972657,16.17253473844473,11.59020692415075
1.268,11.997463867632339,11.800948610874899,7.445400237727944,11.032143090333708,18.150373634885153,3.133672799727664,13.74467006185515,9.888746493301872
1.272,11.466493898088888,10.513274099796249,6.2201367073003535,9.423194054080561,15.992937565596153,2.5672521178840615,11.780857434835152,8.94372968200447
1.276,11.586670666296214,8.921109379105992,6.7474950267751606,8.206707199320093,14.411115793527351,3.50566160850577,10.545731776079467,8.443767541485963
1.28,11.768070428142831,6.804540912955554,8.168240780816134,7.3092732547485895,13.285198586909667,5.392178816472283,9.814812075837848,7.715907492349304
1.284,11.54033703941177,3.973057792874418,9.210074150133542,6.600060163918038,12.338195915786418,7.4185287310134145,9.194121143061738,6.205168279466491
1.288,10.879450275694351,0.6300983925706816,9.001936028051174,6.081967958941869,11.45595535461213,8.972233011906104,8.516353650661914,3.9023904752573624
1.292,10.21602959759386,-2.4827649567364865,7.620659703489367,5.954719031831356,10.857432144200097,9.941219935732015,8.035710793002307,1.454662461062198
1.296,10.150227982813934,-4.316201475599101,6.045846670352679,6.499587117634433,10.98180664904254,10.703826566455401,8.29477025737544,-0.13617221305755667
1.3,11.085073043460245,-3.994801332896247,5.5893002903457,7.879232282896083,12.18796671220657,11.822946429647295,9.755994429313734,-0.07026287114219221
1.304,12.984179445638054,-1.3121814840487742,7.11584203659555,9.96651153761074,14.440130223286214,13.62494196842589,12.418733117857196,1.7365368477762515
1.308,15.377898397228687,3.0426597964750215,10.508183250866624,12.31000576985667,17.181696527023007,15.917400991828512,15.688427626049535,4.4850250763069655
1.312,17.60064184302552,7.702420201760915,14.686448606041003,14.282691497264302,19.516839922305536,18.03607033809103,18.60521899796987,6.810036068487533
1.316,19.099678885648252,11.192038199526834,18.14836322992204,15.341517929964384,20.608261337059233,19.198559341732672,20.320894188181846,7.454428595138057
1.32,19.65363468579489,12.593992297317886,19.746498679588605,15.289477176501988,20.10067459681126,18.956159604814225,20.57705297212315,5.958689149342931
1.324,19.423957384205142,11.962991886143318,19.260989733260786,14.406872071112907,18.324181840575434,17.48497908540799,19.887763362166314,2.996386704751231
1.328,18.811689098153582,10.241982406099028,17.447632255688088,13.339958794469453,16.136228697280647,15.513611510197478,19.278149445984916,0.13618243448500333
1.332,18.20819630744859,8.73250187422721,15.567865134262721,12.792905151343678,14.49520364629499,13.921498677708136,19.697469341843277,-0.9000782396623475
1.336,17.752904669554617,8.375018311925725,14.63957325156936,13.146144196486535,13.958393895216773,13.223128045988176,21.377850762088812,0.8463996127591082
1.34,17.220179836857806,9.22715656798676,14.82870599924741,14.19831419052051,14.376386716565506,13.22732869439151,23.48263003286295,4.9286478763938915
1.344,16.075192669792433,10.396137539187018,15.288942990704243,15.169564893728966,14.930561941502866,13.094481717019086,24.277763618166578,9.49241897795348
1.348,13.689567156940246,10.458618093039181,14.537113006295087,14.995618282226307,14.50178359658901,11.780343242830828,21.81790752696464,11.982624737766876
1.352,9.69444777588772,8.193146469407148,11.2100501052694,12.836306941882114,12.233650760309732,8.646948626192009,14.887556448585322,10.285339466203663
1.356,4.331814585375885,3.2577299623669886,4.826295724404112,8.563025808436187,8.013728550512573,3.913935495094628,3.75837977731409,3.7899523491219
1.36,-1.3873337824679104,-3.5069563544171993,-3.789687752903977,2.9880546012547797,2.672600344286856,-1.3069269954792073,-9.583569897449097,-6.141836947274561
1.364,-5.875200441374465,-10.322559489683561,-12.656355743935974,-2.3241686215760824,-2.226349974393738,-5.429140227896981,-21.9179428094872,-16.549366660796426
1.368,-7.507493540903419,-15.177455315664709,-19.333727357107342,-5.626370331502789,-4.950335428497879,-7.053910899013145,-29.85063663549598,-23.959972689114863
1.372,-5.33133151597008,-16.66128189255455,-21.874199505828035,-5.696389075251844,-4.269571019807663,-5.557330362909034,-31.028517529160236,-25.714691702962618
1.3760000000000001,0.39514607786942246,-14.552095937968037,-19.61835230986593,-2.366832502595778,0.03457150752125182,-1.3232283810133416,-25.01502246089531,-20.953967764254863
1.3800000000000001,8.139457436116606,-9.876817048649206,-13.467860429596769,3.390610898598509,7.056006883348148,4.4566300116643145,-13.455040058745691,-10.860792087443063
1.3840000000000001,15.610586967045991,-4.4375232393164215,-5.518478646163565,9.869823130461437,15.085051868685744,10.289033952096826,0.5470118793511167,1.9190120206895984
1.3880000000000001,20.661580190016704,-0.0562049379203442,1.754044847841243,15.321385129054685,22.205548812132896,14.933441840984807,13.553152841363211,14.356042334941751
1.3920000000000001,22.160414993796913,2.1279095388876854,6.41082596318782,18.616137366708166,26.93002456735373,17.7534652843445,22.934282742880683,24.1073902174523
1.3960000000000001,20.38270785237329,1.9841524357979141,7.662832364682615,19.577796817684355,28.615334687955578,18.759330865858402,27.56982280498115,30.131835334230814
1.4000000000000001,16.75760976604324,0.2521123729725874,5.961093214571715,18.889684024810276,27.546450773998515,18.40274037506974,27.894808793216786,32.671851431599215
1.4040000000000001,13.107550163783749,-1.945498340245102,2.5745733768015118,17.661202720464264,24.689029203196867,17.285599960484006,25.36201243843258,32.74784398076083
1.408,10.793045330833108,-3.660684957983566,-1.0718221862118895,16.900919045741862,21.261812718473017,15.941495499785276,21.665868174258392,31.519419120103066
1.412,10.240057325728785,-4.451721397005135,-3.930880886314478,17.163274102046604,18.33736807075673,14.753488172656713,18.116660885987223,29.846730678068816
1.416,11.01846031224695,-4.404165728972007,-5.542782536087621,18.45642996591642,16.58280626269669,13.961058463732856,15.372478891360048,28.186238795396733
1.42,12.331929762005204,-3.879203212305965,-5.881720603063663,20.387674713441665,16.213251776497483,13.674561057985082,13.549892276271397,26.738088705802145
1.424,13.57066945822189,-3.196043364146229,-5.052733630811345,22.406918912814668,17.08192286473665,13.858207640916532,12.511989010270138,25.641346940702775
1.428,14.544338452988459,-2.486676585603278,-3.1195310751812455,23.975880551794347,18.784439580315592,14.299226506041428,12.083456958095399,25.025408991780907
1.432,15.3138098186768,-1.7573139418592367,-0.1608305776799579,24.642871562895014,20.753010886051428,14.636430181509871,12.091428859925198,24.89803630288771
1.436,15.84936204928788,-1.057661339737047,3.5217072056073615,24.09298567228233,22.34972726715432,14.499751626220514,12.294721800396474,25.01483208501351
1.44,15.83343437830705,-0.576343870611371,7.268198036571296,22.244332438608303,23.007318592912032,13.711446649605044,12.347587011438561,24.874303289264397
1.444,14.802018371616752,-0.5729678428360583,10.174266988037711,19.368946504638657,22.392047785490014,12.428916291031173,11.890576049057328,23.90851495034346
1.448,12.548159850745598,-1.1873181998286766,11.444939483028973,16.137704367628135,20.52273869515301,11.119319034166082,10.743223250630757,21.786672395353687
1.452,9.45443106805657,-2.27235000512896,10.80266000317063,13.478618839212857,17.776881863875733,10.330113333348573,9.058593286298663,18.638813727564497
1.456,6.466669535652499,-3.3910323626828527,8.693841938662974,12.240102384957462,14.749427590364906,10.364814381278062,7.292589528866616,15.048018497873063
1.46,4.645465216397455,-4.006557568274097,6.133471981300916,12.786828341174232,12.027230794214432,11.04641843525447,5.961337528912628,11.776054227400135
1.464,4.5386179873206265,-3.7786270477215202,4.223847823133312,14.745693454929084,9.972439599303744,11.73051989373111,5.316729984771952,9.385975891534347
1.468,5.808984723283791,-2.7776223863603136,3.610419541945726,17.098837118779947,8.62844254626824,11.611851267697041,5.165067996125348,7.998969706966009
1.472,7.392504709437099,-1.4658123679806971,4.189447086561065,18.624055476217652,7.7954890905183545,10.169930646737022,4.965629145608191,7.305825462644117
1.476,8.120493935939777,-0.465324707985379,5.2149270160911865,18.468121957673922,7.199133451864498,7.502137916311002,4.158318384620262,6.811582653152173
1.48,7.430012778147534,-0.24061041083365875,5.752878561089939,16.560354449720577,6.653058813942611,4.336164890114317,2.5268017687739244,6.147563077746403
1.484,5.704226748044372,-0.8954435149804025,5.195720632240315,13.61641307467288,6.099474199398488,1.6853333162408712,0.358483870354366,5.246782557711267
1.488,3.992827875761466,-2.2155548201313486,3.528367751928104,10.702169045477127,5.501062854981047,0.32195740058991984,-1.7190717538049585,4.281603041143502
1.492,3.2896676871158084,-3.8958052515831234,1.2332033524654786,8.613433328447186,4.699108906105141,0.3530762999314576,-3.134226132863099,3.4336712144217914
1.496,3.8736963241946025,-5.760061197686525,-1.0501701446897416,7.455032932943576,3.388016892193355,1.162560868157811,-3.732144880384686,2.695106091769794
1.5,5.159990098264613,-7.7903134455108205,-2.844796982706444,6.680072368900479,1.2988723548302548,1.7611243047069167,-3.849673180704672,1.8395257799930183
1.504,6.157177813790636,-9.966424119611586,-3.9560691080971737,5.544792393673688,-1.5136328223634175,1.3384444801290112,-4.046945332144606,0.5871036637048008
1.508,6.205655010181807,-12.071482677308754,-4.375397583952926,3.6726072211772864,-4.49631711928775,-0.29868307306336117,-4.682384468712284,-1.1591257146284515
1.512,5.467623441152311,-13.649519034609678,-4.093306089372583,1.3613589635164673,-6.6952955632974565,-2.648329427556308,-5.631001864843697,-3.196913485004025
1.516,4.81857652150037,-14.21155800535737,-3.0264668939806136,-0.579312023679948,-7.159014702574347,-4.834313631434895,-6.3609530020544325,-5.133097190392919
1.52,5.169986252456887,-13.577478972887825,-1.127104230091055,-1.3715755708958404,-5.450993802141804,-6.138750809791025,-6.338970204427428,-6.666245333463262
1.524,6.68959807411829,-12.123150112238388,1.397944973233066,-0.8471506277760064,-1.9971302115689467,-6.418589961257561,-5.501423446372604,-7.841245068329438
1.528,8.502896650291731,-10.723354750667161,3.9484427721117212,0.3264811293794567,1.9608379808337038,-6.1512762097417015,-4.458857242134799,-9.07972825362074
1.532,9.132068401768498,-10.337597499588004,5.64901821385201,0.9506741043065565,4.857143735412516,-6.098460365048329,-4.234709777520349,-10.939062554762543
1.536,7.419198716121054,-11.461659410023666,5.712284000935286,-0.04437061214118554,5.502358185039053,-6.801193619549718,-5.6709073340015,-13.726113937078082
1.54,3.3584328909185475,-13.75225771804324,3.8827779790646435,-2.962222916870391,3.658358792134659,-8.225920028993258,-8.837414725659288,-17.21490856943534
1.544,-1.7543297935205446,-16.11253413165552,0.6736100124821525,-7.137655624215391,0.16738942756593778,-9.787370504901368,-12.818762306237932,-20.671472372880714
1.548,-6.024977834758252,-17.263775457105666,-2.8062812947208946,-11.313074130232737,-3.4653338130927684,-10.731529061157659,-16.075883182484205,-23.193623083487317
1.552,-8.097749851436122,-16.483524786518192,-5.371248104460268,-14.359799539127442,-5.812565033906487,-10.645963610181223,-17.203091010352573,-24.190497533830055
1.556,-7.9925178791123415,-14.087131714996552,-6.367835544055485,-15.91516668781391,-6.219965444392023,-9.771619022786949,-15.676203102111716,-23.72551707211879
1.56,-7.08330676811919,-11.329314801371282,-6.002824418625145,-16.525790550417096,-5.064425519391299,-8.906224688484592,-12.149572783771335,-22.501644089739568
1.564,-7.210577447254015,-9.754950031876364,-5.206765191078727,-17.225385768866136,-3.4739291409033632,-8.953703674511765,-8.129042055099433,-21.49335596694015
1.568,-9.456117053199712,-10.365917786101189,-5.125425424771857,-18.826251844260707,-2.713627423125626,-10.383304469763587,-5.220965333723193,-21.450422750111542
1.572,-13.360740528587177,-13.06436516173822,-6.493735967094132,-21.355152932179195,-3.5504793421542726,-12.920266388485814,-4.373414498460779,-22.545863726438693
1.576,-17.130676506188824,-16.710917647893964,-9.251933172056269,-24.010315670076015,-5.937022373996005,-15.669553062332259,-5.528992575689226,-24.362331887866493
1.58,-18.712646205612245,-19.740482820689486,-12.592533735052074,-25.643289561171237,-9.13055842411149,-17.610067269055982,-7.841086405449674,-26.214373555048603
1.584,-17.07702524020736,-20.982617550936148,-15.39505413772133,-25.465019900083895,-12.13824741672679,-18.16039438171709,-10.278371094224001,-27.58773145683352
1.588,-12.91230514915738,-20.2402756565387,-16.806502472015914,-23.5423047931668,-14.23281705818384,-17.488165309737226,-12.231638396612293,-28.42698866927548
1.592,-8.273353159361253,-18.29613529041635,-16.629096608720083,-20.761235028634548,-15.238397767211623,-16.387171774161793,-13.752571301181232,-29.11095511780598
1.596,-5.389869913395156,-16.387852924893473,-15.33430852614801,-18.290004234909585,-15.476610045920557,-15.794727329353416,-15.331258214432648,-30.144633653192763
1.6,-5.351697925810333,-15.471396582273169,-13.70980268735096,-16.86230693086888,-15.43931899323039,-16.238897054462743,-17.400779707705915,-31.776972931047485
1.604,-7.4800815155842955,-15.716625879453394,-12.376165886683198,-16.341614608125166,-15.41944465487884,-17.54177154146267,-19.91551107798842,-33.78008437206867
1.608,-9.756294430129433,-16.509616465152796,-11.473085843121872,-15.83971146104835,-15.335261951231352,-18.940069450981035,-22.28794194294008,-35.50787017322772
1.612,-10.04869007842699,-16.91425041933247,-10.678585404732148,-14.31690478572884,-14.823574597479784,-19.54462565868726,-23.71536807084361,-36.200333206788386
1.616,-7.394423108426747,-16.29697615269029,-9.534260176570566,-11.299197588371182,-13.537688090643776,-18.862255669312294,-23.67454582390377,-35.36186686492437
1.62,-2.5531053754328434,-14.699248992461197,-7.836547233933537,-7.24282502303015,-11.429213092925039,-17.063959678303256,-22.254478370976823,-33.004536154579746
1.624,2.4508114347682657,-12.774222256115072,-5.86529002931263,-3.341684555564729,-8.869585765092255,-14.852174039391901,-20.111074258803978,-29.64641642654484
1.6280000000000001,5.502573770097609,-11.373373730667746,-4.305834068150497,-0.8909379869764984,-6.552704304764217,-13.025800623082532,-18.100385469295997,-26.08319569706159
1.6320000000000001,5.59450213554155,-11.028658685536707,-3.875219485622499,-0.5619455633101991,-5.201201774601215,-12.005846663167421,-16.81921360376424,-23.063803311451508
1.6360000000000001,3.3413087479780446,-11.666220010384631,-4.888174467915654,-2.033727864246146,-5.261698415511183,-11.617479071563404,-16.339238065035527,-21.034459495950465
1.6400000000000001,0.5774511910419635,-12.678803457542243,-6.998560728051288,-4.164375285320068,-6.711287696097173,-11.247806654577287,-16.288894617783686,-20.039938061020397
1.6440000000000001,-0.7044494846349338,-13.300538742396768,-9.294459028834845,-5.607422699271129,-9.0677957333921,-10.276553080115956,-16.195404165861742,-19.784565257237922
1.6480000000000001,0.5613920743554628,-13.057125296597246,-10.736029800137631,-5.522865651904107,-11.610788114165286,-8.514374222557816,-15.849432467066322,-19.79533254596439
1.6520000000000001,3.9800823146927904,-12.021232820878812,-10.695181223627284,-3.9807357578545446,-13.679917098857919,-6.374104381963587,-15.441040394675387,-19.599948229271355
1.6560000000000001,7.944653019061401,-10.748163334843726,-9.315572094103388,-1.8675775835851791,-14.92440352598134,-4.675515976693427,-15.406254524958948,-18.873882671067857
1.6600000000000001,10.487430746476225,-9.934448586134412,-7.461310835913968,-0.3610585056892235,-15.388326398140588,-4.191658769829097,-16.088112940794808,-17.530032749234515
1.6640000000000001,10.244342362400907,-10.008880883331138,-6.264361932728748,-0.284404765297098,-15.398266935561335,-5.194624442841572,-17.4444674803488,-15.720245698402028
1.668,7.05484321556643,-10.870873520598593,-6.49646434083145,-1.688363602946806,-15.31636221473904,-7.262623178449385,-18.997135030331187,-13.75877337962121
1.672,1.9835125644883451,-11.890143000919906,-8.09082335436508,-3.8478555153910676,-15.278246117316623,-9.452696518292512,-20.05428559555638,-11.974400650879318
1.676,-3.18323295367896,-12.186474616714815,-10.11793131397541,-5.661517253596799,-15.075577976973983,-10.745729458743412,-20.07140950484727,-10.541299666751755
1.68,-6.701279439413579,-11.045327404593221,-11.241326942659825,-6.217938577705106,-14.241592749004742,-10.531823451482845,-18.91863673281782,-9.382951087771659
1.684,-7.518153954371694,-8.254160098116927,-10.422353394660052,-5.220214684538897,-12.29614534706431,-8.87698318442161,-16.91432817890739,-8.219678356092272
1.688,-5.587549297785325,-4.234358628213956,-7.519305784006296,-3.0942910679787197,-9.057991440152815,-6.449582570471316,-14.621648266556807,-6.757324760153368
1.692,-1.7645700924406347,0.09988214007124707,-3.4335190555118986,-0.7485116742424598,-4.851578853108293,-4.161840495471894,-12.546833072509925,-4.919667944199652
1.696,2.6026925923946918,3.662500319335906,0.25755807117630347,0.8440948710250264,-0.5199212118823984,-2.7372972483659908,-10.946927149253069,-3.000210312622344
1.7,6.2035108035050515,5.586969764354363,2.0261162612439683,1.050130445980055,2.812634748140245,-2.434655197328861,-9.8393240751019,-1.6186460389658333
1.704,8.216128948930947,5.549183305215307,1.1297043272551721,-0.20041575128668976,4.165057055866723,-3.0396065165557378,-9.161798864082911,-1.462527459499591
1.708,8.526274207476895,3.8887574961905873,-2.030544996804725,-2.434303810193596,3.1153209244595894,-4.084127899106656,-8.93393512684633,-2.9176249239581713
1.712,7.644548273734945,1.4781182935974457,-6.098950709490779,-4.855698923664833,0.02080947881376405,-5.140582230980889,-9.288756380977217,-5.79069916075118
1.716,6.368987324693823,-0.6380133520445819,-9.407751427759969,-6.673966155881773,-4.101514005955215,-6.014078619508185,-10.34959599956979,-9.300125059665564
1.72,5.362446374414954,-1.6667867942904353,-10.719181127563115,-7.3928973354453,-7.960527084548254,-6.7516331711769215,-12.03275263633013,-12.375731504987513
1.724,4.8576938913867185,-1.375227653705343,-9.706722739689539,-6.955314065301065,-10.4660486448727,-7.496226941754582,-13.930996038002744,-14.1276570594362
1.728,4.629084235561196,-0.1593130900476485,-6.986352551889629,-5.718630848958377,-11.11324253036306,-8.305007846087229,-15.401585615847289,-14.244030600193275
1.732,4.241113459703633,1.171390153184804,-3.7287848891881707,-4.2786576267606815,-10.109424681765255,-9.058955142090097,-15.833019911167717,-13.099322518539935
1.736,3.4053021107706334,1.7763987645406596,-1.1108190084006146,-3.233318651978405,-8.220885476137557,-9.51426668159722,-14.966368559999207,-11.50626857697351
1.74,2.233790037351601,1.1836394149571308,0.13975081931130684,-2.9574968944750393,-6.404767525274766,-9.446982739078702,-13.080836910672389,-10.256027959555244
1.744,1.2316441784863903,-0.47194192636694,-0.0715217534396031,-3.4811929976876526,-5.398623350160896,-8.796516247282124,-10.92226041835363,-9.711393653014575
1.748,1.0169575084331512,-2.499753964354178,-1.3227455556488361,-4.520387016049638,-5.452475750093784,-7.710359938410534,-9.386070138710478,-9.672034508443096
1.752,1.9412183375078502,-3.9720636580495627,-2.9630742443848974,-5.633706394972791,-6.29664708234527,-6.462170320235707,-9.098661303076048,-9.574645733947438
1.756,3.8240716770623653,-4.199978414702141,-4.434262931205795,-6.468992370969685,-7.367614569827549,-5.307817355900124,-10.124148104601442,-8.909492172570967
1.76,5.969654089612439,-3.1153692207133075,-5.471398463401831,-6.961219381472434,-8.137749211116695,-4.376595911564888,-11.934028715684704,-7.586953373908216
1.764,7.471071970796402,-1.3554026049516106,-6.123647910092952,-7.381083080920137,-8.378553768527532,-3.660839879839216,-13.645824004868661,-6.035241460959673
1.768,7.633466252088103,-0.0100147818395665,-6.650501552298801,-8.193512510069887,-8.25991869000573,-3.0952151874915046,-14.407987345229964,-4.968429538304127
1.772,6.291501190917586,-0.12301418744015735,-7.350611456455126,-9.779443753281788,-8.233388743228081,-2.660384115971941,-13.759952298382682,-4.95794653696774
1.776,3.8645317401256642,-2.18003290649326,-8.395855640337547,-12.164799982832328,-8.779355475132473,-2.42265727543495,-11.796614556510423,-6.064691918656726
1.78,1.1568853374130499,-5.80939697505609,-9.711077944660273,-14.882618685860567,-10.123532485423672,-2.475373605765518,-9.07739160334499,-7.757528043480059
1.784,-0.9640352316992153,-9.84539921029549,-10.936769589579413,-17.06044233793435,-12.059499576342095,-2.8257439964461604,-6.341457591890272,-9.174212541282245
1.788,-1.8486342611540527,-12.756994845496298,-11.515983123530361,-17.725081096902112,-13.987162497970672,-3.3129567219059304,-4.174568970541877,-9.572397704852342
1.792,-1.2311289273205381,-13.26676727304745,-10.889678647787168,-16.212793617759235,-15.147040491307436,-3.6393094849051284,-2.7900364984539836,-8.728507046037041
1.796,0.7374376931682098,-10.901551334109854,-8.756816478171753,-12.501754150934975,-14.966909542722805,-3.5113880702420164,-2.0056005514872477,-7.05596702347747
1.8,3.5418437601761457,-6.214972659974406,-5.269377605603878,-7.291778750561537,-13.345256202167473,-2.818300510516166,-1.4097600530882115,-5.387815623488125
1.804,6.419478136696326,-0.5604416864616777,-1.041784825906423,-1.7726819751137655,-10.71071485890309,-1.733000759569451,-0.607606949901391,-4.548391415911456
1.808,8.526768795318077,4.46140127579087,3.039764400983178,2.820259354020091,-7.843972864073939,-0.6656007656217575,0.5748261564460533,-4.943356778881287
1.812,9.160492043464238,7.637294806652316,6.148770593148157,5.676054283906592,-5.533760457376533,-0.0705343378047294,2.005845596990889,-6.385970843087946
1.816,8.004110425221397,8.56117084863602,7.818310181971438,6.681488561951873,-4.2477213859279885,-0.20128711931626597,3.318213264002619,-8.217480158910291
1.82,5.304972245419146,7.679853168563223,8.081585701216728,6.384412427059315,-3.9602888983354188,-0.9547667921850849,4.087372149622383,-9.64805313498795
1.824,1.860997928764112,5.9871545988173756,7.39089640311503,5.679120480454535,-4.207750338645915,-1.8957807399113253,4.019360533550538,-10.129769633774169
1.828,-1.2595133113023769,4.522604323735879,6.357115461344639,5.359090220226747,-4.352544046133953,-2.464332837411762,3.0639863031919594,-9.563583578346542
1.832,-3.17980019452318,3.9393353731794227,5.46859962431895,5.756570032222548,-3.8970558111623834,-2.2597343215406096,1.4241382141559393,-8.27115137101002
1.836,-3.6499998639368707,4.305525374056826,4.911067154316001,6.615519891491974,-2.719052557458458,-1.2555436885559015,-0.5517339548435705,-6.782773146568331
1.84,-3.212308467388355,5.203467419177936,4.582096402710475,7.255931907206508,-1.1050871612435782,0.16268018240247395,-2.519759469818288,-5.568517227645114
1.844,-2.9597178269226303,6.033897878378935,4.2612012576375875,6.948485218076946,0.42805597508271886,1.3670347440119412,-4.250474722479614,-4.847930190265648
1.848,-3.982620677930771,6.326011743163953,3.785417818021865,5.304660796657373,1.394910648035641,1.7829483779712039,-5.657433543061374,-4.55201441354809
1.852,-6.775592631777669,5.921411230144276,3.135704834841684,2.518078076093435,1.5590822160331093,1.172845962432115,-6.73878682131174,-4.418244378408042
1.856,-10.898831846796062,4.975144377908749,2.3907099956177724,-0.651785331231971,0.9953115826274419,-0.22036373986155056,-7.486769272408138,-4.142826478828658
1.86,-15.100752489201533,3.823068287887301,1.6160531447991797,-3.1461831733735863,-0.001109815181297158,-1.7485500592427683,-7.83137028248317,-3.5242860290767375
1.864,-17.875075475289947,2.815418440413403,0.8056982924975964,-4.016223581044656,-1.0789175508813578,-2.6224216360819295,-7.646173081744673,-2.552747008663582
1.868,-18.162012746058245,2.201255763113294,-0.07195421412394154,-2.8044836777970734,-1.985045752933164,-2.2503422278047833,-6.818971466746448,-1.423310237937884
1.872,-15.845842706528288,2.092186454016005,-0.9594051286905865,0.24815678370346705,-2.6271478093704674,-0.5122515795771563,-5.344523952344026,-0.48915515308648727
1.8760000000000001,-11.82739962606402,2.4570922482214668,-1.6508892491116702,4.23659036235411,-3.070177551387457,2.1568159137335488,-3.3828005098021396,-0.1612747135426238
1.8800000000000001,-7.6140039356627565,3.1549088693517833,-1.8321026077191918,7.8971404879835685,-3.4652480601450044,4.921099702732096,-1.2240626727209332,-0.7577105873279475
1.8840000000000001,-4.640997546858004,3.9906998976229837,-1.2351949463843233,10.079328800851169,-3.948935048551535,6.875953485353786,0.8214320656088869,-2.359421741877002
1.8880000000000001,-3.671511044030442,4.777144299435295,0.16135295916869818,10.193033239209322,-4.585972316171642,7.423238028564296,2.5494075070323206,-4.722027015082787
1.8920000000000001,-4.526478785337382,5.422971288598515,2.043152938979221,8.462179966406719,-5.34243612927825,6.523991494098471,3.939736361445105,-7.2907507659279975
1.8960000000000001,-6.247838710036005,5.990748304237168,3.8486014345354853,5.857543122962047,-6.105563262911955,4.720980267038182,5.137208812997294,-9.33411888187822
1.9000000000000001,-7.6012958584744315,6.688650705645885,5.025065222928019,3.706304836943908,-6.7222901502257315,2.906005158094507,6.340616313038821,-10.1762534457505
1.9040000000000001,-7.672985924555486,7.766011456960628,5.30423972142733,3.112087943201688,-7.053468441219323,1.9186934670155997,7.640861136926201,-9.465378655446901
1.9080000000000001,-6.2860202191081616,9.325809505763793,4.8202562601980325,4.434628152085517,-7.052325214810633,2.1574828932835652,8.904077213961195,-7.355245515560789
1.9120000000000001,-4.0350250301428,11.182777204169488,4.010129378324516,7.091793556511644,-6.8132037133087096,3.3893239969502,9.781608573311207,-4.5015696335299875
1.9160000000000001,-1.96035610083177,12.851069127065205,3.3270152273310583,9.78257182167971,-6.587536865167916,4.859635643834836,9.851601341940027,-1.85111380876282
1.92,-1.0335730094418851,13.72322725096264,2.954211295505485,11.062652020577904,-6.72311210204799,5.6453951174713,8.83360907102891,-0.31177657488099975
1.924,-1.6781036905424478,13.391909472531609,2.71480521558126,10.035625099713588,-7.5077448600255785,5.086756632695961,6.771563184254565,-0.4298263067645429
1.928,-3.5636177754579883,11.93082600144658,2.235084456824876,6.815853227968649,-8.991657577689883,3.097260983244438,4.089509998731893,-2.1938475868061698
1.932,-5.7735235853103894,9.96161949116484,1.2730657566454173,2.5181817419879833,-10.871684587159214,0.1973674332696389,1.479676357927536,-5.051773244886752
1.936,-7.262058156337037,8.410553191405484,-0.01387624401280263,-1.2482933522367246,-12.539433755564197,-2.7316796944501682,-0.35007128365061746,-8.125600932416779
1.94,-7.346210131430088,8.078278270866932,-1.0365474180436518,-3.120222541460861,-13.276362964131126,-4.838175690719547,-0.9556702289282271,-10.528340496447417
1.944,-5.987581224580515,9.24700187108681,-1.0313739791880145,-2.5922454392415197,-12.522136425727941,-5.635471613814549,-0.32231181516565677,-11.67400233207093
1.948,-3.7327635735083238,11.529156436296635,0.4955247686135138,-0.2028084247396258,-10.126244922495172,-5.135361984283824,1.1621917730522107,-11.460640152425725
1.952,-1.3540755753611493,14.067405327711795,3.3980341087137607,2.801201389263718,-6.448028658884245,-3.7454256054789705,2.9111487879151277,-10.268360174532207
1.956,0.5907707236157298,15.963754481446816,6.809059630279337,5.12118939494103,-2.2648613536508777,-2.0054942515295764,4.424507194589142,-8.773383638431286
1.96,2.051748651068623,16.724531734797573,9.448004544682998,6.047399764834552,1.4918206093783084,-0.3285607863216744,5.520457986172831,-7.658220732585656
1.964,3.4558937985401417,16.475823864072115,10.205638232323235,5.751115577500139,4.0802579306662325,1.11873057371599,6.39609500217533,-7.323141603283095
1.968,5.369097506591763,15.816406578747845,8.694231673702127,5.072459959338795,5.199019208208346,2.36110863723001,7.478590703349577,-7.723791545676942
1.972,8.08212743808387,15.414270944687722,5.469807404499638,4.952569585839629,5.048103356034688,3.454709502162513,9.142891453513101,-8.413968250937781
1.976,11.356040923036112,15.561235055456324,1.7693022429842395,5.822484222466272,4.164451323280082,4.336736220670765,11.42203055117319,-8.776631759652306
1.98,14.476941430725601,15.957563247109876,-1.101380350531885,7.304632072270258,3.1352796206603966,4.785465943165452,13.876797562286331,-8.351575988164784
1.984,16.605538739951534,15.881397727534921,-2.386811178654315,8.410469089713576,2.3565745872103783,4.531030373845207,15.726940441828475,-7.091314303119951
1.988,17.21855839380711,14.644358908633253,-2.18807807764038,8.130462388851852,1.9411635548527242,3.4466057979482043,16.2000940884608,-5.398077971215733
1.992,16.3942222747666,12.092660373271794,-1.2757377153092087,6.102351328366431,1.8267074357739297,1.7072310797264556,14.950992594116023,-3.907629127673749
1.996,14.792840988705864,8.849660972860095,-0.5358969347489684,2.9756226999956836,1.9850534140979068,-0.18109344574934472,12.340550135091396,-3.115289569303987
2.0,13.361711939035018,6.148927316854537,-0.36832054913441203,0.24624111948706862,2.5928550232059484,-1.5294071545910692,9.402534659588616,-3.061378889922505
2.004,12.923591197535742,5.310740913311447,-0.4067598721628418,-0.399890665339826,4.035350331738748,-1.7456624741304076,7.449697701860623,-3.2798377948462445
2.008,13.817179119266207,7.071736511132473,0.2280159324125164,2.041935876133979,6.666370639433925,-0.6372943105598865,7.449759245671,-3.0863463967706593
2.012,15.751461151800715,11.116409317237325,2.2765480568018424,7.2377409878241545,10.435610928855095,1.4074535752298902,9.45247374384762,-2.0882707099350504
2.016,17.899653149651833,16.039832816757457,5.654134362817496,13.4149421935622,14.58317545413501,3.4607006530779496,12.357318024050528,-0.6265421935434614
2.02,19.166302654068193,19.813329830915364,9.189293675192742,17.93118090205647,17.64219884339253,4.3330545267182785,14.215749356699625,0.14802512087015973
2.024,18.55881159143693,20.601733801303325,11.024903460116239,18.326553518072803,17.87135456708359,3.022552197895073,13.009536813291472,-1.3049599320428737
2.028,15.53577216945969,17.559082507027703,9.519515144332633,13.398503326021974,13.97861664923802,-0.8364018429329447,7.592853322006455,-6.153825479540027
2.032,10.249732370773765,11.257608570883523,4.203217598518888,3.8246278233162103,5.844757291278778,-6.724687626335429,-1.6216052342247402,-14.45968982231553
2.036,3.6253120827746086,3.5351133668699255,-3.7463528735969818,-7.964448943438331,-5.130339880044559,-13.310612632354697,-12.57894485872928,-24.857143019678524
2.04,-2.8048279304578703,-3.1903761318675308,-11.800549793684763,-18.633763386653268,-16.281817173149513,-18.848463501958562,-22.210509062083652,-34.878265518749494
2.044,-7.313156241219013,-6.845742088511463,-17.050595472724744,-25.161612211014518,-24.494614886488847,-21.763377131725953,-27.54084483910669,-41.81444604675906
2.048,-8.556173077311637,-6.48458890214458,-17.40691035186433,-25.92507942184438,-27.29054981914169,-21.194406128694297,-26.79351637608116,-43.73195888860255
2.052,-6.106594670604658,-2.570146540805629,-12.438865433283992,-21.197202859967955,-23.724400788030042,-17.277051016111088,-20.028706615979054,-40.18515261765058
2.056,-0.710672224357622,3.3116298844573278,-3.494640564129296,-12.89420745643071,-14.722924620542997,-11.051923393195452,-9.04530742568829,-32.302659631065936
2.06,5.882602643441942,9.145994966613422,6.90504232016784,-3.7367930232331887,-2.731438270151242,-4.068257306547626,3.357962012536019,-22.267541103562948
2.064,11.537927748845906,13.28055707542781,16.082913967836483,3.792297738710708,9.18027570448635,2.146724644295701,14.402903288814322,-12.469370432571075
2.068,14.557219169047356,14.945351637282306,22.12553554353728,8.243566874417278,18.348174909979505,6.536607333634484,22.194112218330346,-4.719980222396722
2.072,14.345104267293184,14.325318233426602,24.347537342249247,9.465500463511425,23.285712727238185,8.71625207635989,26.096035845169887,0.1586869319387958
2.076,11.603216389079634,12.222516430061159,23.1943771939071,8.318220954088567,23.931191070354345,8.904448497398956,26.5663853714213,2.307202683022033
2.08,7.960329004793068,9.55748822928732,19.789754440345046,6.075140006693719,21.377205468035406,7.678045164450747,24.663012778648707,2.4853013694736834
2.084,5.2195541777308065,6.998959443031847,15.432949357416955,3.8336372475554397,17.299457555980258,5.698743700095714,21.527007906519863,1.6409095281827923
2.088,4.566281989581411,4.859470853517361,11.25879854029481,2.174699869088098,13.344036355640077,3.523723946430014,18.078035677391945,0.5943302078487376
2.092,6.1158329593675695,3.232480710003995,8.105023294624118,1.1548771651680463,10.689492770405161,1.5308639472324286,14.947567719225313,-0.11804025627732795
2.096,8.98468508635371,2.1863986698263127,6.467828433118593,0.5216840102491132,9.838485101206768,-0.06155378542718326,12.533075571079825,-0.2656834640976564
2.1,11.809223092770246,1.8628835641905246,6.4747226100833934,-0.008089904213041343,10.630997909062046,-1.1447782213359465,11.04561505312532,0.11411183860606489
2.104,13.422544981435856,2.410402499990724,7.844320153445411,-0.5591255773390942,12.407924662975962,-1.6909901997202885,10.490460180823753,0.7648316458924764
2.108,13.342934872975198,3.805523881423456,9.8917327323749,-1.0575707555005787,14.246816006731226,-1.7420149917856902,10.634602161949228,1.3044260237204037
2.112,11.886053837124685,5.740145501221901,11.692768193935855,-1.293879520873455,15.253957384768402,-1.3963314958155886,11.068638217139936,1.374194537716237
2.116,9.88922743671463,7.666807195056267,12.391311039710299,-1.0486884392155025,14.84195482183709,-0.7812208301657178,11.385348347561779,0.8079492066144365
2.12,8.230582886859377,8.997708155086057,11.53082695442139,-0.22113460426271292,12.915223764448108,-0.02537466237664976,11.386692120800536,-0.26963499954281467
2.124,7.411762292788492,9.350783162180123,9.241094322021702,1.0832510884770088,9.889864523097826,0.7520333568003243,11.17461766761373,-1.494679103523021
2.128,7.414900075949744,8.698206390408592,6.161727726317856,2.5385814593720673,6.507560897370057,1.437110555209665,11.040435169326498,-2.4544189450918816
2.132,7.856111486474918,7.342859635683773,3.1475307520949483,3.6792806972890126,3.5222718535608504,1.9181521256263419,11.212726655839246,-2.9151376083707907
2.136,8.31135956196081,5.740765693171562,0.8999262525582263,4.065369225675113,1.3889199083184391,2.114229160138095,11.637666099389072,-2.938115093727175
2.14,8.623490522393052,4.301761398927774,-0.26708240355820356,3.5013076961816494,0.126695322008751,2.0345990422060862,11.96382239991241,-2.804348731993367
2.144,8.99570038111276,3.2657985395476143,-0.43263527061761353,2.193252480836464,-0.5746364832944502,1.8229206210285231,11.778668590242354,-2.8046180210926637
2.148,9.804947745497397,2.6733335632776978,0.09641467413586824,0.7207492807322771,-1.086072184657791,1.7325929478608213,10.950170311744014,-3.028320249709153
2.152,11.265123691952999,2.419163365818691,0.9842741950942315,-0.19983569150381952,-1.565967141113899,2.0086625508018443,9.816662059622605,-3.312282978022031
2.156,13.130257318313983,2.308427543699324,1.9515364084380034,-0.0874157997270677,-1.8797373503605275,2.7193330220971883,9.054174267405374,-3.389174209449717
2.16,14.64037525839657,2.084607048421919,2.7389384330866835,0.9864217670894311,-1.7715151786656178,3.622796336223642,9.246558262681365,-3.1496229104730213
2.164,14.809549767503478,1.4734916237776496,3.0650690690323508,2.3524564043515364,-1.1501112057153082,4.1935616607386486,10.42160709439776,-2.8132602762402508
2.168,12.944742446230691,0.27154703784240564,2.6790126005630475,3.056347097353828,-0.29126004480401435,3.841179749175752,11.876691157699575,-2.8513842997586765
2.172,9.134325993507929,-1.5110531851062827,1.5360832999605178,2.3994331647728195,0.2203585517108575,2.2232455189340112,12.474659178554006,-3.6914462160388677
2.176,4.397281044453526,-3.5596350205616107,-0.03271503312469071,0.39823942535951423,-0.20739368343504538,-0.5080996838130698,11.291539784452468,-5.370034205247217
2.18,0.3459906596624849,-5.305594902665849,-1.3271347040970136,-2.118607981925034,-1.800176163560422,-3.691745606212664,8.230690433294772,-7.379323153717758
2.184,-1.5227612400163026,-6.140861291664658,-1.5441440489588,-3.8804317427355057,-4.1933344977898805,-6.417289286358656,4.2132768327810926,-8.853745008115814
2.188,-0.5869716830597603,-5.741699563631128,-0.23247526582346817,-3.856578432902155,-6.546160550556211,-7.948470619580772,0.78004290948595,-9.015010660193902
2.192,2.495483995161679,-4.311263795760695,2.3350532869104477,-1.8751803285424151,-7.944990144222572,-8.085896520243486,-0.6929477996790048,-7.626314541862098
2.196,6.020294145824931,-2.5660422857831096,5.13462111104723,1.198218919924323,-7.876135421631099,-7.241476895444823,0.2845973031984096,-5.164701094505988
2.2,8.042217310874783,-1.4156422837599596,6.806293590753716,3.8630239327668923,-6.493054019764817,-6.185894414721208,3.0752801433523773,-2.594310469516693
2.204,7.358145861075449,-1.4682668620352803,6.344721331807026,4.77209826609572,-4.497479670700948,-5.605243212167773,6.305422442320096,-0.8574628062127494
2.208,4.142350454936108,-2.6554890121220875,3.670260616762621,3.45761075657009,-2.730323234130746,-5.725681613307934,8.628409616122237,-0.38191542599289496
2.212,-0.1339073037365175,-4.215029995223235,-0.2556047442011651,0.5762220099796944,-1.710944289918264,-6.236346472858597,9.402594039919432,-0.9068659647529289
2.216,-3.4907880044354336,-5.106352282974492,-3.8977056653456286,-2.4844401750295644,-1.4182074494075771,-6.547507828719899,8.884527745683734,-1.7106126484429955
2.22,-4.507973219151472,-4.626314031162552,-5.953246557797621,-4.405838950736641,-1.4258019232780392,-6.214462474449142,7.8546852661462,-2.091064751457541
2.224,-3.0884905296854708,-2.8526553054599253,-6.033713069311218,-4.666927052032373,-1.2614415924198186,-5.253912109690793,6.979786456550025,-1.781351246027926
2.228,-0.5139722633138459,-0.6652135893809232,-4.844283968396426,-3.7918524069749675,-0.7602597514114909,-4.15698658059851,6.343430087633688,-1.0530550813892017
2.232,1.265427205189253,0.7201026063740348,-3.7318867570487315,-2.9629643852936116,-0.15375959462483157,-3.592086689300491,5.458758230530588,-0.46545526755586586
2.236,0.7056724522410907,0.43949453939486804,-3.876516082427573,-3.2530192046614577,0.15462491686766555,-3.980662798231787,3.7097565193661364,-0.439302006029032
2.24,-2.5070247515074877,-1.5130221504629604,-5.604264946712215,-4.951804664993097,-0.03652663150072688,-5.2279394173455955,0.8967559994135668,-0.9632650136296972
2.244,-7.310894411259385,-4.2515038951858335,-8.204441785894295,-7.375747572354385,-0.4627068340220071,-6.768297846889505,-2.5009085967978812,-1.6215079993276478
2.248,-11.86844655691177,-6.481308612916379,-10.366836280773292,-9.278984506123336,-0.4683436059164696,-7.898960989618734,-5.555573381708527,-1.9148616912029666
2.2520000000000002,-14.54203073455761,-7.20377069476077,-10.956824457453838,-9.590516853782153,0.6035561538837237,-8.19305979091478,-7.461090422731656,-1.6500210581739365
2.2560000000000002,-14.711915349863455,-6.258253158386848,-9.685581257119773,-8.048263225456559,2.9159099230410748,-7.729631133409608,-8.04994375756658,-1.1133604194326978
2.2600000000000002,-13.03001746148247,-4.399271032974331,-7.286297297168628,-5.364781613398724,5.855747745221563,-7.013675024576567,-7.91392564711092,-0.9084063892568326
2.2640000000000002,-10.983010863895256,-2.8437564490725817,-5.083794175922623,-2.8219831186341624,8.210401554749476,-6.6337698913016006,-8.021147769652318,-1.5462845382241421
2.2680000000000002,-10.072317302759643,-2.582356080694324,-4.239990529482609,-1.5685236992007086,8.736992399743817,-6.884480657883258,-9.074293344082367,-3.0579657682009596
2.2720000000000002,-11.07026039475696,-3.837025475414892,-5.103794343976277,-2.027008867427279,6.855023869652979,-7.593479469774424,-11.029302885579067,-4.894040998832895
2.2760000000000002,-13.70898839079023,-5.958912944586182,-7.0257995686546,-3.731093943778581,3.070682511275206,-8.238269227194158,-13.079165954656595,-6.181473764544531
2.2800000000000002,-16.90679131824647,-7.806101528827554,-8.73317927058065,-5.653626010448404,-1.1368892306361884,-8.278323056938202,-14.129330264450225,-6.20446705042184
2.2840000000000003,-19.363447643683735,-8.377124194140213,-9.03446488725684,-6.8125253375288946,-3.941973134654507,-7.496112958007534,-13.477571856609188,-4.826154501362275
2.2880000000000003,-20.198478281178442,-7.3661421327898635,-7.477614343936255,-6.805268479588764,-4.039088830282156,-6.134206200446099,-11.28144250973428,-2.599667027650492
2.2920000000000003,-19.321573054349074,-5.32482397796431,-4.596747319495959,-5.979678151404898,-1.2938608386120298,-4.7535103545455755,-8.518722506076438,-0.4997183667443452
2.2960000000000003,-17.40590767252535,-3.381537959777902,-1.6545053770346736,-5.190948981144669,3.1424425526006035,-3.9148081366805028,-6.472323911129304,0.5697362756489521
2.3000000000000003,-15.518096732639817,-2.6714464983103365,-0.02691497313346236,-5.299265576726199,7.329801000316286,-3.8804919559930475,-6.067377692446904,0.21456239115814246
2.3040000000000003,-14.59943515844525,-3.761961034909529,-0.5509815524061628,-6.68788737798629,9.424951056340692,-4.499413349069062,-7.4365582350722,-1.3065973049057265
2.308,-15.071555371606435,-6.386752181959484,-3.1756250302253775,-9.074401688808852,8.497321912344336,-5.328273077883262,-9.94411821864725,-3.2820558585509922
2.312,-16.684973041380452,-9.563335056225354,-7.019077405505557,-11.65726119343083,4.918722427589149,-5.898748264167308,-12.607522999570499,-4.950600048446875
2.316,-18.649339121448463,-12.0309534008465,-10.783511498217353,-13.496008206486612,0.1524036725947857,-5.953421313014681,-14.621981441032045,-5.868211610943663
2.32,-19.995096830480456,-12.797932693265547,-13.311458323625562,-13.935021318778736,-3.93950399564973,-5.531265748750222,-15.685701089056067,-6.050967142524735
2.324,-20.004449008569402,-11.535663063458493,-14.010443294346826,-12.863636272807309,-5.899891780515108,-4.87238280620159,-15.979748348590157,-5.8541823861829325
2.328,-18.534603169652772,-8.683103219209906,-13.005217009229945,-10.733527027819079,-5.241177344337039,-4.230065695320536,-15.89349850504022,-5.707918323775242
2.332,-16.09801953714016,-5.2253979369311025,-10.985772504062506,-8.34505712800047,-2.5307025577130338,-3.71876333221479,-15.70871273543505,-5.8803583117928735
2.336,-13.654295545770044,-2.265091199214861,-8.859977585994171,-6.520145090811293,0.9774708918334507,-3.283362424636224,-15.446640387641587,-6.383144473600325
2.34,-12.193474937173702,-0.580171736578039,-7.374091248887957,-5.80005186939133,3.934956540215299,-2.7974640701126168,-14.955278223530104,-7.038292853901902
2.344,-12.299548336989192,-0.3458155924895745,-6.843432997259155,-6.274639475893666,5.435200136494521,-2.2071874401540383,-14.107067342748536,-7.620995982885122
2.348,-13.912044964161145,-1.1390843671211162,-7.095010661386743,-7.602174701218057,5.257879379275428,-1.6204759904288244,-12.94140480817478,-7.971970343164436
2.352,-16.380914653407842,-2.1795049684274894,-7.593636451229763,-9.168941854323695,3.804079241730725,-1.285925281241936,-11.638856904651284,-8.01935748294849
2.356,-18.79684515346929,-2.7086207233426025,-7.702530070471466,-10.338051447778227,1.8101063689589674,-1.4658928742126913,-10.363404554840503,-7.733495673388026
2.36,-20.403083839743214,-2.3239328747516854,-6.961461372549575,-10.679837196464694,0.013822332099564572,-2.2840438872864515,-9.116791033822851,-7.090966514894824
2.364,-20.86445230454862,-1.1085233580949188,-5.26211383418124,-10.086551725085497,-1.0723427053434271,-3.6271206377326313,-7.727274238051413,-6.10149930379331
2.368,-20.297629633917,0.45423853875050013,-2.8835081437269787,-8.752222319526341,-1.262544623037504,-5.15370576423791,-6.004639048478639,-4.884672611398395
2.372,-19.082323803782074,1.7450792912820754,-0.3565570452230178,-7.024226402585942,-0.6675761859890126,-6.403192415729062,-3.945199673435436,-3.7184667846887423
2.376,-17.605017204652484,2.290205016032235,1.7595526192946351,-5.225529023772019,0.380646564229413,-6.959098600767154,-1.8308250037190776,-2.9807158418270756
2.38,-16.097659349350582,1.9391827534711363,3.107684940150814,-3.5235056477353757,1.4296794567259719,-6.594727557513412,-0.11666698679763332,-2.973879193710899
2.384,-14.619620940864019,0.8988042526713611,3.675428141813579,-1.8950736024272956,2.0454447151512216,-5.348087074161828,0.8467957503854127,-3.7150519228585512
2.388,-13.148005962970377,-0.38601101723111464,3.7683923652434697,-0.20986711268382052,1.9572546119927527,-3.5068496454767195,1.079243836285169,-4.829627912833873
2.392,-11.690462544018427,-1.4248997833791774,3.837336213853977,1.6222626818196133,1.1818241030233385,-1.520672501310227,1.0313265501590951,-5.6588275722123225
2.396,-10.331135797172806,-1.877864551367542,4.2151365145370105,3.5140691343699935,0.034893645642160465,0.12326008604069494,1.3559281827136225,-5.563725878836142
2.4,-9.18680176157406,-1.6727736141324194,4.885283699611691,5.1636880873750854,-1.005215656711135,1.0285892694984402,2.4972022111212295,-4.28744071194461
2.404,-8.338247115642043,-1.0016749604272477,5.426878141519527,6.154836731380906,-1.5309377969713511,0.9968461567170065,4.3439124725511515,-2.167480005232841
2.408,-7.824109454848865,-0.24062602901942798,5.171442163345565,6.144823172023706,-1.4473294535265973,0.08544846342938966,6.163327611609157,-0.0456859621292125
2.412,-7.6648423581362,0.21756088355765435,3.548730513984617,5.085860705647352,-1.0379948795954768,-1.3879023201204446,6.9188218823981025,1.1167799906217417
2.416,-7.87556218927541,0.14736817359525078,0.44439679474098703,3.3484057198179125,-0.8113615180603304,-2.901902865915422,5.821052062496546,0.7258664977690747
2.42,-8.429118102017014,-0.3958452949095552,-3.627908375361737,1.6482186797773855,-1.2009943002519077,-3.869748215024737,2.79895032018469,-1.1267782655411525
2.424,-9.162786316440158,-1.0729963734848391,-7.638769406010398,0.7916402566166219,-2.2643242522513694,-3.8166783964132653,-1.3604773243099295,-3.6938901226193694
2.428,-9.718241052259694,-1.4096905370013413,-10.437370408123865,1.317542036861993,-3.603377967624649,-2.546862920481796,-5.306787087719551,-5.943009263642315
2.432,-9.614524660318747,-1.0357558203953419,-11.244908485601723,3.2021519716395392,-4.56533811073434,-0.24728506276598583,-7.724598212109983,-7.074178582245725
2.436,-8.503429848944302,0.0687638882489276,-10.023934263016429,5.765786060581652,-4.641892079821763,2.5163695929998964,-7.940124788718263,-6.894719941864345
2.44,-6.456656818266787,1.4703963121251382,-7.5194000874309905,7.887324180134052,-3.822624510619048,4.941172366572054,-6.2215952988856005,-5.8401530688729455
2.444,-4.077355532609857,2.4263288265221696,-4.918781339353646,8.474850309068318,-2.6540127073345476,6.238233467181778,-3.6121092261337826,-4.632735168094845
2.448,-2.3097564143547444,2.2277006672946613,-3.3035686634089703,6.977315393215538,-1.9552258735435486,5.904450358104259,-1.3956248435865355,-3.7992577397781613
2.452,-1.9477630245751754,0.6181672692659159,-3.134714802352808,3.730273107610037,-2.3051430196770357,3.9302751268791916,-0.46180873638136744,-3.335519707567886
2.456,-3.129690402911434,-1.9738655679669632,-4.063435354894345,-0.0941976605116226,-3.6302833722502448,0.8550509381063076,-0.8940946666454588,-2.730030116250474
2.46,-5.159073547896134,-4.560268334987926,-5.172881075543234,-2.957746488039252,-5.170749205521959,-2.379559941516697,-2.0136565917700775,-1.346916191428761
2.464,-6.8030706957431795,-6.0327663464633146,-5.502453155192368,-3.6324146927740752,-5.852188691091978,-4.7402911076633405,-2.8059565892626104,1.0820678565170314
2.468,-6.943709254176853,-5.722454848800692,-4.580820673154024,-1.7619431263284575,-4.885164090506638,-5.462813466228074,-2.481522846985731,4.166530510599641
2.472,-5.236155512981782,-3.774326182194349,-2.678851839542536,1.9720580454819743,-2.2432718549122637,-4.332779976309618,-0.892968945395785,6.957048669402687
2.476,-2.361314712327382,-1.114368229772754,-0.6617396275749781,6.165643997931752,1.2622701699933714,-1.778836428081819,1.4142677703105377,8.405127650150071
2.48,0.33256244958931847,1.0024395013552319,0.46755478977467213,9.3445878193284,4.362760451347615,1.26254680645597,3.515999509578926,7.922387052119861
2.484,1.6027213974062944,1.636809390272389,0.09094534352419448,10.61958942924586,5.97186925464424,3.6718712458362597,4.603606396450012,5.7173601266721885
2.488,1.0435206886016264,0.6370709178145226,-1.7354582739867688,10.011290139288578,5.706885397077198,4.54393288294614,4.380942914709968,2.716696654758148
2.492,-0.6743409084714127,-1.3131456989715775,-4.3510648362846975,8.307973063554366,4.028366789939417,3.505029504960542,3.166088189812654,0.10234391377385821
2.496,-2.215236222291161,-3.097514511765513,-6.8562971802160915,6.567072861280984,1.9372556793155544,0.8458826042331311,1.6642021670137055,-1.263593440162654
2.5,-2.3882570886415238,-3.7797165253025504,-8.552007217905679,5.572303978227444,0.4319639674957738,-2.5724984788676206,0.5701085217136663,-1.2016342327067808
2.504,-0.8836096220869414,-3.082630865626918,-9.21896646627808,5.529403005610218,0.03942336167007898,-5.617866973211472,0.21765581460924643,-0.19051221876124957
2.508,1.5290661174417775,-1.4815370210098322,-9.13313508732984,6.117290676799422,0.6360322305332988,-7.285807489046403,0.43808914434277746,0.9863322981941409
2.512,3.463097261062539,0.1310798577601623,-8.839684750549278,6.814700509763578,1.620186219544637,-7.060072704019489,0.6926195561174708,1.6906935753394992
2.516,3.7159228601992034,0.9714704642189265,-8.849267431460046,7.24343385619725,2.2757033207011834,-5.110805449645026,0.3798812524732158,1.7132449060881063
2.52,1.907181249447432,0.7540960897085378,-9.435518058946858,7.304662847399112,2.0955485674932723,-2.2536436325737275,-0.8568237678245212,1.2504533030122689
2.524,-1.3875726973369928,-0.23840794317651426,-10.589613206719395,7.080103591375822,0.9326085387113316,0.3386536649067424,-2.9656788112656853,0.6401441414709939
2.528,-5.062898266915959,-1.4201940366685495,-12.115864439906805,6.607839098016373,-1.0448823033594037,1.5722238155802228,-5.522871675446005,0.0664460054977658
2.532,-8.160833516562626,-2.282695787671197,-13.759156751941683,5.739529249922359,-3.475115415412731,0.851718699201792,-7.905454758397724,-0.5591627357568564
2.536,-10.342877524293868,-2.64055484981318,-15.290144996579103,4.20980485836127,-5.9004589786638615,-1.682088230344294,-9.517037109143729,-1.4735552597163601
2.54,-11.899971315932724,-2.622279762559768,-16.55291852970795,1.8646099087968344,-7.820340518008276,-5.215262063537894,-9.98085557176025,-2.803775765684313
2.544,-13.329872021427235,-2.441731672779661,-17.47909872119054,-1.116108091066079,-8.733634939971504,-8.6012363615806,-9.245208140601457,-4.373897486403068
2.548,-14.828680113195905,-2.1674805192814253,-18.1056793559521,-4.193823655209258,-8.258746777683688,-10.838559485278402,-7.5927440314065064,-5.725066118833539
2.552,-16.072464631190666,-1.6578356985922502,-18.578324489465167,-6.691887985226249,-6.306981294250946,-11.47488207650117,-5.560117073986088,-6.3553539026573205
2.556,-16.40326471341715,-0.6954836299643494,-19.097890315763117,-8.125767671343759,-3.2086758371932014,-10.74286283587795,-3.777428728711387,-6.018961018840448
2.56,-15.273333683040768,0.7926565108410486,-19.79068753774617,-8.425994420610978,0.3307201586760953,-9.365142508609281,-2.7555782872579027,-4.887836775507557
2.564,-12.63993924785293,2.6114073688548163,-20.55903643442307,-7.917744187889554,3.4832539640786013,-8.13879966856184,-2.6915616396130266,-3.481144777813248
2.568,-9.044735723484564,4.351630319898617,-21.033084172331854,-7.077937874627974,5.635476191418106,-7.524223726362728,-3.385576935347401,-2.408886260614409
2.572,-5.33254206750835,5.608752825003121,-20.689025106826513,-6.2305034680454,6.647179781585393,-7.4533955402949115,-4.322340816025198,-2.089262862012479
2.576,-2.2297442679354695,6.189005681646946,-19.145003972893484,-5.406713321108796,6.845670465683768,-7.459208791744758,-4.914780303712098,-2.612625525713579
2.58,-0.0835152310223517,6.145747606848625,-16.49878797158228,-4.464731722456047,6.731349760342486,-7.040360430078304,-4.816316547080902,-3.811493905778196
2.584,1.1197109145044557,5.648765142579883,-13.4688436448123,-3.3483247030593013,6.604436521406218,-6.029170654433824,-4.124431513987435,-5.4376851710864305
2.588,1.5322013053642793,4.776835050525422,-11.208258897110802,-2.2901108697741464,6.32934483824818,-4.737366515180357,-3.3505393850175444,-7.309039896463762
2.592,1.2390115072434753,3.421375760316102,-10.80056097982233,-1.764878069626234,5.430162167186306,-3.78353135050959,-3.1443135789901264,-9.320473763634817
2.596,0.24757931919576492,1.3899926852782964,-12.678988496981706,-2.2020497588990016,3.473329102886776,-3.7008869253886765,-3.913691424699328,-11.325144396804584
2.6,-1.3281321814788642,-1.3455346089809699,-16.293079401956273,-3.634752387084402,0.49006229458989337,-4.562881202850559,-5.552815566181193,-13.005508867355934
2.604,-3.0634575637577495,-4.422577638243233,-20.23093122475834,-5.53388001176606,-2.8404101396670143,-5.8609038677628424,-7.456322289897708,-13.883950999170352
2.608,-4.241912288343099,-7.096888842723482,-22.807326247077704,-6.993916536462887,-5.431277233087126,-6.725867005252734,-8.833725462480045,-13.512221508558126
2.612,-4.133037393051984,-8.496826799118015,-22.81400525678186,-7.155625787437906,-6.313544722534715,-6.37101696920924,-9.145852086536458,-11.734663587494744
2.616,-2.404540948021869,-8.023181235911567,-20.060704519976653,-5.641714583964941,-5.158812761510842,-4.5202664237626795,-8.4080085886597,-8.856782385372922
2.62,0.5899311049501073,-5.680515547038736,-15.42440663708793,-2.756250437660198,-2.487325128483076,-1.5897301728550666,-7.160296971275502,-5.585327792373146
2.624,3.8953434836351186,-2.12575412121546,-10.3887635135648,0.6866307316034668,0.5830439898111468,1.486939961161064,-6.122889926690629,-2.7420915780318325
2.628,6.379719836622411,1.573731253609683,-6.362259116777495,3.7654973150383517,2.883108286395374,3.682103242390949,-5.757127759330167,-0.909452805332382
2.632,7.272079466313499,4.363850981503288,-4.12057082256957,5.846186718333079,3.741775809177242,4.3188365398311115,-5.9977874740733235,-0.20947101070073515
2.636,6.484195348463001,5.5780710456230596,-3.6482902340661565,6.742252168974973,3.22740048069163,3.3211213541907068,-6.316612439741017,-0.3347148938661917
2.64,4.547952668661007,5.104600682069407,-4.389557387512946,6.603316529275737,1.9777147358219231,1.1802637249591297,-6.067092249457751,-0.7913626023323008
2.644,2.258476557678886,3.3475789824105293,-5.6581291806615175,5.695792314918871,0.7981301229023412,-1.2929837377058524,-4.86786039152569,-1.1711869226704152
2.648,0.2608382903367934,1.0289174227003235,-6.945714062139988,4.263095845166429,0.2780120227023888,-3.2818589894320764,-2.7829526948325656,-1.277066978095002
2.652,-1.1493385845759185,-1.0239781152289682,-7.957688796173659,2.579156536361115,0.6574746990995202,-4.201388512434004,-0.1905543007781958,-1.0608975579342168
2.656,-1.934144764228698,-2.0653729321377345,-8.453192770705101,1.0947398924801317,1.938094355285552,-3.8090851778693233,2.5256977351101098,-0.4774317407659865
2.66,-2.087048030503176,-1.6151974762537065,-8.116503526276253,0.46798037750499644,4.054394419030034,-2.2308947422156478,5.201660483067013,0.576520537917288
2.664,-1.5070902259913912,0.35523234071598186,-6.651875083444695,1.3337018626403379,6.916650394070061,0.05410713076966278,7.8283957451520045,2.1276508894008543
2.668,-0.12485641509169998,3.269690168327225,-4.099118203379099,3.8625877639430257,10.240115673891816,2.265321894351215,10.223178987288986,3.870094292210897
2.672,1.8141830402027164,5.965401722089604,-1.1362184367792147,7.394296856522059,13.317296756989574,3.446756552067732,11.705316633759034,4.992826747771714
2.676,3.5592210229765824,6.980302062709455,0.9146216842950077,10.444494157455694,14.984295355844216,2.716382532520172,11.082324312616842,4.313032630212595
2.68,4.00862043302477,5.097391214854972,0.525517018473892,11.225880062354403,13.942878704830685,-0.39735516296900686,7.095770467847351,0.7606533603654171
2.684,2.2341920287957113,-0.032730394031720955,-3.2913936908926225,8.501076997941022,9.381593439488721,-5.656215699161134,-0.829592369285852,-5.990235652612739
2.688,-1.894655859393414,-7.522001250571634,-10.310415801254173,2.3279512160496854,1.5704589203830062,-12.02652028549026,-11.93864638971087,-15.074495408749963
2.692,-7.362704726555085,-15.359403011405252,-18.882429381032942,-5.720767922919094,-7.923398101034839,-17.920433290562517,-24.02394196072565,-24.482513212039485
2.696,-12.21180261885291,-21.051388480662396,-26.39187894187024,-13.052310828535317,-16.61737913651892,-21.715057307621485,-34.006180509883,-31.660643094220625
2.7,-14.298972671981998,-22.56797979695504,-30.2263473689707,-17.08060632432177,-21.99911674625384,-22.34863561518261,-39.01967209254356,-34.42782070519168
2.704,-12.256082563965972,-19.157897702244448,-28.817123832378364,-16.29547892015957,-22.506053201014797,-19.718022717906237,-37.511068941780884,-31.787528934974695
2.708,-6.151797506492347,-11.656077775034854,-22.272597838088867,-10.851311005560007,-18.139543541335996,-14.682941011512597,-29.831788727083513,-24.25018175432467
2.712,2.5003042820600427,-2.1313484664635594,-12.308590030375726,-2.406933451518903,-10.403473266232098,-8.680136087778456,-18.05734490318131,-13.55221190909049
2.716,11.373385082313138,6.928648014111027,-1.567072131645069,6.637609181115221,-1.6353779463832225,-3.1447521358195,-5.153106299806871,-1.968563314142191
2.72,18.253655401640348,13.496281808116404,7.3447297387249675,14.09585427842904,5.917367207850447,0.9777427920946151,6.100635304538082,8.43439783181788
2.724,21.808148627158292,16.57699038524908,12.673120603745662,18.691559396988204,10.846721063507562,3.409785911299412,13.92882041115719,16.272226900302908
2.728,21.836510132037144,16.26649444071422,13.873489041709561,20.22309105703446,12.831290481339117,4.3836024746931095,17.83712519045732,20.922618894901596
2.732,18.99162195140265,13.398251881713305,11.491827866879575,19.263444452670807,12.391629064175639,4.310226978117542,18.35416253789476,22.331686506846285
2.736,14.223615692732345,9.04343329131486,6.729142569627492,16.65895539865911,10.374222927450582,3.499230054321212,16.494567462206632,20.778663949869987
2.74,8.3298588658473,4.142073643694001,0.9464881505953748,13.148707309519775,7.488742069304166,2.0934914977774373,13.265013314118981,16.785175383644567
2.744,1.8589179444255843,-0.5903805837666205,-4.660771304636722,9.27401120579793,4.154306382033834,0.21274699179790502,9.421266298412814,11.180992696367102
2.748,-4.685943499044864,-4.584416667494317,-9.207405844926049,5.494406634681473,0.6236104626149888,-1.8501093038850103,5.47162622380141,5.161087258293451
2.7520000000000002,-10.572037001684548,-7.308107274020125,-12.132475435647594,2.3382401884344004,-2.7733169202476717,-3.560686580462974,1.8050671932888847,0.15231373344128585
2.7560000000000002,-14.761046633886622,-8.275653715919148,-13.173191454646403,0.4197274420261454,-5.492306843307829,-4.285731615838635,-1.2135049575537495,-2.5452825599194977
2.7600000000000002,-16.180970560448678,-7.2075732907973,-12.347450074906712,0.2694776104204477,-6.8791081567112915,-3.58907670441158,-3.242199825232894,-2.215769413839322
2.7640000000000002,-14.22775647445104,-4.221811576419855,-9.950949636929804,2.0744106213766402,-6.463512142534443,-1.5052917141562963,-4.041451453937576,0.9397974641502209
2.7680000000000002,-9.208467294464839,0.06779940073152169,-6.546518011450404,5.488842315801968,-4.276179857831764,1.3874967094697357,-3.5776231283011866,5.802456232665743
2.7720000000000002,-2.4422675245318493,4.6526399322985466,-2.8886992008802723,9.648301538997712,-0.969309034792246,4.1623087866645205,-2.08367813879323,10.701690207841965
2.7760000000000002,4.084113864659543,8.397619591965809,0.2126877036027821,13.386706129680562,2.3457011334369375,5.922169053335225,-0.044796141284302315,14.004450660001122
2.7800000000000002,8.401763215449431,10.373329465211643,2.0705508902358294,15.58342585911766,4.499526526050839,6.176585497446164,1.8859315352022374,14.680875685533685
2.7840000000000003,9.304096578063792,10.145654400077209,2.316253120703097,15.514537428470259,4.744697153481635,5.029792535967947,3.0224771812825386,12.620212601131964
2.7880000000000003,6.814828180012663,7.89645209476189,1.0385122292795357,13.071741986793459,3.0635633380279867,3.0993492048742377,2.82034974579852,8.594845219263828
2.7920000000000003,2.171336710464452,4.3647125321352815,-1.167007491157783,8.805614355552484,0.18452658919677312,1.2217396041847253,1.068617924767394,3.9343203101997943
2.7960000000000003,-2.6651382889025044,0.635057224602235,-3.2971901523517873,3.7817251754174825,-2.706344907148438,0.09919090461795688,-1.9755000848162911,0.06027051505740211
2.8000000000000003,-5.799151822146272,-2.2108269331682155,-4.254519330048004,-0.7338447679538267,-4.461433154131944,0.04140144007396018,-5.600300536690545,-1.9692576440084428
2.8040000000000003,-6.152595512369015,-3.460208998590451,-3.287592612960184,-3.6702287292432176,-4.4386780300971935,0.9013705589673207,-8.84735808763051,-1.7774296787444426
2.8080000000000003,-3.880417314180739,-3.0503086029942383,-0.4092734420525441,-4.524313100107094,-2.765694137791457,2.1890814406210435,-10.875210304481483,0.22350220793787257
2.8120000000000003,-0.2901615507809261,-1.6238042217221436,3.447697978373043,-3.5487187642883775,-0.26824571258625385,3.2940077879543637,-11.31424763721539,2.970635546471011
2.816,2.7098751618147228,-0.29350451188622806,6.679381259142273,-1.6605499494503144,1.9072498123924535,3.7205988030780714,-10.429007296487896,5.110815853114945
2.82,3.4214519794739298,-0.16889463447974506,7.634594513657102,-0.068389127463786,2.796965749734066,3.2491004333938958,-8.973497164143247,5.492376308309208
2.824,1.0915203005107887,-1.816909558576735,5.389216326960347,0.25243202667617837,2.034613146098515,1.986986212229946,-7.788598441515253,3.6298984208950666
2.828,-3.7291842400241695,-4.92419807616707,0.28050845011433445,-0.9937638404110603,-0.021027736249710216,0.3178339913884969,-7.338770068453469,-0.03851179845139763
2.832,-9.356875193012467,-8.350886666566794,-6.106728652404649,-3.2649147333455044,-2.488620927429314,-1.235071969250349,-7.452487146023571,-4.2624765294795175
2.836,-13.659744104366448,-10.621986077400289,-11.567920381052714,-5.432530314942261,-4.391156632684665,-2.1915365318862974,-7.431818857221619,-7.458463960830583
2.84,-14.980286661330805,-10.661283484995703,-14.260933077162711,-6.339924591900035,-5.106243620978837,-2.294291469154312,-6.476585030280038,-8.38103074005425
2.844,-12.857845938205728,-8.371266887149591,-13.5514416889529,-5.368838231392818,-4.60701999420016,-1.6123320847658866,-4.200626357368401,-6.6977985597459
2.848,-8.27015043484127,-4.774037113667232,-10.311594807342464,-2.7585539597541744,-3.4117860392047517,-0.5205235256284131,-0.9591539648559282,-3.176198144055423
2.852,-3.25140284936046,-1.5803771608743524,-6.47714536722547,0.5051174172503314,-2.2699022451660626,0.44764707565670503,2.224229707737085,0.6337633640997811
2.856,-0.022874050983872074,-0.37449221430894447,-4.090332945541185,3.1725975290414024,-1.7680244545968917,0.8280794117581125,4.107149169445235,3.083843214033305
2.86,-0.04406550973520362,-1.831948643534453,-4.329398406790702,4.320894131446919,-2.0773998709258517,0.4386400284390026,3.812681435641665,3.156723482732334
2.864,-3.422645955231576,-5.386241709623321,-7.020910010121682,3.7407687170800843,-2.9508665792856954,-0.5418902423236232,1.2338897609473736,0.8797919761988291
2.868,-8.943305604335118,-9.537682352508396,-10.869920503690446,1.928399072392363,-3.9514762740690443,-1.6579857840278056,-2.9461318186261023,-2.7627913548255076
2.872,-14.668988360247386,-12.619214621560742,-14.220561047856485,-0.26342278106440986,-4.739444402696817,-2.390339371205862,-7.592711329042696,-6.347840626909791
2.876,-18.830588715256336,-13.630200412409883,-15.913731313095857,-2.106582917950048,-5.248153423754992,-2.4032876266010237,-11.632918805518052,-8.684632777513189
2.88,-20.588468672353578,-12.711889070137442,-15.789739570249825,-3.335969926133205,-5.661830868302338,-1.7016191628568287,-14.476707427637901,-9.312452360007713
2.884,-20.29185540410603,-11.002808144427213,-14.6017793636585,-4.15987603266746,-6.2193877112761395,-0.6197502221882882,-16.15072163599594,-8.601396575986517
2.888,-19.15632867028586,-9.993409333268739,-13.483181080729658,-4.991128365112631,-7.009793267513433,0.34293370700847503,-17.126079678498158,-7.449003433989497
2.892,-18.552829656766733,-10.726359438333038,-13.291716959923509,-6.087357831048758,-7.880927497759972,0.7456491553807796,-17.972289595822023,-6.7886148206153
2.896,-19.261624849997425,-13.257605679865996,-14.203467146119305,-7.317276783587483,-8.516180842483351,0.38793163637780914,-19.03303822310204,-7.159283700928591
2.9,-21.07399460281541,-16.65544884078594,-15.738475929953644,-8.20087564670112,-8.63773941254671,-0.6368617719895551,-20.276013508296643,-8.525640276102934
2.904,-22.92894380993188,-19.49714291539122,-17.119551451731766,-8.19272097471126,-8.188851800829724,-2.0215410302523162,-21.37555206658586,-10.391525880199655
2.908,-23.492370749490902,-20.585462926165768,-17.70849486112467,-7.030482719845052,-7.3829871779970215,-3.384368083467826,-21.931590724999047,-12.072063496218211
2.912,-21.8537087788959,-19.48659802586841,-17.258909516030553,-4.915482588017813,-6.583487811547382,-4.396479683492989,-21.68581583666074,-12.973215029114453
2.916,-18.01578791017759,-16.655231003451707,-15.908780213716842,-2.4384144359242335,-6.10802072031482,-4.8465437127340625,-20.636895628439376,-12.764665209709246
2.92,-12.947859730368462,-13.137269076310723,-14.008958028485251,-0.2976567983480791,-6.086490845162527,-4.651080528062318,-19.02452099384887,-11.410968012934394
2.924,-8.165383196248113,-10.02577736641534,-11.93547002025001,1.043738693315448,-6.435554048538066,-3.8482984030622718,-17.204835975236204,-9.11040910139241
2.928,-5.070925270476565,-7.991321708801067,-10.023234410269623,1.549973161772792,-6.974443993520553,-2.5984642363849284,-15.498184688201704,-6.209016880358779
2.932,-4.368724545284005,-7.082449107209778,-8.587307942497766,1.571814719439275,-7.566051453950639,-1.1802710642560208,-14.072023013998937,-3.1224508141105822
2.936,-5.813269046677703,-6.853678922620787,-7.935508034440089,1.6116633335047608,-8.180272072593354,0.04190342542388237,-12.907033547333988,-0.27062033662634155
2.94,-8.392040882710125,-6.703691432908586,-8.284421080351155,2.033770085931134,-8.842378853331425,0.713561485904235,-11.844187805770803,1.9944656093423512
2.944,-10.808351429803315,-6.194475964600105,-9.57038311050388,2.8994062829946134,-9.498984174999588,0.643426183879729,-10.66861255430175,3.4744158620418157
2.948,-12.026892489644542,-5.2106718621662536,-11.293490434985916,3.9970148202565015,-9.936191890476064,-0.0627424826697589,-9.205002545933521,4.188356849805766
2.952,-11.633713847052459,-3.9044708605602425,-12.540610500137191,5.025853212465005,-9.830981195888851,-0.9887471643167118,-7.393598564287055,4.361213079691339
2.956,-9.868929948952081,-2.5141244373388187,-12.258430248850791,5.799724137795815,-8.94312879463906,-1.552197283999598,-5.324656227875294,4.332092106420905
2.96,-7.386129653761631,-1.2048965004132768,-9.69544304766082,6.328219124443443,-7.353551724860981,-1.2779134900199316,-3.227498970487578,4.401255545647601
2.964,-4.907977443925071,-0.017252368999337575,-4.787728204599255,6.725271917087296,-5.563838302244676,-0.06815194373335487,-1.3935832645727004,4.681565060461105
2.968,-2.95344305779515,1.0623779945354594,1.7176439925274987,7.018141261594756,-4.367699960458907,1.702393629698614,-0.08137125794169497,5.046629934469102
2.972,-1.7192421520105656,2.015827868669425,8.522154537793682,7.0278155026918165,-4.485449338120204,3.3433632011264116,0.5881549537468467,5.208080350900743
2.976,-1.1522798351921262,2.7622661876201975,14.294580325845267,6.411301619041619,-6.141284929254832,4.2013321493632265,0.6952801077259942,4.884338280829722
2.98,-1.1117689314542287,3.2167241154582653,18.197140647529473,4.872114524777092,-8.831120803052404,4.023172653513807,0.5005634324858739,3.9688698180163033
2.984,-1.495999304086748,3.406500331343439,20.158766156046315,2.4263634442643585,-11.435952738548401,3.115766277932389,0.3363413425181958,2.6015650779809394
2.988,-2.2861088682032644,3.5104017787682578,20.738232309135654,-0.47884693272451795,-12.706638356166577,2.1870724160939568,0.43350619427502846,1.1026171532791746
2.992,-3.489419844407535,3.7817849084724258,20.702323791035205,-3.0810992986725907,-11.877488611933916,1.9381559188640334,0.7713943152453997,-0.1861186207843733
2.996,-5.0732933505791085,4.361204327435304,20.54944070528151,-4.642867660578318,-9.099081381234239,2.6324523762941245,1.0482789563981805,-1.0622567347899061
