Timestamp,O1,Oz,O2,PO3,PO4,TP7,TP8,Fz
0.0,-4.078515303262975e-12,2.582822844487964e-12,-5.719869022868806e-13,-7.815970093361102e-14,-1.1191048088221578e-12,-1.1084466677857563e-12,-2.3447910280083306e-13,-6.3806737671257e-12
0.004,13.833924876475699,40.14971463283424,-10.633795544107503,-12.980545562974008,27.578473215147508,-9.195120455826356,-10.167244110540729,-13.26168652693768
0.008,23.7536576326182,69.45674037075224,-18.301917535723234,-22.768618374479267,47.834947626087086,-16.100162785081693,-17.22413487528015,-22.942220188620354
0.012,27.59543132919726,81.81078872206757,-21.28621400430967,-27.545383662962532,56.62458992669454,-19.355906582432752,-19.4604236938341,-27.06735470543188
0.016,25.818652481138372,78.18038033766642,-19.755514582920757,-27.531169138136363,54.56992619992547,-19.01110268465311,-17.267065387386417,-26.047677269043632
0.02,21.074899288043042,65.4470336058078,-15.522484613868748,-24.631907244470607,46.293153180083635,-16.341820905674126,-12.811475222152723,-22.25180367970772
0.024,16.759397663723846,52.52496958550941,-11.060469905895715,-21.29394158318182,37.82165092858823,-13.136678050634586,-8.878137792416645,-18.650458633880334
0.028,15.346266234855428,45.959346992986205,-8.316979483953709,-19.21879414557251,33.618442329712536,-10.837260712176075,-7.492891119545234,-17.29034743605918
0.032,17.39443902710972,47.35454016815345,-7.919391229669586,-18.633356342063802,34.824125275956256,-9.979033150577202,-9.04706097326531,-18.420458487224337
0.036000000000000004,21.65463563806597,53.75729582252324,-9.130897429685326,-18.46850144873292,39.48634341118081,-10.184246719069826,-12.327793272649245,-20.69347727598246
0.04,26.05599427551312,60.33217709083803,-10.493555483182082,-17.256600116610045,44.350023247271295,-10.629675920898308,-15.344134958744313,-22.21930557194439
0.044,28.91964238101923,63.4821370814571,-10.724596195675357,-14.164838964768279,46.984919111212335,-10.66940521665915,-16.441457064837785,-21.795370465638797
0.048,29.71079052187256,62.58382621090175,-9.377897957503748,-9.558936491998132,46.99214266928912,-10.23105493383386,-15.10721754337851,-19.596603381385776
0.052000000000000005,29.03379291113042,59.63330485937773,-6.957178578788451,-4.812912158318998,45.78804027388222,-9.788621682379471,-12.102727733990783,-16.980837045026675
0.056,28.03261741708345,57.421001893140996,-4.510201422775616,-1.5397463828074436,45.3508830061696,-9.9825200943691,-8.93125693462104,-15.606410249339632
0.06,27.632059660366558,57.58443863544996,-3.001317974947021,-0.7233828270949161,46.82869571163643,-11.147965654122238,-6.997610669319421,-16.409103785612828
0.064,28.079371666409884,59.74705942977366,-2.812270418585033,-2.2347061380684963,49.8766493047459,-13.040655816965248,-6.913924075654997,-19.026383266446715
0.068,28.957069443443224,62.07952813330884,-3.6324535956150115,-4.978409481000156,53.01107740346425,-14.9153387393428,-8.273495031181348,-21.9621745140077
0.07200000000000001,29.558704348906744,62.73146872926438,-4.739319157336265,-7.543421994802294,54.65096881260355,-15.909777417490133,-9.940703084092092,-23.37127054804145
0.076,29.351217510064643,61.111761446823046,-5.453345800021001,-8.949903475712176,54.148741076553094,-15.508573402668276,-10.653484160698312,-22.011561895883148
0.08,28.234022540950342,58.176821855900265,-5.4888191903533645,-9.07330718386498,52.14263734875626,-13.815096142727683,-9.603419201008762,-17.84420985701378
0.084,26.50195192954433,55.63950695755144,-5.00239381258875,-8.535457049568915,50.07185535162638,-11.480595195375642,-6.713504029143312,-11.988210660180137
0.088,24.596173727736932,54.72406835919672,-4.374205019746542,-8.196164383828641,49.21274044461503,-9.350029888416742,-2.553936034806199,-6.115522277185285
0.092,22.86157615369014,55.37657786903459,-3.904438116364364,-8.589344632909793,49.89394385162386,-8.035043724186679,1.97686151951633,-1.655343228925659
0.096,21.46108007003176,56.43429212204002,-3.637374118378794,-9.63795822058049,51.36277548390717,-7.654298663108399,6.005980284582048,0.7526442974427283
0.1,20.43545714323601,56.523760562901515,-3.401726886237313,-10.764266831666317,52.296132560904006,-7.852691212779433,8.930310606733862,1.3422288292432967
0.10400000000000001,19.807002349678434,55.00090315701668,-2.9934020985581142,-11.265876077613456,51.58993266609288,-8.05060447148879,10.498223475468404,0.8952692446570509
0.108,19.61955853324905,52.29535587749327,-2.363710687707192,-10.703377694919293,48.92927687956145,-7.769995186911672,10.76212802651471,0.2452069230628311
0.112,19.909192847829136,49.53187288374079,-1.6803206985591874,-9.083812596138563,44.884790598828346,-6.869727516258251,9.959741440076083,-0.12615566405018086
0.116,20.66909512466139,47.79455295037032,-1.2246206706531755,-6.7711161548893894,40.57941570476103,-5.5869427171161234,8.384701711037046,-0.23225381643224097
0.12,21.83524611644629,47.521121743140434,-1.2039260768853133,-4.224999554563668,37.140378343220846,-4.382053813141233,6.2937529807190735,-0.4388831059441358
0.124,23.288038462115694,48.358204819871084,-1.594692672965559,-1.754574749795582,35.21579888844147,-3.6981284025871304,3.8658232955256047,-1.1725090347416298
0.128,24.856733964713708,49.49043741764318,-2.12088806623337,0.5686673094962664,34.76249890992343,-3.753866915445066,1.2209799380753594,-2.6470122417605637
0.132,26.333692111165195,50.19721635839289,-2.393780033252016,2.804356736688769,35.17816515429768,-4.46170055123374,-1.5224046941845835,-4.7488198482516495
0.136,27.512083847253628,50.27911135316859,-2.131946187541823,4.9439353620975215,35.67396663258175,-5.491736069805061,-4.196822294719894,-7.117427957690907
0.14,28.229451733682875,50.07677156381908,-1.3352140443634184,6.7727460522259815,35.655916969318994,-6.4246920953373845,-6.568023094923639,-9.329797118062608
0.14400000000000002,28.406587736531236,50.110043890028535,-0.297419874348793,7.907993042525932,34.93536953798859,-6.914523472200571,-8.359622765402971,-11.064294536872382
0.148,28.051714290926963,50.605372768682706,0.5307536915801823,7.978454395175538,33.692035516588874,-6.79347733701125,-9.330765044307508,-12.168283139118614
0.152,27.24540012424728,51.28049638856679,0.7515532808815575,6.828727700209658,32.298300778904974,-6.1011594281315915,-9.386516122389384,-12.63532155094704
0.156,26.11662786167621,51.53742556193305,0.20038839313988177,4.625561466253133,31.14324271007952,-5.0412263872769,-8.66251021661516,-12.532607995049254
0.16,24.782873537169642,50.85769891316549,-0.9945512331573934,1.796938818573219,30.49795244591663,-3.888006491196098,-7.516561888121505,-11.92699536919903
0.164,23.293940381580413,49.11248865678453,-2.467628880415605,-1.1461525839872841,30.453481388415828,-2.8779609687773444,-6.412621558682025,-10.852900183221212
0.168,21.622137569513292,46.59820689817968,-3.75221469453081,-3.806260028191357,30.921648181588978,-2.123840984558015,-5.744399534639621,-9.324566486723835
0.17200000000000001,19.72056939202814,43.84557259861984,-4.455405053053264,-6.032666940373792,31.70807049450885,-1.600050610345928,-5.696709783556459,-7.399272969102878
0.176,17.630432623260447,41.37537485469115,-4.404871299862716,-7.931567536701428,32.6284048913136,-1.208522658245549,-6.217697649490388,-5.252283078126268
0.18,15.54435515998862,39.50730989167122,-3.724022006221425,-9.755169386668317,33.564510997550435,-0.8812520619164239,-7.099833910305598,-3.1938851364608567
0.184,13.757018738005897,38.27104758392794,-2.7973458433676957,-11.727642510776347,34.419296426164856,-0.6642693112143441,-8.105466336233176,-1.6113208683043183
0.188,12.524954282381414,37.426289375433456,-2.1445744987757855,-13.889934400010393,35.005587086124336,-0.722287299903499,-9.067301278531158,-0.8604317350146147
0.192,11.95379043595098,36.60779360149348,-2.2415588493257665,-16.02662143389521,35.01182691785665,-1.2551752615079756,-9.91114817938903,-1.1610451136890845
0.196,12.003645934268436,35.545708230887705,-3.3432067785858326,-17.708280988213822,34.12570912438595,-2.365574685063855,-10.614790684302992,-2.552714047410376
0.2,12.589559355025,34.23052623855551,-5.3608731643917364,-18.418978192307453,32.242712720410054,-3.9448364435093843,-11.152864914839448,-4.904055000590258
0.20400000000000001,13.695052525833072,32.93322541711458,-7.8305467430679805,-17.709472672766687,29.620126101776602,-5.648088667692104,-11.465813068140406,-7.950695162892295
0.20800000000000002,15.385068866546051,32.06651983645757,-10.023452044616874,-15.350026321900877,26.835663139454304,-6.991052149361408,-11.480646110704608,-11.338747389161917
0.212,17.70487495108768,31.99596786308896,-11.185009664889172,-11.44755807989253,24.57285181498196,-7.547487934758305,-11.177658459106047,-14.673712616066783
0.216,20.530947408264044,32.900868171855045,-10.827396237390783,-6.494798533684115,23.341300478626238,-7.159518689563441,-10.649855837576006,-17.58654374074364
0.22,23.45669738986479,34.68184263374824,-8.960231976463461,-1.323826143175335,23.234434995053746,-6.0377788356624364,-10.097980009453126,-19.803693186055945
0.224,25.825997377390564,36.931045621252906,-6.127071563489402,3.0703725677750757,23.86520677257056,-4.686585257096301,-9.743857080185476,-21.20394464725132
0.228,26.934054691287997,39.00524502734817,-3.2233287415240532,5.7920743086668605,24.53869887110214,-3.6886228308237605,-9.722687549563616,-21.849496986445914
0.232,26.329364370658517,40.23367138335354,-1.1555432117916382,6.315273196301664,24.60750205518115,-3.450921924837683,-10.020019129830642,-21.966583458709557
0.23600000000000002,24.04781770220516,40.158257280843834,-0.47260690765741575,4.676946173949627,23.808982233863624,-4.036089618069138,-10.475113775093204,-21.84801487900784
0.24,20.643759193227115,38.71999598727453,-1.1443601455606132,1.4972549577638485,22.400920459207505,-5.1562541542872555,-10.85532052044483,-21.70601538830597
0.244,17.01107039693855,36.347900957708866,-2.5964737838804197,-2.2156917233540234,21.043748723439585,-6.331178458961117,-10.953776408884886,-21.559495242881955
0.248,14.053632318541553,33.842630500288934,-3.9945723755150873,-5.419467453114999,20.458720302716124,-7.119475426689671,-10.662415207658135,-21.218477271761852
0.252,12.338520962862754,32.03470284505691,-4.646345081289573,-7.414985670559002,21.008038653043013,-7.293374016838081,-9.989850506677687,-20.386159115312893
0.256,11.899493632863505,31.382080616307118,-4.3344144133806175,-8.095594734869287,22.43467563579524,-6.877559281658545,-9.036531689293193,-18.84356318041068
0.26,12.282254053736484,31.7459807348136,-3.4223954606290548,-7.956723441647945,23.944825514436143,-6.063703415705725,-7.957765014591527,-16.618840878322075
0.264,12.80491415443042,32.48258176676876,-2.6695353665680353,-7.845380093889069,24.610890073405866,-5.066283552930302,-6.925388936584212,-14.042050425665757
0.268,12.883766356040848,32.777406301773155,-2.836484927286884,-8.5450911689601,23.853053064461594,-4.002154097460108,-6.082475572259759,-11.617341114792769
0.272,12.26998549790424,32.035332974714905,-4.256351581022991,-10.366963052262264,21.731937500137153,-2.8543389905083485,-5.480393969293485,-9.750164963510175
0.276,11.120182739350518,30.15631287756006,-6.597331542184415,-12.950246853981108,18.904156597273012,-1.5329843978844861,-5.029660562499306,-8.505477848278105
0.28,9.91022653000224,27.60046235159834,-8.96434113962415,-15.393377143203239,16.289362032755363,0.0065089693650435265,-4.5226586497648515,-7.565297730146018
0.28400000000000003,9.237588240594501,25.213277098686756,-10.300822635705043,-16.662954245449196,14.63213719835209,1.660127960818342,-3.7537742382220465,-6.44478175492482
0.28800000000000003,9.573170318987536,23.84981186711447,-9.897058049572445,-16.082080071988422,14.149309663849593,3.1587650205939175,-2.6867094469600694,-4.851794912520241
0.292,11.049212170394286,23.95308240002921,-7.73016259845992,-13.641828850358944,14.435525024346296,4.166817862092973,-1.552242232262655,-2.95269249543413
0.296,13.400050759754372,25.349362565796106,-4.443328180669605,-9.95620985349898,14.720269052025373,4.459270886321371,-0.7678823662408307,-1.3398643130723542
0.3,16.1045293286039,27.422119307163317,-0.9896145327838068,-5.90147780300006,14.377130510809163,4.077019894907071,-0.6806446046496468,-0.6996402092081224
0.304,18.67543973728746,29.574390419891945,1.867077130817755,-2.1488151887791247,13.41240613932359,3.365479682416794,-1.2648946415369444,-1.3666202209067424
0.308,20.93397268919783,31.658357625779907,3.919876417463435,1.1444971641482518,12.602343557171963,2.8693388778752293,-1.9591977928556918,-3.024793286545229
0.312,23.061626895289827,34.03158009062444,5.528548684707189,4.285701097490147,13.100576918918492,3.100903800095649,-1.8290128131271963,-4.786414950922875
0.316,25.36952280249738,37.175119634139946,7.247461821055239,7.649032614505948,15.68520846580234,4.262844398699169,-0.07207181377156502,-5.668450024477586
0.32,27.906307601662345,41.12348960782751,9.26951776349864,11.149825668556456,20.069382151376132,6.047699376209383,3.336289305494045,-5.2449834974344665
0.324,30.147261959025357,45.089707507906766,11.033684587849239,13.936354869937519,24.715108265516662,7.629396140222697,7.2376793866670575,-4.091635149885897
0.328,30.995353020844675,47.557143711282514,11.290571795998884,14.563636974537726,27.326805891074468,7.905041299427298,9.481609733243324,-3.690490826210247
0.332,29.184801693714302,46.865815622583426,8.684045889882256,11.655522841798819,25.85381081682816,5.936007572863338,7.77292742105623,-5.74663714954246
0.336,23.954763563524534,42.06374721187319,2.583657086990737,4.748504480118683,19.557576892997762,1.4199602091766916,0.84501516764443,-11.224331255090007
0.34,15.674961745065374,33.62075690789879,-6.28950016721452,-5.153914283588671,9.620279769446242,-5.024858245020215,-10.616321887876467,-19.615277124913007
0.34400000000000003,6.05558605100443,23.582259216599088,-15.829546337001887,-15.67630352225143,-1.0646041324847335,-11.918906526123918,-23.84775813631976,-28.870364164855772
0.34800000000000003,-2.300753762909771,14.937867897312177,-23.2102846847162,-23.861732246092124,-8.935270588386388,-17.354661438801315,-34.865964486621564,-36.090326285665604
0.352,-6.880246128042131,10.409996112716646,-25.979284568132105,-27.324002856292644,-11.213979662053129,-19.652199671627066,-39.980585139269174,-38.67019941204349
0.356,-6.308445260924593,11.260994752389578,-23.0696593329908,-25.21485940662965,-7.069128658615163,-17.976793870006926,-37.285505903453846,-35.36799405296587
0.36,-0.9443634896198576,16.75638459278673,-15.254702333020685,-18.541427161234946,2.087258965621155,-12.665655143791255,-27.43697914551705,-26.80897291909475
0.364,7.302948403927194,24.57425708105427,-4.820066470042047,-9.675740480707876,13.30615214565671,-5.1192802968275695,-13.349602840658875,-15.208334456057361
0.368,15.835122306330332,31.91256809546306,5.388558661339486,-1.294895466133589,23.411920459857818,2.704780196530999,1.0282154475502239,-3.47484452796345
0.372,22.452585959032316,36.69368327539109,13.087601062098038,4.72936350210102,30.241738050719345,8.993394566288522,12.264751905423655,5.869884052484948
0.376,26.136526202210394,38.28386322247659,17.31650261142465,7.956824521601483,33.25443256503986,12.674613204616657,18.59709835241789,11.458822468189762
0.38,27.18892676031211,37.456615888911166,18.510411545815174,9.251382067111264,33.32702161699028,13.662657852240164,20.213205943606177,13.249416492253696
0.384,26.745193668418846,35.721804485150855,17.938011814577635,10.036321967547016,31.981584734866246,12.680163787694028,18.663437272956642,12.139565667864028
0.388,25.991018290804288,34.42041656791549,16.877333467755538,11.388385356259146,30.503090442791766,10.794470023782548,15.852706685654983,9.344655481236918
0.392,25.52732689624897,34.04986179496992,15.989847436049459,13.462912299112537,29.39133702536648,8.907742310603304,13.177273745643124,5.890320444869177
0.396,25.20560704118073,34.15201533862377,15.17990299748144,15.515862934558177,28.368931171118337,7.434836773840104,11.172263721954451,2.4059836145583393
0.4,24.46125878801417,33.779244304693144,13.927247306989482,16.440520477028034,26.847044803530746,6.289370839825815,9.702403238742761,-0.8054259156185778
0.404,22.866535243892343,32.212592170461846,11.822310792552967,15.467488572365973,24.511183003902303,5.124765298558491,8.420253059444443,-3.5966707776402247
0.40800000000000003,20.51706845310259,29.461448162284594,8.958530564031486,12.625541743826558,21.638727255972352,3.669216751821436,7.144311789210868,-5.867273840883831
0.41200000000000003,18.013780135318505,26.249249343217826,5.967312330652261,8.738848001415377,18.97225933900301,1.9654439831485933,5.960087446891176,-7.564790704083872
0.41600000000000004,16.083374133879378,23.549147731265016,3.703685769706104,5.001563313421846,17.281144239684345,0.391083006254636,5.071064901083348,-8.743165966389203
0.42,15.113962155425353,22.010075445291037,2.7794964353247114,2.386576957311589,16.92221850591694,-0.5428578301641629,4.576308415632745,-9.576738372761776
0.424,14.922638076104706,21.638349495187562,3.2246071655480053,1.2198891515911376,17.67633438006296,-0.4908551076067522,4.360007846623736,-10.280113294601854
0.428,14.878522135480841,21.870512018171045,4.46436695508901,1.1306120474441403,18.90658440996995,0.5114013637933654,4.171945954600413,-10.963673154688395
0.432,14.293392414851583,21.93937683912553,5.628942371133232,1.3754235205443894,19.904084770595784,2.0433276071925093,3.831483284166256,-11.52482337492551
0.436,12.84056904909226,21.304348891024095,6.009172284310622,1.3144872327066484,20.215575682906223,3.5100855542498333,3.3813596348182187,-11.677845171737552
0.44,10.763471669984117,19.923328418435137,5.401137307607073,0.7511459837431308,19.799464135827307,4.449348039348441,3.068547646772827,-11.13667060779989
0.444,8.768845232895465,18.247697130261606,4.166228809343327,-0.032521597840271976,18.975076411624382,4.75776125859576,3.168320934929035,-9.843048841901584
0.448,7.660651862213771,16.93913923810107,2.992459454396518,-0.5281721184387611,18.198628932504974,4.719562290868508,3.7830740983888167,-8.085937243210047
0.452,7.9005499461034745,16.445114543143372,2.489213653184617,-0.37605164264292323,17.76712597520862,4.813347010711733,4.746284165112026,-6.42351352853507
0.456,9.336838145211422,16.688713710740924,2.8295793943877516,0.3642038309332243,17.61049822707438,5.394394506311503,5.685854663853849,-5.437680681398053
0.46,11.250836353299924,17.07193261288495,3.619891270196657,1.193878899686771,17.29127030432432,6.435246148615596,6.189386158974894,-5.4658984069842615
0.464,12.685851479126379,16.79358497521453,4.058946647885508,1.4063582552853688,16.214506346107957,7.4720062195520915,5.957720236440608,-6.475329694197329
0.468,12.881194562537258,15.297193486158239,3.3247309791807034,0.4493748989277826,13.940503102517239,7.808897966034932,4.88024786596892,-8.13065596418366
0.47200000000000003,11.60199369855837,12.590874792448263,1.01650760331842,-1.759340242347621,10.451715279890742,6.891813115794866,3.030324106563077,-9.987656094278126
0.47600000000000003,9.226021076271326,9.281366465116264,-2.564672166620398,-4.725109923849093,6.26306980477568,4.6532460340823985,0.6235864465245493,-11.684456393505862
0.48,6.572797803679247,6.3326399844162085,-6.456614123442127,-7.5435153430496875,2.325506609951594,1.6285623568267633,-2.025621171771096,-13.029135459997747
0.484,4.569004860499825,4.675454266387953,-9.401785873423398,-9.262609198433104,-0.25181973777575095,-1.248909574150635,-4.544135743628385,-13.968145911868376
0.488,3.887896225388233,4.820567314013888,-10.385931438965653,-9.270446808757272,-0.5983087948830987,-3.0774768021074377,-6.552480637517549,-14.487907616978
0.492,4.696397136889244,6.6222818321792385,-9.099916905464042,-7.53534163228978,1.53473688271787,-3.4236297621798744,-7.7552146531236295,-14.549436189058055
0.496,6.600070828475678,9.304459888853133,-6.099307010484425,-4.596544330588257,5.587803823696213,-2.5333717777864155,-8.053318593490612,-14.110765238212977
0.5,8.80915197618801,11.772632200133529,-2.5774962662755136,-1.3294941715995479,10.337323747865574,-1.2022271817904324,-7.611701043085919,-13.219433493280102
0.504,10.459466423151072,13.091716179685807,0.15127196036006296,1.398136688383861,14.350704476461644,-0.37364757755652,-6.827256761738742,-12.097400847712194
0.508,10.956159313777992,12.894968365887035,1.2228407977840459,3.0384979526351676,16.55158427853413,-0.6609197287085176,-6.172799410658511,-11.10466214603646
0.512,10.190547337143578,11.497631479824783,0.5677816016493512,3.5114557059464238,16.610377324309404,-2.0444512293187573,-5.975645755960288,-10.577425813855635
0.516,8.538753392800519,9.671242088190175,-1.135442685292313,3.1346283029836215,14.985750866848996,-3.9045380523031032,-6.25278446321151,-10.6283185553782
0.52,6.661237121559779,8.219364526430581,-2.8751878882693522,2.3853517743234356,12.623543474240027,-5.373359838142051,-6.716543781034527,-11.042838118716453
0.524,5.209674456220595,7.590101748472483,-3.859323765826452,1.6255602368411086,10.489276500097692,-5.808285700547202,-6.9456399541811855,-11.366550550483073
0.528,4.562506084917141,7.69999586991862,-3.9008755371807577,0.9370540070132272,9.163616193784828,-5.125762919340178,-6.619081617319722,-11.140380102795781
0.532,4.686954311860642,8.022393388619678,-3.4299459847051255,0.14993888275541067,8.677065560279097,-3.817041397978583,-5.669511212138209,-10.148836451985993
0.536,5.178542924352651,7.892096211253863,-3.1443736658778043,-0.9688328157673309,8.641445052181869,-2.6508356856313986,-4.281051655480216,-8.532942973228755
0.54,5.472195011177339,6.8875510214049935,-3.5279487555455464,-2.4903385054730816,8.576660849198287,-2.245537195478093,-2.7448319401195747,-6.712329704458039
0.544,5.127709652564016,5.101145507823439,-4.53011929806551,-4.201983194603162,8.230460222962053,-2.756246623808972,-1.2807477921146475,-5.175755680070255
0.548,4.038582388861533,3.124583899326674,-5.602279171401552,-5.675723068574885,7.692043083190221,-3.84026003324392,0.04511424296861577,-4.25768742886474
0.552,2.456222187930905,1.7366719320626853,-6.058839217915758,-6.493463707516159,7.2409293292183445,-4.906973149668765,1.2591802270178158,-4.030245592637718
0.556,0.822960662686107,1.4684331409034201,-5.5365277480243495,-6.5070295067144635,7.0628662085321725,-5.499934517933953,2.335864523545288,-4.365349625895288
0.56,-0.4810394268417495,2.3033145079934108,-4.271731238378416,-5.983333699926696,7.050742155974742,-5.578354526810503,3.0866731312334394,-5.1011431375031115
0.5640000000000001,-1.3329301167628502,3.692485941265877,-3.016069658567107,-5.528524175111062,6.846071027036243,-5.537372261071076,3.178210959775404,-6.186172054926255
0.5680000000000001,-1.9073078247468862,4.85028840894466,-2.6285649515972342,-5.800959844358308,6.079620056354081,-5.961668264613955,2.2916236463552835,-7.690695005750303
0.5720000000000001,-2.5458334883360205,5.144033544888469,-3.5733251204286276,-7.14363984862583,4.6302057466919315,-7.254351475599095,0.33342856122307785,-9.682829119789758
0.5760000000000001,-3.517875579308217,4.3788139886370505,-5.61577564084438,-9.328049799565614,2.735127984277804,-9.349290917512635,-2.434966623193446,-12.051389071363046
0.58,-4.804112780611511,2.850396391522588,-7.906400242441979,-11.571923313091412,0.8775541413412387,-11.682387597118483,-5.459189022364898,-14.42275873486492
0.584,-6.032894124700449,1.171654302930179,-9.409530508936687,-12.855198545163283,-0.4700881769864548,-13.44536891855701,-8.126822897092188,-16.26151784080777
0.588,-6.6411353953474475,-0.04120453012779812,-9.443244977881315,-12.396841759101376,-1.1004802448308715,-13.984994468604473,-10.03906438246771,-17.10661413472444
0.592,-6.19281850468193,-0.47160954756051243,-8.030981510786656,-10.05617471927065,-1.181431996218947,-13.12843167936087,-11.159436592595608,-16.802118323162226
0.596,-4.673217043989239,-0.2296928428167906,-5.873550160699375,-6.4449479141958435,-1.1445067188756277,-11.260684654677048,-11.757069844162986,-15.574834071655381
0.6,-2.572763316090034,0.2705729674467916,-3.972899406879007,-2.679485472881068,-1.406855648522388,-9.114396626140595,-12.181932358595246,-13.90427275579604
0.604,-0.6879129474756631,0.5990048383876037,-3.1272619155859482,0.10728826191328844,-2.083398602514651,-7.395661609130481,-12.61565846390329,-12.262272531382392
0.608,0.2730849597036733,0.5710629364836661,-3.567108415110474,1.2604168372813613,-2.875407801242498,-6.447325883282466,-12.958170592224283,-10.873306961633652
0.612,0.06801742824982804,0.32239070806812276,-4.893209590515018,0.8720198141148092,-3.2136482294561075,-6.11672558748737,-12.901456036197436,-9.626928480425661
0.616,-0.9518651030659111,0.1587930133237201,-6.326439027827899,-0.31845282088180715,-2.5744531281379617,-5.894766047348291,-12.13892233633361,-8.193187666735316
0.62,-2.041600524142545,0.3112197156184484,-7.117508553087588,-1.337062032478861,-0.7785464870588212,-5.238770184999643,-10.586587660384643,-6.2752820539359435
0.624,-2.473292135782631,0.7736864841958466,-6.893471971975341,-1.4811486833124823,1.904025837500276,-3.896209544469992,-8.483412323298644,-3.8530225113224152
0.628,-1.9316411490220275,1.3177702936188869,-5.775379233675375,-0.6503300178006688,4.882403264533123,-2.0465753811395255,-6.3010161481846065,-1.251695394331948
0.632,-0.671920741304679,1.6556062257019546,-4.2394577189384846,0.6646383531613784,7.505768209444723,-0.19149519854495606,-4.521832882111671,0.994718808304317
0.636,0.6647540921352819,1.6492529367014237,-2.8292855600592635,1.7137229856186975,9.316754818463648,1.1348061172855204,-3.4057186024995305,2.3958437320752735
0.64,1.4839993643699385,1.445296925709487,-1.8949052551759857,1.9421251950161302,10.184635586186324,1.6618184262703015,-2.8718872902044588,2.7336260905360468
0.644,1.6511005434565065,1.4473965986035355,-1.4783542941246748,1.3114682057148541,10.288963782839563,1.5116925729545176,-2.5741771892723118,2.1418798160750128
0.648,1.6092049388208565,2.1090426380733938,-1.3782751010462824,0.3161449158553733,9.979401919782337,1.095374407633786,-2.108636290365735,1.0094128277763998
0.652,2.115939726850428,3.6428691107351465,-1.3164313741952158,-0.29600996305029625,9.592512889978375,0.8500706291214581,-1.2279135004653385,-0.2069451744275681
0.656,3.7424882949913734,5.821354281086499,-1.0953894389924774,0.06490189350176123,9.321862081092966,0.9813336993408379,0.03978438823459618,-1.1457812985529574
0.66,6.437739244198232,8.00684095297482,-0.6746277746594914,1.5120769933429123,9.195556237097378,1.36183388447578,1.4132879807554506,-1.6153149112104934
0.664,9.451863681650668,9.427946219662399,-0.13892238674751622,3.624476789805261,9.154239080653412,1.6464758322558346,2.504523917574672,-1.571317099613566
0.668,11.675680137710792,9.54411381384395,0.39470515607749945,5.662516790392421,9.146660564599614,1.5272790739806785,3.0066739961528017,-1.0527353310136984
0.672,12.210936817846916,8.283704121365083,0.8650252024271428,6.934300603729858,9.170752964814241,0.9665345712311879,2.83412687382703,-0.13957421854673502
0.676,10.851822174063107,6.038127483590298,1.2958206471012064,7.11605018720479,9.249388501512158,0.25739448740948045,2.1526675404712003,1.0381538987513697
0.68,8.196543752299663,3.4358659469130286,1.7507703765069773,6.363675293360912,9.383176087198706,-0.13132506811992783,1.2939203731105215,2.2663642653197984
0.684,5.334493821808147,1.0424493408376423,2.2571074458862985,5.191236368399641,9.534959821454184,0.16197006658012314,0.5971552080808112,3.2456536953816713
0.6880000000000001,3.2858990557982066,-0.8556879989329653,2.753174821081091,4.1999629703893,9.641292190733626,1.1550189740433217,0.2618173482657865,3.6595278308426558
0.6920000000000001,2.5011539094277078,-2.294445600257151,3.102473499572187,3.8066576120422257,9.629085219022645,2.476676280809998,0.2815898035818558,3.301170914177825
0.6960000000000001,2.686485329203187,-3.5102647705059344,3.169322502176398,4.09182785657992,9.419623948651477,3.543763775950273,0.47739572746819026,2.1840702257737483
0.7000000000000001,3.0437053721463787,-4.731886907083211,2.900088493652715,4.804953186812452,8.92301476211125,3.8597990176213965,0.598286312463099,0.5562758208688825
0.704,2.770427574379662,-6.006623169576227,2.3614755051969802,5.499125011255848,8.057890130905882,3.2586553910904152,0.44268452221540877,-1.1955442596210428
0.708,1.5099288344393176,-7.1711391523913175,1.7063828731701072,5.7176871887806096,6.7908442046175574,1.9652564652526747,-0.05897949856619478,-2.712776788647428
0.712,-0.48621516173129076,-7.97259452509624,1.0891635287209216,5.171995089298391,5.1836406261613135,0.4543519314773614,-0.8434609494954215,-3.8086228960970043
0.716,-2.560595394640615,-8.25410479957765,0.5851296238588852,3.8548153616253624,3.431450782183976,-0.802560083462548,-1.7774045774852267,-4.50423696031248
0.72,-4.0684064671473585,-8.075034419156106,0.15277800858744417,2.0500028963597936,1.8418139361610577,-1.5541567616167997,-2.744644264152748,-4.962409758228588
0.724,-4.73747197304837,-7.670041055026327,-0.3204075659329978,0.24171371079036763,0.7590435433545024,-1.8311366783499923,-3.6985120213509797,-5.357770030102484
0.728,-4.786350781504309,-7.3012986231298145,-0.9252883509282017,-1.070451565511217,0.4237384048859205,-1.8490321862748118,-4.642680295866858,-5.773914900958516
0.732,-4.760029074447179,-7.116654123395859,-1.6480209986426866,-1.5896301300363331,0.8169183492450482,-1.8387272799738081,-5.54606138579245,-6.185305228573418
0.736,-5.187524291494107,-7.097416279397904,-2.352811192924803,-1.3778064237203713,1.5865181623316462,-1.919758644016981,-6.2577701050529555,-6.518032687986175
0.74,-6.278909908199537,-7.116109282508931,-2.859272292025113,-0.8696911551583573,2.1274434939203326,-2.085058547274394,-6.502204056896964,-6.7415076121356785
0.744,-7.811780934705874,-7.038237549326222,-3.0657536964693204,-0.6986672040335185,1.8302409966602835,-2.286106731954225,-5.988597333682746,-6.919593974125801
0.748,-9.258739755907719,-6.809130090102125,-3.0417695958542623,-1.3870175174288084,0.38207296994729933,-2.5320276755622197,-4.601648746297435,-7.187771932716256
0.752,-10.067295741833199,-6.481346286976681,-3.0093609751115498,-3.03766927412706,-2.0390123826127584,-2.9085126075697376,-2.549083066975509,-7.6613123595479475
0.756,-9.932730827881493,-6.173170494038514,-3.2035228847046664,-5.196599923623959,-4.79149558810238,-3.4933795819509665,-0.3616155824589322,-8.332624250692277
0.76,-8.924077582219681,-5.9884171337090875,-3.6953178585058057,-6.997537693700328,-7.028480609348906,-4.233707760167224,1.2923369391054012,-9.031103546833428
0.764,-7.410094121285894,-5.945931940211355,-4.289715840101994,-7.554885871286835,-8.062418007425668,-4.884850485258307,1.8996921464233942,-9.479597318166684
0.768,-5.849737341861332,-5.9671964561028465,-4.580176379967899,-6.418087710472364,-7.665628649521876,-5.0746792897122175,1.3581969457385572,-9.415647673051215
0.772,-4.568926355466544,-5.931138831093351,-4.150717493568114,-3.8390823908625036,-6.162431270577846,-4.4765694542456975,0.03910739919489359,-8.709833473860611
0.776,-3.637419155247966,-5.763132997022009,-2.8237218352714972,-0.690548316149374,-4.26395458460993,-3.0034832906796356,-1.4002203484247548,-7.426358822340372
0.78,-2.9020182116676505,-5.48670142661373,-0.8176866355462851,1.942495818108089,-2.727368774011498,-0.9097842596099865,-2.373389530417006,-5.800984982495996
0.784,-2.1266698068951246,-5.189234308019692,1.2969646627797724,3.2956776044866105,-1.9986611848081122,1.2643584000727945,-2.6913137231676814,-4.155508059569282
0.788,-1.1616799070841295,-4.938427494945688,2.8389285865478717,3.2923832650080014,-2.0322862578298153,2.8882524179698357,-2.661375777283645,-2.79245821384095
0.792,-0.056358886018849086,-4.719013085908984,3.335647557409502,2.5418417323984284,-2.3860426144402176,3.485181863249852,-2.8948852026225342,-1.9099695184308745
0.796,0.9499071972858488,-4.440034196550618,2.7491751256881902,1.967009457257407,-2.5270148503251013,2.9071432579745466,-3.9213378791602933,-1.568497286593848
0.8,1.550153652547674,-4.008108661517275,1.4711029796238517,2.25858690574331,-2.1752878418161985,1.3670470930755854,-5.838021365517999,-1.715634258880502
0.804,1.5405301364932118,-3.409625374181454,0.08791216302496285,3.4561881034101156,-1.480640049664401,-0.6765277723925989,-8.224128437443651,-2.252496415211807
0.808,0.947975100055809,-2.753914799714294,-0.9579414922333422,4.893356469284984,-0.9429429668292937,-2.7121317850110573,-10.371528577681818,-3.102090912865811
0.812,0.034709535346381326,-2.251869957974735,-1.6078653907162974,5.542418148377332,-1.1318929295105846,-4.358429693286198,-11.693698546594641,-4.244959021503208
0.8160000000000001,-0.8324834421103282,-2.13024527332158,-2.1829621527229497,4.569204682377688,-2.363375271809671,-5.468366786648556,-12.061636785476662,-5.707504835031317
0.8200000000000001,-1.377255566511578,-2.511215507729264,-3.143197675829164,1.7938752554350894,-4.501512620305187,-6.122577033410408,-11.84095834383798,-7.496388297788411
0.8240000000000001,-1.5588634239777124,-3.309484605832692,-4.74920476686614,-2.186495152033925,-6.980504742292372,-6.5503593075100905,-11.603677379533902,-9.51793888241456
0.8280000000000001,-1.595561407672093,-4.222148516212469,-6.834176631383995,-6.270218484602962,-9.043063277894152,-7.017144785343612,-11.696730927676214,-11.527122329053363
0.8320000000000001,-1.8549942831420059,-4.844275400172555,-8.826350824569374,-9.359297133326292,-10.074736981124637,-7.703572486839393,-11.93983828807269,-13.131939316493298
0.836,-2.6576524731370927,-4.868251605057465,-10.01882389617282,-10.833042177865224,-9.869395138151262,-8.621762814280261,-11.676828790157257,-13.887056718305242
0.84,-4.097690210774754,-4.26645345236047,-9.94607585882638,-10.76350659424708,-8.7040180587936,-9.596524160727947,-10.195884166137287,-13.458503074727856
0.844,-5.963851395898149,-3.34027041896673,-8.652380317197057,-9.785265396514369,-7.189416164929604,-10.319373717109167,-7.273445476255649,-11.796416866926627
0.848,-7.805538042763033,-2.5913897989968246,-6.696271235313267,-8.722579119562958,-5.98537784655627,-10.465306650428765,-3.507864758660908,-9.230652534253736
0.852,-9.105315789186974,-2.465070642410051,-4.885015178821703,-8.180191447822613,-5.527569819706439,-9.833426360803877,-0.1976818855017477,-6.417282667065992
0.856,-9.474459413994492,-3.0916377346193986,-3.875436937915392,-8.29971033345303,-5.880632636502881,-8.452486679309942,1.2252739335050231,-4.131104967264928
0.86,-8.78353041895246,-4.164005138278438,-3.854357563310238,-8.77050162867285,-6.757549352500515,-6.596497674735089,-0.07440926189391917,-2.9745502513595374
0.864,-7.165881813998182,-5.021244629131706,-4.465291052122499,-9.050576860754305,-7.665403442166028,-4.690982131291404,-3.8418312281771207,-3.1356811321157334
0.868,-4.921015860703525,-4.937628092776487,-5.017459925222438,-8.665087256236234,-8.105214416062054,-3.151070860408016,-8.770729537583435,-4.313768217799041
0.872,-2.3888496210134758,-3.4992431016452823,-4.857684307461183,-7.431630331673068,-7.746486795124383,-2.2242028143469024,-13.078545768362773,-5.8547884201028415
0.876,0.14175090920772293,-0.8741252444048433,-3.70517439641225,-5.51826074580013,-6.524961778148166,-1.914970771587615,-15.318903030442183,-7.046553896139708
0.88,2.4612443055653626,2.1874559499269255,-1.7858839217316165,-3.3364547473484905,-4.647663086762893,-2.0307050270245703,-15.012376292359093,-7.428231625266674
0.884,4.430965159479255,4.662274099407494,0.29248900573833314,-1.343216760972434,-2.5071993194575892,-2.3137943075525182,-12.77901266327004,-6.968970745178616
0.888,5.974557645963319,5.738062934982807,1.8499674050612978,0.15549683409507775,-0.5418783380052394,-2.576004558700494,-9.91659664331201,-6.024390740497002
0.892,7.076045148585941,5.221561225785819,2.4682889733986655,1.1176803138113836,0.9099519324883387,-2.757074825966674,-7.671926518221797,-5.092547780208725
0.896,7.77634893094198,3.6399954788766364,2.1814113521238507,1.7479769479965919,1.7032646406683392,-2.878232000752325,-6.626240183241137,-4.513086286404887
0.9,8.160461683356496,1.976305443594017,1.4338439219218273,2.3664179154726614,1.9001147361810784,-2.9391712939726427,-6.510511110915009,-4.2644361798839805
0.904,8.333617200438225,1.181177463696555,0.8420228444242395,3.2262212629528078,1.713782618819904,-2.844856421612106,-6.512651178681645,-3.9710479427809107
0.908,8.37319797925732,1.7043429583142138,0.8800843142404369,4.357309046993217,1.3954738578882313,-2.4311169140835474,-5.863899822945095,-3.1252541803453875
0.912,8.2726553016918,3.285802833689423,1.6475816350123749,5.509995498640729,1.10588077656154,-1.5819545078349317,-4.341141048011448,-1.3973055307537492
0.916,7.9316400053961456,5.116360012400401,2.8295347839813147,6.241814944088841,0.8348990107680216,-0.36134885778115367,-2.390657500806044,1.1262050253043263
0.92,7.203334566918995,6.268042711756081,3.8561108469196883,6.115986792675409,0.4145890118740261,0.9407985795387774,-0.8243872734039759,3.916876974842216
0.924,5.976121975673983,6.161311479545452,4.181543050893873,4.917500698739514,-0.36639339345430555,1.9019969833831198,-0.2942114365970574,6.204742277662207
0.928,4.2620529298740015,4.8255969438361594,3.550145887254949,2.7866403057562406,-1.6000530785254965,2.1636946243960224,-0.8842338964640977,7.308344245232927
0.932,2.2442972197653335,2.828711748568502,2.1298678792170884,0.20443693021852316,-3.1406104745813432,1.6247052955432277,-2.0639514955730536,6.931797805133975
0.936,0.2614916179091391,0.949132803265258,0.4572748142307441,-2.1711207482849364,-4.60367464605556,0.515286986816534,-3.010875906177887,5.285834291577487
0.9400000000000001,-1.2849868983401531,-0.2128912677277759,-0.7860782777953175,-3.7492014912874536,-5.505571067786655,-0.7018658926242973,-3.105501268951887,2.9806425931452827
0.9440000000000001,-2.068670491654288,-0.4653965044837367,-1.0537546547667018,-4.213149596256249,-5.47193772089447,-1.5623285351571456,-2.287904905336516,0.7458997726988206
0.9480000000000001,-1.9631085434762783,0.009472006829124968,-0.1451703410863443,-3.59655366954516,-4.415657918048712,-1.8310885001638555,-1.0594957452857248,-0.8768955693681042
0.9520000000000001,-1.1065349472607342,0.8693558343275378,1.734094584879589,-2.203354143643639,-2.6001717021666364,-1.6019256622661313,-0.14856084663763802,-1.7241114159344608
0.9560000000000001,0.13363895042522722,1.8397921040069845,4.0894363239158755,-0.42369708780964044,-0.5448973901893446,-1.219000177190848,-0.05992238789637483,-2.0046679190539707
0.96,1.2923477055768724,2.813120544055955,6.367104259243046,1.448260144648294,1.191493455885145,-1.063264153108723,-0.781358776401289,-2.1148672658841776
0.964,2.000032477635527,3.799290450613734,8.190200383064642,3.307263198970777,2.2607379019327762,-1.332233161970974,-1.8219274423184437,-2.3814249337031965
0.968,2.159019412175439,4.810596789237378,9.490968705342064,5.203049891415268,2.6838097525504176,-1.9423376061107196,-2.5359263966945225,-2.874288419645838
0.972,2.008170775681669,5.785402086893166,10.486424517828867,7.218270706950064,2.8349821166680607,-2.596012353154352,-2.511892366805375,-3.3808112694285626
0.976,2.02355353482458,6.610973594277444,11.528831072428373,9.344433264488806,3.260540798232704,-2.9647139487240644,-1.7789142520759116,-3.543195591755424
0.98,2.674551903265468,7.217419213823767,12.907457869429944,11.420164344496346,4.411373127852499,-2.8658144757132082,-0.7157788699372087,-3.0737712601151523
0.984,4.145165101283887,7.650760623587773,14.69883563801385,13.154766795369643,6.4232915040786205,-2.3372865223827515,0.2649376243734942,-1.9299678254066714
0.988,6.163578941662124,8.04276178698026,16.72004614683207,14.214213502659268,9.03453384930509,-1.5777698079653542,1.0254432774278193,-0.3628631865244403
0.992,8.046447519714823,8.479001664329566,18.594709988764457,14.325782248976767,11.669546925407975,-0.8088144668296362,1.789233096737454,1.190743501238106
0.996,8.96497671918942,8.85411658316292,19.895631420224728,13.363979058807367,13.648529786155992,-0.15619026327990726,2.943251689586859,2.3068875254821237
1.0,8.324535452911027,8.848225293001859,20.29850604972158,11.403339495402463,14.43128166704139,0.3870751644785744,4.701181266668042,2.761545771903388
1.004,6.074674273472514,8.088354592888205,19.68185045253211,8.730440842733685,13.804345637677242,0.896770374196677,6.863497279588204,2.607420910930836
1.008,2.7790143826999536,6.411973559014587,18.139726887973346,5.802564528792499,11.943554197990004,1.4112185079711965,8.842402564849628,2.107761821666631
1.012,-0.6116271608292609,4.060128741171338,15.922497742188643,3.149280756385737,9.337661956755282,1.858681405727046,9.954913524315806,1.5797763291293014
1.016,-3.183229776386222,1.6413469762673287,13.342712816591948,1.227809140042658,6.60441400007158,2.0656903214703637,9.814178335105467,1.2327325677570364
1.02,-4.469994198807108,-0.15684300700750953,10.68244969219107,0.267082159221669,4.265863038679519,1.8524155306184102,8.566248077510188,1.0977049558799052
1.024,-4.623208217082496,-0.946473180494614,8.14740722872856,0.17333597349366237,2.588136533436888,1.1573488328943915,6.823425924625184,1.0936485424443285
1.028,-4.245041939696794,-0.8690036898541189,5.871367219388587,0.5611092088469425,1.542260948235009,0.11779625414475703,5.339249000543611,1.1730383358506993
1.032,-4.002769115366137,-0.5313602772397152,3.948618047586577,0.9194011804110991,0.8845686739498069,-0.9433993728790679,4.621926582473784,1.4407866548156578
1.036,-4.246325663227003,-0.663554188474526,2.4736566865923724,0.854698167236736,0.31847211885719773,-1.6216857109428755,4.721467614359042,2.1621861405904936
1.04,-4.830670817373876,-1.6830399073721378,1.5573517307212974,0.29844794950799614,-0.3449828649107509,-1.5809363308558444,5.314310087785478,3.632645165790365
1.044,-5.246967469020758,-3.4222935250246462,1.3039613423863656,-0.4391034470780739,-1.088792893122962,-0.6963086460170245,5.998763679421525,5.968069473105274
1.048,-4.971053473668572,-5.185194668261708,1.7535528135393985,-0.8220055489246132,-1.6938713816471562,0.8666732336754843,6.587886675330656,8.94008368242103
1.052,-3.809253200668974,-6.112142113616689,2.82224164943697,-0.37679790563600113,-1.8435045035804976,2.678966437361166,7.19434201070715,11.973713319585343
1.056,-2.0351830043798502,-5.651590500202913,4.285902056284464,1.0405843224155316,-1.2761660427063894,4.178291690489797,8.062917114941174,14.339199342773393
1.06,-0.24299153649524996,-3.864791784777367,5.8266461101093565,3.1520203181136193,0.08259945399845314,4.869201966362735,9.295129719838382,15.461487110449484
1.064,0.9865823892972623,-1.3854812632899902,7.136202139450261,5.392631287060592,2.0852567383355805,4.524274138895052,10.656847304257905,15.180106318605603
1.068,1.4050870223132703,0.9404042232149394,8.031703202623008,7.202380371396818,4.436319950756417,3.3007397609865263,11.637765227302602,13.821623434085293
1.072,1.202977014664869,2.510418571861559,8.516347507157509,8.302055173881087,6.821408751465134,1.707963577832814,11.74669365097313,12.039463508992636
1.076,0.8353430163947069,3.2368757841602687,8.744698334199644,8.787909881541657,9.007113467650788,0.41344086089271403,10.846914355176759,10.498894099900674
1.08,0.6803432377235827,3.478994134515097,8.897479518475219,8.991994724722652,10.85052366742837,-0.05184851349131314,9.292024041931668,9.562609480996048
1.084,0.7709665054774044,3.714155198360649,9.038367389850197,9.205193556171784,12.240391679141842,0.4499640820448123,7.762746612669006,9.152044045672147
1.088,0.7701839102610242,4.1768338909646845,9.0369961442015,9.44616327096521,13.032418580889338,1.5815171605198453,6.878421179582239,8.859724201420079
1.092,0.20934728708282613,4.6924350978880005,8.616995647039271,9.433162183502155,13.048711082673329,2.684542222684976,6.824051043782085,8.245023251654366
1.096,-1.1498727744996342,4.80453978504255,7.521298969232987,8.790978634113912,12.167145085568954,3.1161147951481505,7.245404817796473,7.146871144240119
1.1,-3.067032533514558,4.109160365926707,5.70835752520761,7.370174746665654,10.455386202943927,2.5969000129313304,7.48183032399017,5.840016532302865
1.104,-4.85084659245884,2.5804816426493655,3.457862428918286,5.4714743978608595,8.25713992526644,1.382109239680041,6.992445596140833,4.934448208132881
1.108,-5.671494046585686,0.6738926763943311,1.298596198300121,3.8071823889765994,6.142906871843547,0.1426305351485304,5.722194725563629,5.07436927251403
1.112,-5.002649066707002,-0.877356318803443,-0.22714472035690214,3.184634205286759,4.69857599557924,-0.39480847057386015,4.164258063129758,6.595926523185248
1.116,-2.9342146677392726,-1.4518899573191888,-0.8309347737377726,4.091390628364467,4.249998444715542,0.14791557089021623,3.078094206571807,9.332927885662649
1.12,-0.1655564405787362,-0.8768896570586335,-0.6181086971689156,6.423818976643972,4.685340054382404,1.5889142200677733,3.0544562623345426,12.678005575835773
1.124,2.3295969673531625,0.5000769375698639,-0.0021216322230328544,9.525030403282699,5.515264120984817,3.295605254297862,4.200723393532151,15.852290217878974
1.1280000000000001,3.788205998481455,2.0531238286661617,0.5743218358094957,12.520143421794613,6.174584436372429,4.556609041231147,6.138155811890444,18.235006378554516
1.1320000000000001,4.0375225584613705,3.2863755498533536,0.9502033813962054,14.762811432368363,6.407037948890084,4.99961409731042,8.307049756914164,19.578201296751644
1.1360000000000001,3.547921979325939,4.13416520837991,1.3826399193320462,16.124725943882808,6.47950473700375,4.79021671632998,10.34538839054118,19.998673545342502
1.1400000000000001,3.121889184174467,4.94671278442039,2.386233749810911,16.947355817500096,7.0453534716168305,4.480928783891204,12.261850139455133,19.76777947181803
1.1440000000000001,3.3771314059407693,6.149028827374055,4.323970222782323,17.6694761097419,8.675501655136397,4.582420847847008,14.251300250720119,19.02456803418274
1.1480000000000001,4.308615989093784,7.7803366715192865,6.968888031712861,18.3542530035724,11.301020851651266,5.113916002900595,16.24755130601604,17.57816392487173
1.1520000000000001,5.175472533706934,9.21674879969105,9.328024905671901,18.423041728232377,13.922804146762974,5.436523875850528,17.543897611087313,14.928597158216588
1.156,4.806755911511907,9.300501307602097,9.915569682883481,16.813108148893846,14.843614914861277,4.5150793371907,16.80078642731083,10.510972189372588
1.16,2.1934028529636365,6.876534566603603,7.4149943279091595,12.532828154387593,12.405113122392788,1.4972289675280281,12.568210863628481,4.058926837269204
1.164,-2.9270172303712183,1.487489715648417,1.4311017500088576,5.33999011364914,5.911035229034581,-3.702437920001585,4.127895177606024,-4.088988941149873
1.168,-9.778785485212662,-6.138200779198321,-7.067066628621442,-3.8314786488095702,-3.7509492127585284,-10.148490787342855,-7.788986268265155,-12.885660897782731
1.172,-16.726558857809597,-14.126459174160857,-15.904141344538086,-12.983879012474823,-14.186491232049551,-16.140506478217873,-20.866038640200568,-20.75392557223452
1.176,-21.863427425222596,-20.089395983364287,-22.45683434914133,-19.725576875822263,-22.329182634672676,-19.878877591809516,-31.821451405298106,-26.003699034402786
1.18,-23.754016878194463,-22.095418214425386,-24.70664276734378,-22.222579503825045,-25.694924162693624,-20.215556713338927,-37.581877649397676,-27.346454831987188
1.184,-21.99863724049205,-19.51524599968004,-22.095566312314478,-19.993926785813017,-23.455512210457155,-17.11510295231171,-36.49647533956673,-24.331331025986564
1.188,-17.370241628840642,-13.320997826623785,-15.768624430407883,-14.157729495527065,-16.789182717461927,-11.6061159960717,-29.00622990867043,-17.53051421601227
1.192,-11.459660681149986,-5.671639999456346,-8.073006517990791,-6.984624451170667,-8.328226186014643,-5.271473229242799,-17.443653069255163,-8.400167872109282
1.196,-6.007706662482652,1.014936931969236,-1.5405072422621142,-0.9496798211421581,-0.9809231157345386,0.44171567617247476,-5.050643937283932,1.1516078893126807
1.2,-2.239838820329902,5.049513190899682,2.155944726791359,2.2783131187743955,3.2811385824568364,4.738159184572243,5.305071492665525,9.349844780930866
1.204,-0.49333593495856654,6.057681674919252,2.782239327055912,2.442323871573172,4.088669354951883,7.591777398444346,12.111247666980177,15.077159751167333
1.208,-0.2693255537916338,4.914922132433185,1.403902227068993,0.632809571142023,2.51956252189101,9.468457054821704,15.470959197131181,18.140725057155784
1.212,-0.6353667732659153,3.12427283778346,-0.34426581724408445,-1.376202292656922,0.29699581961896815,10.872615905902972,16.611267377282353,19.183468597716907
1.216,-0.7457177370986134,1.9983363496582758,-1.1591237005341992,-2.0304426689134174,-1.1790915351477294,12.002176929959697,16.99229116478404,19.283005233818336
1.22,-0.22160915971324324,2.068399087013585,-0.6737009052492753,-0.6906620120816318,-1.452224379456899,12.694879472445264,17.516489286914783,19.415142529445973
1.224,0.7735300895173864,3.0044443532162095,0.5207192005108674,2.193040132227269,-0.9976517661152045,12.641914917845064,18.226678858861746,20.00451081487345
1.228,1.7474068526473883,4.023265108944231,1.3841152359754874,5.448138361292016,-0.6849853020090233,11.690483477728566,18.563567314575742,20.75363443049032
1.232,2.218907050877355,4.4851828465465085,1.1360879063249099,7.837321615280126,-1.1021864483513264,10.01920628177864,17.924571005621534,20.814117695965308
1.236,1.9821502107160107,4.307384588861089,-0.24731390410847576,8.643154378553728,-2.1664855391370588,8.072352009638688,16.14258982596731,19.221204255570374
1.24,1.1716402397493386,3.968600005570529,-2.0145369816119496,7.898918588764684,-3.2279662024367317,6.312748155562099,13.610269666149069,15.403701032594029
1.244,0.13151965562265389,4.145719063789711,-3.0821065268333534,6.20621515374737,-3.5421992664716977,4.963298521469591,11.021733892568355,9.528284212304957
1.248,-0.8013382673717069,5.243892157981305,-2.66864008463029,4.302685198867282,-2.779166690595979,3.911573495395316,8.940526114435785,2.5378859920693433
1.252,-1.4633814620409673,7.118230341223075,-0.7553087831001228,2.656628496125407,-1.245013925957208,2.8376071623267056,7.493774689609663,-4.130633084591221
1.256,-1.9020440254237592,9.144450557555901,1.8836280934021543,1.3126755604696791,0.305127083538407,1.4745344426515317,6.383882196977728,-9.027783163858528
1.26,-2.3002761007767076,10.56588642248685,4.0760025028587314,0.022016100863628374,1.1118755207535513,-0.17355668028252857,5.172514738176045,-11.1766495783752
1.264,-2.8665185758968375,10.89502242649868,4.844311415620426,-1.484254983677192,0.8345887962664871,-1.7994821585998726,3.628461645745926,-10.379960560720637
1.268,-3.740245289450896,10.146308656897254,3.872997947184638,-3.275222204424707,-0.29021064121490836,-2.967977885738983,1.9058512652461488,-7.233182094075078
1.272,-4.958198919809682,8.774433487442284,1.6137477782465384,-5.191374420972143,-1.635382266681011,-3.3918783518815774,0.43916838435363204,-2.8704769051297703
1.276,-6.4724993632211945,7.378008666065524,-0.9952029919573633,-6.99241387351209,-2.5763819580321177,-3.11925477889119,-0.345092175220862,1.4534458483638688
1.28,-8.176339106221715,6.361919130387545,-3.0244252731171595,-8.543063170861215,-2.854871674067373,-2.501237260818804,-0.2943652609101317,4.788372376913083
1.284,-9.911724440466724,5.760859480028898,-3.9890420788009453,-9.889165332849661,-2.699349093688804,-1.9685458293772686,0.400800304509938,6.7554739328466695
1.288,-11.480797418065803,5.29231569075019,-4.0256142673847055,-11.176249578024056,-2.6611684734826717,-1.7591044806172855,1.3616656582104447,7.569859419690209
1.292,-12.681415881476997,4.579599764596123,-3.746068377226941,-12.46595179151217,-3.2828695205099705,-1.7736823833785231,2.274716805069885,7.826676889013461
1.296,-13.378658977228868,3.383679441141208,-3.879024923208152,-13.598435807169617,-4.796557063514789,-1.6592695138953752,3.0565052497661407,8.151949365297767
1.3,-13.57999951910968,1.703407862592604,-4.896922134560571,-14.220171626824007,-7.01221868058159,-1.070560117192314,3.8157706428339258,8.878121949130566
1.304,-13.439907743595574,-0.2644063271592678,-6.791733194266701,-13.970066348782249,-9.413570785443035,0.0578354254370792,4.6545969329892145,9.88338118767621
1.308,-13.170906123368145,-2.2365970625935683,-9.088491618644525,-12.714173918978794,-11.379201304369813,1.4077859877194063,5.468297832922851,10.658692183662778
1.312,-12.891404142206664,-3.9299640514469454,-11.058121623248708,-10.671580512039528,-12.408169327163213,2.421764304851899,5.898835078665045,10.562576612008186
1.316,-12.50144801135652,-5.086477157780718,-12.01000181846413,-8.334282414820022,-12.252867936446005,2.611605826494631,5.502276974804133,9.138896300379592
1.32,-11.692477954004364,-5.47436124248829,-11.547213816736871,-6.218423571852193,-10.948948744349915,1.8408950253585914,4.034632815060532,6.340141810454003
1.324,-10.11565716371616,-4.9184376954380955,-9.69595464141809,-4.5962640742556715,-8.770559335215367,0.39953465463216586,1.6608785866019975,2.5436873517067617
1.328,-7.6261449915495225,-3.3800944893615457,-6.886232558831219,-3.3702111027476906,-6.137597933996158,-1.1756694707474558,-1.061739495498915,-1.6252308925916967
1.332,-4.455661817231549,-1.0484682007905968,-3.805960969546722,-2.1639249906923714,-3.5045340364109023,-2.4246629776281248,-3.4311585179913813,-5.5557425098474695
1.336,-1.1996795971913417,1.624188926174552,-1.182932494689119,-0.5817278068201821,-1.2520713223070845,-3.2293477092297356,-4.93897924149022,-8.853439962129103
1.34,1.3907972827663864,3.9997270337820305,0.4284943089989852,1.5105874518211735,0.388115464859045,-3.850899712999608,-5.518571127270791,-11.385180929291877
1.344,2.719403821694428,5.447195596738699,0.7909522209872684,3.8470091574271423,1.356739135835257,-4.716063508947079,-5.567678161790203,-13.175201229921123
1.348,2.600978977853831,5.581081679617317,0.013986635963133764,5.849646560186004,1.72761673618988,-6.087310069271294,-5.731825060830044,-14.240665830784243
1.352,1.3215628280714764,4.41348669513396,-1.5380490095888923,6.890692964325112,1.6147678133780303,-7.827005703781494,-6.583530714250395,-14.490674176868302
1.356,-0.5333864043219476,2.3257358416572638,-3.4152767877985486,6.586645123899425,1.0698297444890565,-9.408865866287497,-8.365611347628894,-13.757579902573594
1.36,-2.3794615043353007,-0.13325310677323277,-5.264252397141988,4.973793358866253,0.02505166983866225,-10.182428590388328,-10.903087571069017,-11.937401388984656
1.364,-3.8934579193681387,-2.5092260347631665,-6.939686298615806,2.4839313144020405,-1.6593838643627317,-9.738688916976415,-13.692736708739709,-9.128629074032755
1.368,-5.110451274969847,-4.621158167582488,-8.50881597386383,-0.26234301768286805,-4.062689522906216,-8.152269306963396,-16.096416627436245,-5.662178904654949
1.372,-6.321620945119204,-6.5669917534243805,-10.155741866516456,-2.7308343834981255,-7.060696210427218,-5.958489693880384,-17.546335001019425,-1.9936394624508704
1.3760000000000001,-7.863650853721045,-8.577594614780846,-12.032314890988939,-4.681682816444351,-10.281736226674653,-3.89070225227486,-17.689808277833652,1.472471141695122
1.3800000000000001,-9.930568201192454,-10.830406977127975,-14.1394175294483,-6.220827923371328,-13.224747728452195,-2.530753186767864,-16.465937991191243,4.506424526519653
1.3840000000000001,-12.488082109883951,-13.329769640973238,-16.29143371775553,-7.683344378485645,-15.479089331654741,-2.0774461698830318,-14.126221793035963,7.031282502592437
1.3880000000000001,-15.299345695245785,-15.903364811263131,-18.17098684765441,-9.412090433026638,-16.9157877420674,-2.3589536310250123,-11.204057453734954,8.967689003114609
1.3920000000000001,-17.995504618894586,-18.291940540480624,-19.44239151816965,-11.540593805730108,-17.734642195064325,-3.051475273059464,-8.40424775592494,10.056889006579066
1.3960000000000001,-20.142997315865625,-20.26085994873128,-19.861509253231965,-13.881475324946269,-18.333528578912986,-3.938046182052249,-6.404124850103651,9.81004066975727
1.4000000000000001,-21.311117851117302,-21.673625971210328,-19.345151105152343,-15.979888028170809,-19.078670803518776,-5.045596057754612,-5.627742420723775,7.658869385743923
1.4040000000000001,-21.141973698511393,-22.483386520973557,-17.973094703895214,-17.300924633905822,-20.094128943164463,-6.574134673501013,-6.085735829001901,3.2631635365393463
1.408,-19.446125742492097,-22.667520569046445,-15.94400534931674,-17.46692618806069,-21.19490959832671,-8.673042030001096,-7.369129313666512,-3.192344740654282
1.412,-16.316350616113347,-22.173988554781992,-13.5175151750265,-16.440603096110117,-22.00263176433277,-11.230468671284362,-8.843434373980276,-10.896174398531796
1.416,-12.184400945341764,-20.935535740127552,-10.961250041648157,-14.55904624227513,-22.171870195452165,-13.82541383141855,-9.963551311173951,-18.585416310213464
1.42,-7.760662281711458,-18.95499421376224,-8.516380233569205,-12.390564078971734,-21.593930845082387,-15.880077490071065,-10.552812799912683,-24.936394805159388
1.424,-3.8336306339166715,-16.394093428436292,-6.372522014417908,-10.478625711304717,-20.449853892311857,-16.927964336277682,-10.893213471256086,-28.995324650378624
1.428,-0.9998379321653111,-13.593299792669665,-4.659862970207388,-9.101692039690878,-19.090529577313383,-16.83835693628823,-11.560492818624704,-30.445719085006484
1.432,0.5337699015134467,-10.999401819896105,-3.4621939873675704,-8.181613243518061,-17.837783746159182,-15.865125741580398,-13.093673949755694,-29.611449575224032
1.436,0.9672021830559616,-9.02251899939951,-2.837437231685553,-7.383231361614282,-16.832879594205398,-14.494048576438791,-15.673263197674812,-27.217460699925006
1.44,0.7185846134695022,-7.910492157033882,-2.839481892156938,-6.367231788270152,-16.034928129216468,-13.19273506264063,-18.977451054159026,-24.055277344237652
1.444,0.14773721218914182,-7.685935659372541,-3.5051646489285355,-5.046376818994412,-15.33601269750903,-12.199873033810427,-22.280576203022672,-20.715168984335342
1.448,-0.6283164088636142,-8.154420474256884,-4.8081606278222875,-3.6899133468467458,-14.69646332166742,-11.469956691203201,-24.72717767905601,-17.47952477653037
1.452,-1.7179886990050206,-8.975150701010687,-6.596556639047137,-2.809992067243139,-14.194849302110317,-10.786923192488235,-25.638082029568878,-14.375436259753519
1.456,-3.265267768855849,-9.77416323056315,-8.554533143353778,-2.886175967658366,-13.964703875400424,-9.956629198829562,-24.70353796259358,-11.30619374753326
1.46,-5.2290577139783245,-10.269285790873482,-10.247571924047207,-4.084985897341684,-14.086064882195158,-8.954499642200457,-22.005590194388645,-8.179736644548559
1.464,-7.2944205271136795,-10.369213049197635,-11.255712400726544,-6.13612097139395,-14.516382461071942,-7.946146561990755,-17.93686401052074,-4.994851844635973
1.468,-8.988581507764156,-10.209466380751643,-11.3509112082738,-8.443978311323004,-15.117639101494264,-7.1777770763437605,-13.100119943866392,-1.8765101218646765
1.472,-9.92690189261246,-10.10331130899886,-10.628674089475934,-10.374902578204628,-15.76284864479912,-6.819516581044828,-8.224232249987578,0.9214802989482109
1.476,-10.035932254349568,-10.41931462933194,-9.499568428883013,-11.553364838960334,-16.437888621525207,-6.863150221665078,-4.083523785384783,3.0323270528208734
1.48,-9.598586401064997,-11.414427494016948,-8.511674301170931,-11.996877627439847,-17.246374803431543,-7.129013783028723,-1.3640994056769369,4.038538712715226
1.484,-9.071047085041002,-13.071108761900113,-8.069195058861492,-12.020121068551221,-18.284201286198915,-7.369919989114375,-0.458379600767723,3.5897759517617125
1.488,-8.788848937798502,-15.013962036418704,-8.199478304884579,-11.979893695010155,-19.46079229552061,-7.406935496261049,-1.2653565845412984,1.5427044042483329
1.492,-8.750626259260175,-16.57149349304628,-8.503372195702664,-12.02548932749087,-20.398595189463855,-7.218633871424717,-3.134577246185903,-1.9275228506424686
1.496,-8.621868959589113,-16.99821176144801,-8.335914755685495,-12.003123491997965,-20.512850821268017,-6.937181854979027,-5.058315597498339,-6.30635137299493
1.5,-7.963094149182233,-15.79570468455033,-7.148812601601151,-11.566281732976524,-19.27932933658028,-6.759695946272053,-6.07592583997394,-10.845530835187375
1.504,-6.527169635063139,-12.978577115042802,-4.8117384016743205,-10.405444207265766,-16.544094922509583,-6.828096053981092,-5.702962507175348,-14.763499500137375
1.508,-4.44019642889045,-9.141620701429778,-1.7365677367717982,-8.458065359115864,-12.692491391939043,-7.148547610244941,-4.168985994834767,-17.471432377366522
1.512,-2.149427970643071,-5.266480923164167,1.2765727736106018,-5.974844811967023,-8.5566116135621,-7.583878441507171,-2.3000544596530044,-18.719817589147837
1.516,-0.18562553217783728,-2.3409585052158337,3.3991683230207865,-3.4185185421137696,-5.090941155617692,-7.917310916346732,-1.0726083454219648,-18.615461445089032
1.52,1.0927157858387553,-0.975254021341351,4.144423616134295,-1.273695855541043,-2.9894428427323083,-7.953003629406169,-1.0810035501821724,-17.522458213550742
1.524,1.6145555099670688,-1.190219474571938,3.5582658597656107,0.11821579255332049,-2.433927745674561,-7.606339202951348,-2.2280063331396613,-15.916046631674803
1.528,1.5180323807621656,-2.4729571781078645,2.1329058652160926,0.6150328351114203,-3.0954234759715438,-6.948504095883871,-3.81760717867908,-14.256349002563665
1.532,0.9704848359043081,-4.05323472802403,0.5123851619084738,0.23927877908022133,-4.361407349688787,-6.181395917031946,-4.9925275514258995,-12.893782609672819
1.536,0.037687565009832946,-5.253408404580455,-0.8360722446188462,-0.8788296500172939,-5.649052496129599,-5.55520717444751,-5.251721731443444,-12.008640267245486
1.54,-1.3123201069218668,-5.756826378524192,-1.8120019867297938,-2.533274660790978,-6.644294129874657,-5.261949699917159,-4.727527823772805,-11.570532037991216
1.544,-3.08301905398261,-5.668035623210137,-2.644546572190367,-4.4398054895166315,-7.353393954557116,-5.3575531754999846,-4.057376801216676,-11.334953291226094
1.548,-5.115642629581438,-5.35784890935985,-3.6788251892674952,-6.244628699203616,-7.970513782510933,-5.744273579292984,-3.94729632642834,-10.917152070169864
1.552,-7.086916449822516,-5.215948204991774,-5.13000620699965,-7.603387134168624,-8.68081511871703,-6.2244507283268895,-4.697719949755022,-9.953764061847755
1.556,-8.678223436388073,-5.462949570302314,-6.948508641535356,-8.324398676284353,-9.534535944513328,-6.609962849958059,-5.989512933643004,-8.314664865077466
1.56,-9.79469655638006,-6.1030001231832545,-8.84902776874711,-8.483798261164136,-10.450671264616457,-6.82597547510649,-7.082344743218963,-6.253242919679851
1.564,-10.658068927243619,-6.998482668497614,-10.450590760999642,-8.413916576782377,-11.300349952044845,-6.955287353000163,-7.282670261041639,-4.379408482687105
1.568,-11.663217369069832,-7.982103085604285,-11.435287388865364,-8.532465799539066,-11.983478635312462,-7.188276815477088,-6.385628666443251,-3.421163561659869
1.572,-13.05239359122705,-8.91973722424973,-11.637669489128282,-9.07398808608491,-12.432019016206922,-7.700430124434605,-4.819251517762511,-3.856576363848106
1.576,-14.6118451881545,-9.699067569331694,-11.034873595169627,-9.871931649596856,-12.550450087027656,-8.509956855635556,-3.388508657508246,-5.595295282862754
1.58,-15.626678569989892,-10.192226714418467,-9.690265077237873,-10.353452685176332,-12.179684018737408,-9.395658152289652,-2.7907520273064716,-7.913645305425965
1.584,-15.178423409444948,-10.243098886057009,-7.7122831980831865,-9.79445702453852,-11.14408385537227,-9.942691541160649,-3.2011171464185035,-9.727347616893491
1.588,-12.663246426097082,-9.711447382092539,-5.2636339350514625,-7.725849061458964,-9.374344553413549,-9.71273661007824,-4.1824897454836565,-10.089314928408868
1.592,-8.242323009770077,-8.557864559425756,-2.600426495639436,-4.271811247796054,-7.030348399033519,-8.467808706487368,-4.972488609911062,-8.667044580054021
1.596,-2.9310518289814866,-6.910577732089573,-0.06887903986162591,-0.20724421311352847,-4.5162384135901,-6.3359192946807665,-4.9537638509613915,-5.92921687817655
1.6,1.7601871240186435,-5.075287473287434,1.9663295124865074,3.322246030443392,-2.349142428138592,-3.8238743060161045,-4.0228618431897365,-2.924007632293187
1.604,4.481772696151743,-3.4563438695570006,3.244770222328468,5.292824450764024,-0.9180948300129379,-1.6547111101647958,-2.6397470285676152,-0.7595011864119106
1.608,4.65495264819504,-2.4197984509723014,3.7139974406148824,5.251548110216778,-0.26574943031456044,-0.48998027567157676,-1.544514784214436,-0.0639570974356789
1.612,2.7055933507181145,-2.174985530976767,3.5438088522650055,3.4871195612450263,-0.0475387132220364,-0.6643380169127786,-1.320912646653333,-0.7192209778645542
1.616,-0.19640897139166968,-2.7269071226257404,3.040577320183319,0.8485803989923797,0.2847236899596002,-2.050274106481231,-2.0601927241454967,-1.9944825528385266
1.62,-2.7357010987769104,-3.9125279610029033,2.5051535154525295,-1.669999972162314,1.1607445103022993,-4.105157300676088,-3.3077027799313763,-2.974527613775205
1.624,-4.057330965173788,-5.482107376858888,2.1124260580344085,-3.35217415757072,2.6156913454725723,-6.082334115698961,-4.301639846995133,-3.0283054038810047
1.6280000000000001,-4.0779035998619015,-7.173524281565173,1.867106445898977,-3.9934595438578406,4.230387999463282,-7.307409831007004,-4.356799958559229,-2.0622407151779445
1.6320000000000001,-3.365056596752025,-8.74522897659358,1.6502703290610548,-3.8581100750679544,5.341368531650109,-7.3990103286361695,-3.1812917353028465,-0.43818046646639885
1.6360000000000001,-2.7190042738870837,-9.995565593198844,1.3055246029630485,-3.4474262547636987,5.393932193997916,-6.360982521136539,-0.9889143966698004,1.3313999589997998
1.6400000000000001,-2.727107699714577,-10.797471146622335,0.7074993540611398,-3.240954806301888,4.2300166141375,-4.5260077203205125,1.6268941531158516,2.8932783177572263
1.6440000000000001,-3.5234939568137977,-11.141183729401067,-0.2128000427878094,-3.5437626094680925,2.1559955329704277,-2.401755272097102,3.945815750588655,4.1699704746946065
1.6480000000000001,-4.83915819819109,-11.153676714170048,-1.4750790823125968,-4.473322547140437,-0.2440878904405812,-0.49574135867374514,5.376413469485033,5.242927613343044
1.6520000000000001,-6.231871506228194,-11.05051594168622,-3.0424276635004706,-6.008731209619981,-2.4242186283990597,0.8292158296541683,5.6381643251844045,6.137712719074833
1.6560000000000001,-7.318115288230466,-11.028437222096674,-4.7810886824938175,-8.006563529626693,-4.132420778020164,1.43567622316374,4.828539709343634,6.700129164085383
1.6600000000000001,-7.874124054412551,-11.132222472196272,-6.4237335964828555,-10.162850828344975,-5.45520116537284,1.422673459754856,3.372824620668724,6.67013043213694
1.6640000000000001,-7.795289719714223,-11.175042545619085,-7.588328781879676,-11.976100331866336,-6.6420138254252565,1.0768511577932436,1.8869501265793902,5.909575035749325
1.668,-7.021475428237511,-10.796435041430657,-7.894438971752109,-12.811061887280797,-7.854783784678317,0.7754531151698889,0.9883644125916649,4.6010617271822065
1.672,-5.534571966555946,-9.641387298099321,-7.14683968498502,-12.116197164030412,-9.00791169330765,0.8563264172382499,1.0896141823821435,3.249343437552362
1.676,-3.442983378787306,-7.576190572590743,-5.485150045425988,-9.714920783844944,-9.7948640234577,1.487523392068682,2.2346717424840463,2.4472390508212536
1.68,-1.0659577182575708,-4.821004514745168,-3.3885953730207556,-5.999318387405964,-9.874930380533776,2.5896061624202007,4.0610260488803025,2.541794786397455
1.684,1.0882347081246593,-1.9217178222759475,-1.4897119777679866,-1.873951044584345,-9.091758343752472,3.859208107737263,5.93438211053112,3.4222276005384167
1.688,2.511822848051235,0.4596873911666295,-0.26625029645099385,1.5818159605693012,-7.558103712451588,4.905699081809812,7.216295863923657,4.579676260674574
1.692,2.9730997701378348,1.8389567424359559,0.21717500468365003,3.58490132802331,-5.554302193591996,5.444162377566561,7.542063168236725,5.410578131151079
1.696,2.6966652231761103,2.1268009670850265,0.3492869521426787,3.9956121803052067,-3.327753832339273,5.44739509565406,6.970764552891116,5.571746381953549
1.7,2.303234947452961,1.6411999097177938,0.7457903469227674,3.3375143498902418,-0.9588530315362043,5.165996590458387,5.913294519807552,5.16121881652504
1.704,2.4819330398809734,0.8875904840881681,1.8604648157322115,2.458248141973474,1.5800265104593687,4.985239456990017,4.867606184959134,4.605955897221628
1.708,3.566116291078491,0.24386838616205075,3.652433523368795,2.0126079376292245,4.20937474163202,5.191505177926231,4.117296440872499,4.336409970142695
1.712,5.270974529044194,-0.2536972511563616,5.516475445677191,2.068946765120342,6.546937134781071,5.77655397082825,3.5750315084116355,4.477419411645885
1.716,6.778664743852935,-0.8939442927153792,6.550506260788087,2.081981806728894,7.921241833987002,6.4077507378624095,2.8767762686235585,4.779908886815683
1.72,7.143907348450319,-2.061906937366866,6.029845120620917,1.247766965097795,7.646027889228571,6.598090906561369,1.6770175381577679,4.834033055900438
1.724,5.817751014107322,-3.93533958055873,3.8411307116524736,-0.9507113602500405,5.431928997497283,6.004190212098878,-0.029559979025858496,4.433148972876204
1.728,2.9995862612658994,-6.285699235526183,0.6299591909885125,-4.329916366155921,1.700566761163544,4.68133303257916,-1.7722390359105749,3.826356889064102
1.732,-0.41072999703054514,-8.518963688694196,-2.4458957490897295,-7.997503451042129,-2.4350364992553306,3.12185820722748,-2.7745608682609975,3.6540484976346446
1.736,-3.2360077658488793,-9.934697067162903,-4.232366747952077,-10.75995869521172,-5.575654010250379,2.0330232149751515,-2.3634265320290604,4.580940738874187
1.74,-4.586446895444401,-10.060717833419833,-4.0985375327002895,-11.713447474528204,-6.651987149140114,1.9647812055352192,-0.380694414371356,6.841964099504434
1.744,-4.267469280585157,-8.892684457217182,-2.1987183799188936,-10.684994531515983,-5.439186662729638,2.99292396277174,2.6486139749859916,9.999597962457257
1.748,-2.7981368871186882,-6.887584012191267,0.6491164574696127,-8.264978622118122,-2.6653093714321496,4.647050345894657,5.714048317508879,13.094589187369674
1.752,-1.052947095914048,-4.7147596245806325,3.388249008993699,-5.426226336471057,0.37041749933384693,6.144010875363097,7.803506382287829,15.126756469257632
1.756,0.2547445972841673,-2.902922440271204,5.219874553676164,-2.9661052666663803,2.4755867289674947,6.812033178447425,8.41643724149915,15.594506784504402
1.76,0.9503456615158694,-1.5778652222225273,5.922832546667076,-1.103802890772194,3.1679478338271756,6.467877682412037,7.823586156868962,14.7669885608309
1.764,1.4176781481203298,-0.4515280617398649,5.858889201893938,0.5386651688469213,2.8698108893080647,5.528174040442159,6.921974417908488,13.517853914259222
1.768,2.2847718467147367,0.9535754019283695,5.701623247434731,2.5850496645944503,2.602440472491983,4.782870047062701,6.748680881801635,12.804387973475137
1.772,3.9885837286407035,2.9839938284269953,6.054611924146669,5.415205495118673,3.371711344578575,4.9520829381321025,7.905358185763543,13.088905166884238
1.776,6.4844018674081125,5.622524295035303,7.157225637746853,8.854077457079093,5.608871950687767,6.273324995339392,10.207651161726037,14.045134184811685
1.78,9.260058790298551,8.461466896459203,8.802991266945563,12.227558396810412,8.96615383208416,8.35031210274048,12.760562701321307,14.728762484060631
1.784,11.635440918973384,10.88443440683731,10.48535602684052,14.743407627210564,12.550920137308033,10.355243551084731,14.431703151068838,14.126168994343036
1.788,13.135625544986304,12.351235158641032,11.654857135358915,15.939430432734751,15.425765981754124,11.458898227649478,14.463747038446966,11.753251945084614
1.792,13.70647540723294,12.635471176732846,11.944318923307874,15.911520973026988,17.062890943640593,11.242434584935634,12.901273310572062,7.967722294173957
1.796,13.648528358053067,11.888946201711079,11.262880396862482,15.175693699824729,17.486953222073453,9.864308201932936,10.58317878401134,3.810757370940997
1.8,13.330135728529852,10.517912332514005,9.74489584832375,14.26687814979831,17.06313480024133,7.91079060682347,8.693397990294814,0.4768290121477121
1.804,12.873702967258716,8.942289379237197,7.615527259477201,13.347530314312916,16.104205344344738,6.034525051813821,8.109771539008431,-1.2896991419891917
1.808,12.031257557999487,7.3850785562426635,5.062671812673674,12.090718592673607,14.589932323849844,4.603099811242135,8.899834613031748,-1.5350687573003383
1.812,10.343212969979358,5.806071060221814,2.177319866618419,9.921887367127807,12.196229306673045,3.565504217543799,10.25307563688758,-0.986443606225776
1.816,7.496340002974222,4.002170064899976,-1.0186864371096955,6.472248926904161,8.618476355411923,2.5979147966281584,10.905969349644216,-0.5749731184169284
1.82,3.65288543330054,1.8001221340652993,-4.4802819957489,1.948428930749043,3.9623039357993015,1.4146855973164278,9.856976123780996,-0.8686005919683977
1.824,-0.47509323480653,-0.786673069602509,-8.045900508824634,-2.833247080556596,-1.0895050528273722,0.02924805319046042,6.981025656347141,-1.741462126842606
1.828,-3.875296288935397,-3.5211747712695383,-11.403030315087065,-6.793249452727095,-5.470120005267345,-1.202048299689083,3.1941814241002624,-2.4718059610262197
1.832,-5.6799274223063145,-6.021573214852412,-14.131750674729215,-9.11390127357586,-8.18163280240631,-1.7766631625333058,0.06709592303920564,-2.2003103099796517
1.836,-5.560117323237656,-7.893291865633209,-15.816151283819384,-9.621777329239528,-8.744314200849248,-1.3617147980518334,-0.9417863136376745,-0.48633038978127674
1.84,-3.862632928809946,-8.84967229797012,-16.17628971108067,-8.804095907409913,-7.384690506737692,-0.022632910225220293,0.7758332868527864,2.362709381410096
1.844,-1.4171728907924197,-8.772386115313772,-15.160631136938976,-7.450689884885283,-4.8530542755553405,1.7852381704831841,4.664576439063585,5.389806683717014
1.848,0.8804630263881728,-7.69810104144114,-12.961129451505318,-6.146466972135433,-1.980860360550369,3.454399251579478,9.275814017973625,7.460696444669395
1.852,2.4762066048559093,-5.7752062172083285,-9.951851272598459,-4.94059548377041,0.7472041694806881,4.548163962288094,12.966664734232014,7.843299829763039
1.856,3.340558939652472,-3.2337763906737456,-6.5897012037928135,-3.4055226275374855,3.3494084709244163,5.014294726673261,14.660141525232092,6.569710685024198
1.86,3.851977402416482,-0.38095324675381903,-3.311728012679138,-1.0374469202732106,6.1587083269785134,5.1586619249741,14.264435202779648,4.3914430619361
1.864,4.476558282060932,2.394832652016756,-0.46359128571353914,2.272346609018503,9.42825061347419,5.407450768321921,12.566166340977656,2.361443355770767
1.868,5.451834737280189,4.6603730161691725,1.729719756966432,6.004948399899483,13.001194990169951,6.007674266195791,10.699878982979588,1.2740861056272372
1.872,6.663025800121627,6.047990501854766,3.1682320871871212,9.189787118613715,16.276108971644756,6.850587090533752,9.528385133725399,1.2830660795621398
1.8760000000000001,7.764831224133442,6.404281432133709,3.8758269671914967,10.895885659045693,18.49895388818492,7.523746312417464,9.271496281801152,1.9012386634157714
1.8800000000000001,8.449189752709554,5.891074023224718,3.999835933153829,10.745727329167671,19.195200590824193,7.564342677686122,9.548319693184736,2.363489515693896
1.8840000000000001,8.658831689711452,4.940225012889514,3.7906583125856876,9.12839502011543,18.451423492662872,6.750921393464379,9.741501657802221,2.122165139747917
1.8880000000000001,8.608429855815803,4.0646171578325845,3.5466506808167555,6.976566147984112,16.872500079277177,5.257731476559291,9.41497281728218,1.1794008217357375
1.8920000000000001,8.616202242464878,3.6205994891379323,3.5190490296436057,5.245102782002449,15.238796390044891,3.5878915432747895,8.527068093814506,0.06921910643956242
1.8960000000000001,8.874762540381965,3.6594489066201206,3.8134061782807587,4.409193982563304,14.086057093323584,2.326050847698979,7.356806739001909,-0.47976425952289325
1.9000000000000001,9.318097120856441,3.953857216718946,4.344020353791501,4.281371995644415,13.464415079444251,1.8585748706782548,6.265288134308804,0.02569978438981657
1.9040000000000001,9.676516122605262,4.179594496307798,4.876867632277092,4.2451103393649685,13.009197643223938,2.2159107527329853,5.496121515183697,1.5864476567796082
1.9080000000000001,9.679250939442323,4.14686614248097,5.154497651868485,3.733374695390676,12.272780975489837,3.109307704511229,5.134632183428657,3.764772238449005
1.9120000000000001,9.255171866937431,3.9269422022608804,5.037458901467556,2.6303510603247826,11.085979473259952,4.108505368922341,5.202961109490577,5.980126175857402
1.9160000000000001,8.591021199098346,3.788021344651881,4.582142126965333,1.3382835401920374,9.709901970753338,4.849110784283503,5.758581786383045,7.841070150602674
1.92,7.996049275875316,3.970627170023654,4.010756385595233,0.4782582312346868,8.681930561238405,5.161420067285839,6.866794313511242,9.296802779506628
1.924,7.655292076929962,4.44670763020987,3.59999457857748,0.4452869537615207,8.464380884760155,5.077250742354256,8.452338554480676,10.532032768210634
1.928,7.474953794042289,4.86971567704487,3.5712903905611295,1.1439966729247129,9.154329717475893,4.761624168718717,10.174123303492081,11.721737525090637
1.932,7.148491267538939,4.785282153340937,4.046496720925425,2.0926185196533567,10.450830482313757,4.4417609379948395,11.483502389996472,12.833310738364586
1.936,6.4188291511154025,3.9998772324847858,5.087740345423416,2.832317754340079,11.904205944677587,4.370022287748057,11.911461708803483,13.633527487850506
1.94,5.373272034924563,2.865289991831272,6.760604941199509,3.3544279489510918,13.263709298858688,4.800652749279459,11.416170833338755,13.88834437729599
1.944,4.531780879876301,2.22726408657092,9.118468150154351,4.203613011330433,14.643248654330733,5.925652785636448,10.521470267778907,13.579979252889345
1.948,4.609292740445182,2.9881220968169613,12.061566984109945,6.117860504553144,16.354095443506147,7.73962868929195,10.064088060301682,12.936035096868808
1.952,6.038834356957193,5.4781763190927535,15.129227474275593,9.382930069435524,18.483330588803803,9.87885315316535,10.602838621554689,12.192763918282838
1.956,8.528774526636084,9.003142489731532,17.39037538791728,13.311401555390283,20.50368433325083,11.55416364157897,11.81997202204013,11.235033695060771
1.96,10.958456464270778,11.896850665160564,17.59929257183987,16.244091222623524,21.23399201602637,11.703018849582016,12.361384954813209,9.396469347449635
1.964,11.755552207936553,12.15055369725555,14.657050682941756,16.195414109037838,19.27284192346204,9.374381789321198,10.337155812584886,5.6379759731040515
1.968,9.640950478147493,8.38327275797451,8.219054502571165,11.87692156293501,13.756177688189426,4.2180941602525035,4.331479201467311,-0.8834779700538178
1.972,4.371614703214651,0.6756408930295681,-0.8629608354025835,3.5507754090373727,5.037495710120803,-3.1629133883753466,-5.592751118181412,-10.132574800252224
1.976,-2.926665271386376,-9.195468267618113,-10.55665293299932,-6.7931851256252855,-5.122280156910606,-11.22274500684334,-17.494875631260143,-20.807215980403576
1.98,-10.073530900507437,-18.315833492626574,-18.232572903811786,-16.116480099117595,-14.046952722960977,-17.91335653462741,-28.080775025468895,-30.544131463812764
1.984,-14.70958057942232,-23.786965517286937,-21.627091286772806,-21.5885472266474,-19.15584211198776,-21.41110739929222,-33.99013712363177,-36.71617672457817
1.988,-15.32807553624019,-23.942317193076182,-19.768464712314938,-21.813469515825624,-19.024538132287713,-20.822690236877854,-33.24113372210924,-37.48356109924168
1.992,-11.946075176984184,-19.03005904583992,-13.413174370703258,-17.40520533639272,-13.969831512953327,-16.53373098841559,-26.104898541916057,-32.584647901442494
1.996,-6.0785364720955934,-11.039708411528862,-4.751319142856042,-10.622491440341093,-5.866265865164866,-10.025719758536987,-14.96037083151356,-23.45827302615013
2.0,-0.021908310143393006,-2.775476551980235,3.5011145945894553,-4.258551769017604,2.6952401836526008,-3.243966252711939,-3.205995183792191,-12.638906333917644
2.004,4.203255605644249,3.357375518657107,9.20567866895485,-0.35490750151632966,9.481787189704331,2.187793992769414,6.20495154245043,-2.724422351315605
2.008,5.725447257415317,6.276239168481844,11.579906714720163,0.6166531834311892,13.410272069501195,5.532011242731626,11.863275952555004,4.576706737457825
2.012,5.080657994341812,6.4431308009422406,11.295137669785003,-0.2748773874617383,14.708413350168312,7.030531231049083,14.134716932832413,8.86866276312224
2.016,3.761196443981495,5.360486394194016,9.89989613101189,-1.2110986391011145,14.461386980187132,7.529944458635612,14.515969683838566,10.83317957743721
2.02,3.328288883451976,4.6771143814470255,8.914537620017525,-0.6949080377831671,13.867398203950609,7.881204361939261,14.571161503684845,11.559280789437526
2.024,4.557524722237077,5.37119723349343,9.078951118875322,1.6721786856841212,13.619846574915991,8.45252792942295,15.068119108770889,11.848098667977222
2.028,7.071445924512609,7.411399474935827,10.12012689234626,5.089710063663154,13.72284579149383,9.004563498363346,15.739622116132725,11.85736598239914
2.032,9.618335601605269,9.990778841277676,11.095683153962305,8.114859441430093,13.758107067786955,8.962820184219783,15.705625967132622,11.220196888193165
2.036,10.808035869196312,12.113978902032187,11.05626290827688,9.508909000511894,13.367225568802345,7.888234995396832,14.208613666873113,9.481704481939293
2.04,9.913596755382938,13.180942147691074,9.637985000560727,8.904202195653946,12.617560334481384,5.856536438991489,11.18777394889208,6.550310943536887
2.044,7.287727772563009,13.230119766918776,7.259243474905391,6.942232603497472,12.015387378503167,3.5100112620381707,7.371701183322398,2.8891629387643594
2.048,4.188152559705868,12.762827722968286,4.846853357723566,4.858157477517803,12.185592987120883,1.7496497273113056,3.8856799193359692,-0.6362022983052373
2.052,2.1277724416204107,12.320530479276346,3.285216254153762,3.787220300760539,13.436157396134135,1.2523442659708401,1.6470723672350982,-3.1389047979757265
2.056,2.1027263419851634,12.096967382328277,2.918622065310047,4.186988972265136,15.481883826635586,2.092974272629339,0.921284739889261,-4.09577324032297
2.06,4.10847854664104,11.826439011659701,3.3854269104622166,5.671970873090408,17.504951311184854,3.6920030704753044,1.2744212329605724,-3.531436999559496
2.064,7.173488690543279,10.990480665246789,3.853771972711963,7.299004100370794,18.51835043146463,5.124255253845646,1.8909782776800936,-1.9477970039500931
2.068,9.865142425620395,9.194394016909875,3.4976315744922384,8.1024236755425,17.83219174209671,5.6174933080211265,2.0462331801809253,-0.07310877319599562
2.072,10.978403251066549,6.472287238670376,1.9350593102604092,7.5644339157962195,15.368901267458723,4.966962706623978,1.4560853730882393,1.427300659690614
2.076,10.057272066068288,3.336136147541322,-0.601774643313695,5.786158927484079,11.681421774136252,3.6382745468191726,0.3300988445153221,2.1498549042418027
2.08,7.50930920535168,0.5372925858954618,-3.431272635924626,3.321605456371441,7.688981264675569,2.502334765072743,-0.8411143624597148,2.0201895971603427
2.084,4.29553981028765,-1.32737871321355,-5.797393217100483,0.8206708634745947,4.275270713325446,2.3537923960326754,-1.59939293608259,1.254679153924549
2.088,1.4144915925170327,-2.126630966458851,-7.23429810917521,-1.2935243134719063,1.9585220382295025,3.4762031740919914,-1.7508633516061978,0.2524244617526712
2.092,-0.5285247984092352,-2.242373287011021,-7.727753230526028,-2.937917294381589,0.783054750885261,5.481402396683574,-1.4114006554357639,-0.5361854251505171
2.096,-1.4568973686226934,-2.3269350874256634,-7.604659674037893,-4.247436641141167,0.4488254265422986,7.505802952885798,-0.8728044260097745,-0.7401436510065453
2.1,-1.644186267231743,-2.913986959645522,-7.254354041594498,-5.339356551134585,0.5657884305427836,8.648977979909152,-0.4025083774644711,-0.18461310098466743
2.104,-1.396015904478726,-4.11758914197026,-6.864410996325224,-6.137927966795426,0.8742202819796006,8.413116803737172,-0.10327001109452039,1.043126537230918
2.108,-0.8055083660453368,-5.5781770507458255,-6.323171445280678,-6.374960098003349,1.3283407816931603,6.918485418570902,0.10380425077050148,2.605411056644339
2.112,0.26810545998438196,-6.67954779314087,-5.339763176609761,-5.755875953217116,2.028045420221581,4.8057186678816475,0.38708104166025903,4.025802479817644
2.116,2.009132254840689,-6.904481988783706,-3.6896307786370195,-4.174068185984787,3.070112465400973,2.9008208576238497,0.8698003004395811,4.874208222059047
2.12,4.393212826337389,-6.122264510053317,-1.4258975737813502,-1.8327117538367972,4.418737531536049,1.8256296124191866,1.5317571208660197,4.945233023611715
2.124,7.044291406078527,-4.66579323829462,1.06625461272235,0.803989229212994,5.854158975447185,1.743787093506728,2.1949647859222647,4.333953711415644
2.128,9.312926339941729,-3.1585372002673306,3.209734325940861,3.2009868462000024,7.028047174576102,2.3504516630491885,2.5962825827365097,3.3666170061429375
2.132,10.548365632604563,-2.195594014670144,4.490473500527655,4.969772758856724,7.595569174802096,3.0743718328099847,2.496875717718239,2.419749160557381
2.136,10.40845530375627,-2.059566271032512,4.684452257577285,5.99059502334741,7.356738063818357,3.3649208466174394,1.784466216404843,1.7314645141849114
2.14,9.034441767900876,-2.619065545198075,3.9320545892289362,6.37946592349983,6.344319690109295,2.918632874697183,0.5157575012827902,1.3020932799059288
2.144,6.99306285995826,-3.45395003555602,2.63418755176093,6.342852032285601,4.820584004174416,1.7591043541628189,-1.1093433121008285,0.9461203447695059
2.148,5.013526143592083,-4.110147338541384,1.24297729649882,6.020349040709973,3.188760049311469,0.1654509037069456,-2.8250429799328227,0.4532631191455909
2.152,3.6673281205208674,-4.326359714696171,0.06830853679021232,5.420563792005028,1.8537835803901768,-1.4789059270178377,-4.388411964421716,-0.2528728393460149
2.156,3.142846039822296,-4.1219307856049365,-0.8047468807829645,4.466400152003835,1.077744273186295,-2.8455336345520976,-5.642750437882585,-1.0664253471144018
2.16,3.211010312612217,-3.7202424994043017,-1.464403111095951,3.1049967417300346,0.8794029536349841,-3.7659681287567848,-6.544616896217521,-1.791746798137757
2.164,3.3769564484661645,-3.389763430246283,-2.047293760207724,1.3918949098700746,1.0094044847488899,-4.26504716145992,-7.147638725008238,-2.31041952439334
2.168,3.127507221803923,-3.3026081305707558,-2.6303848925824944,-0.5076838892152713,1.0259614892483233,-4.530802751331195,-7.565184878430523,-2.7078253101517062
2.172,2.158898448590321,-3.4757465075207086,-3.2070594767247185,-2.3894605769294817,0.46487665311307946,-4.833797457314092,-7.9312281779060285,-3.2511087558584086
2.176,0.4811815497556473,-3.8083630369527133,-3.7437180176645803,-4.0960005515747255,-0.949031877289757,-5.420068725588118,-8.379049033344147,-4.2123116123344
2.18,-1.624074632223972,-4.161591847319553,-4.24942844721737,-5.5476679348186915,-3.139066278295793,-6.405626200217028,-9.025403578087216,-5.63691173214404
2.184,-3.7360979316639837,-4.419122618722044,-4.785603727510946,-6.690744056548505,-5.650714849784525,-7.702563110083264,-9.934055708536134,-7.21249997226307
2.188,-5.446666783498733,-4.496619756878966,-5.400503561977359,-7.412612571952365,-7.794535111463577,-9.019924102855502,-11.069350507896445,-8.34953815741001
2.192,-6.473558257822502,-4.32406792870707,-6.043050142480592,-7.5110098954207425,-8.921783563467345,-9.967215610054355,-12.264496729898196,-8.465036321861344
2.196,-6.708001274345261,-3.843529681862057,-6.528650322593068,-6.77269765287584,-8.718425182579747,-10.231015163955266,-13.230348592354812,-7.330048954834273
2.2,-6.20311938105283,-3.04279891345357,-6.606775762994585,-5.130660657870698,-7.3727856273667625,-9.742443385253392,-13.637498702995035,-5.27011578119132
2.204,-5.134483750270098,-2.0147802098104,-6.110029408946764,-2.8036572732408653,-5.529038898573324,-8.748051567524614,-13.263712160139695,-3.0837136582995184
2.208,-3.75001974317784,-0.9812265017096533,-5.086642497751823,-0.30281445434766896,-4.019789065157805,-7.729978708316059,-12.134242376131345,-1.6907639383205986
2.212,-2.320800412307615,-0.23822662489670465,-3.820784388591867,1.7364286278669714,-3.495069434111824,-7.1939543315429715,-10.577556248892822,-1.6864984294405545
2.216,-1.0882394070999837,-0.031198458975173038,-2.7042540275101077,2.827445788543125,-4.126538491954419,-7.433170996351796,-9.143518830998563,-3.048096638206027
2.22,-0.2143877242813635,-0.42467387643563215,-2.0224364476361436,2.8625279714258784,-5.53414636085847,-8.388307637364406,-8.400482266136528,-5.155176345138332
2.224,0.24831480553808905,-1.2588702291000111,-1.7910620418566725,2.1619339198624603,-6.993022726076962,-9.684350767292777,-8.698058195382702,-7.125518364758328
2.228,0.3646759212866353,-2.2284364107979955,-1.7528098853250298,1.2935046125353198,-7.823763280214219,-10.829135938119093,-10.008150008702367,-8.289380680197304
2.232,0.2919564083984354,-3.0405197604436216,-1.5495163463594426,0.7581029624535773,-7.75740394978498,-11.458079667022798,-11.938618028803024,-8.526141008948251
2.236,0.2051922627517646,-3.571314586789761,-0.9830755453251889,0.7095382433381996,-7.08910418332111,-11.498677846122188,-13.92081946619377,-8.287166597166475
2.24,0.20527594128276405,-3.9263057690499727,-0.19571084604079614,0.8728903343868453,-6.537876703946505,-11.169186494632307,-15.464445622323758,-8.29562960973114
2.244,0.2512276350799896,-4.366002909370843,0.365455686978184,0.7140934150511082,-6.87854171251116,-10.818734888878325,-16.34336756137872,-9.093905763698093
2.248,0.16590463114626353,-5.123384044772802,0.2060508075665659,-0.22779917929839932,-8.521057243417044,-10.708064973076073,-16.616045452186484,-10.701594343370777
2.2520000000000002,-0.2757168787629225,-6.21695502500905,-0.8744548744036011,-2.0396836435295986,-11.253209277059733,-10.861256364034789,-16.48147604039852,-12.573219295446787
2.2560000000000002,-1.1969158222446576,-7.363677553481574,-2.5672951008851888,-4.33570856842589,-14.280388811442432,-11.068571433573318,-16.068590151273202,-13.869139103942329
2.2600000000000002,-2.4845286923621663,-8.053007579925485,-4.113587285603932,-6.416047119166915,-16.543693183749347,-11.020940273002521,-15.301975107789374,-13.87852569981717
2.2640000000000002,-3.7559751813646294,-7.758722567021291,-4.630261672994026,-7.591528712454313,-17.166980252029255,-10.48337564608479,-13.930750320144156,-12.347377920755713
2.2680000000000002,-4.4772292302482315,-6.187283765242876,-3.5418553990834534,-7.503447307318703,-15.818049276635485,-9.412192959292891,-11.717805474635943,-9.55054005874019
2.2720000000000002,-4.201039563888731,-3.4495110018204054,-0.8896534411494934,-6.270953479043737,-12.82821924432604,-7.9534331997768195,-8.67195338275188,-6.101969781678962
2.2760000000000002,-2.8159337645291846,-0.07091702104303277,2.661574716912117,-4.399736335234612,-9.02721533640266,-6.340639696694176,-5.155392730877047,-2.641827315931617
2.2800000000000002,-0.667204122406116,3.177067228801013,6.124043605725127,-2.518738241763797,-5.380944557644806,-4.773894373748735,-1.797190290925193,0.39721786203211873
2.2840000000000003,1.5377026191780647,5.549274161722003,8.63138579493259,-1.0955422776201842,-2.6211696233881687,-3.3534883477292405,0.7604064125122059,2.833115751178304
2.2880000000000003,3.0265811404948115,6.602554681193601,9.791124629447188,-0.2681283225807991,-1.0173161856750264,-2.096351282636726,2.1508818941643204,4.614129126974609
2.2920000000000003,3.3290726239169515,6.366240108784298,9.767645714019942,0.14441408196129224,-0.3688727201834574,-1.0073897386330146,2.4383470536100518,5.660871381936652
2.2960000000000003,2.5323802257209156,5.334173559400022,9.083562836872986,0.49269419181439655,-0.18855192434975843,-0.13870243138569704,2.04301179207826,5.808983151029554
2.3000000000000003,1.2742919777413837,4.272153080561955,8.275385998716505,1.1004126431168486,0.027749480315988784,0.4095533246515455,1.4805870285308025,4.900004080207578
2.3040000000000003,0.4451337599744454,3.90129804113605,7.61486597033601,2.120747917342804,0.5747030350755606,0.549087384425766,1.066753155392111,2.9572766605953427
2.308,0.7358526598399289,4.5890221661822945,7.050047724946584,3.49647765769902,1.4550587762406106,0.2819321645857551,0.7650243323218238,0.31010947214207807
2.312,2.265343079240047,6.182202963754589,6.36702631880338,5.014068744550279,2.447000581670623,-0.26011653948163627,0.2567858278159587,-2.4508804842894216
2.316,4.484815269109304,8.067450448407019,5.43938414390544,6.4016381462328305,3.258924636255376,-0.8463970742629883,-0.8052050673094779,-4.697103364433152
2.32,6.427074875706197,9.456021165115184,4.394576106969799,7.429834204066681,3.6954554194020766,-1.2390554540163845,-2.5149645696665868,-6.0257772810450145
2.324,7.187692725071779,9.761681417648562,3.584815981489231,7.986118869859113,3.741338151056045,-1.2923845029098344,-4.584326372489473,-6.417363436802594
2.328,6.390914774457234,8.893471072848287,3.3832477642105836,8.106557105886175,3.5356102642819778,-1.0044165113763712,-6.441590889745372,-6.193563517025749
2.332,4.39545598395918,7.305471337570781,3.9369704225615973,7.95848688207425,3.266227888216668,-0.5038157638725782,-7.511767576704015,-5.800042183651234
2.336,2.1306107647778747,5.763314889247959,5.036406119041104,7.777002452536165,3.0511022805634473,0.01687760400554661,-7.525528853759834,-5.5505631103685165
2.34,0.6338847453694703,4.93858387275745,6.180324007283697,7.760940980080576,2.8712409126027834,0.3777245126610643,-6.679721711615653,-5.491969832482523
2.344,0.5216944310152143,5.035791795189587,6.805634221452893,7.96318627097897,2.5855867937562085,0.45950114488970223,-5.550254953244367,-5.464409715122567
2.348,1.6826760159721545,5.6737247307539285,6.558895241962849,8.236385820471682,2.026638233538724,0.2141666414870122,-4.80668101029524,-5.297667728198898
2.352,3.345766723986508,6.099171551201023,5.460688870528955,8.278282397488121,1.1213590734775019,-0.3493251096534303,-4.880338911966959,-4.995343437168044
2.356,4.480852458810336,5.6261375589230616,3.8902298863479894,7.7754440364973,-0.031678420313022426,-1.1813087797037012,-5.754988581870736,-4.7795893990513365
2.36,4.335943477109208,4.066629425559854,2.411259349736329,6.592695755166876,-1.1721181509660341,-2.19338711662388,-6.995496911591268,-4.955100452777639
2.364,2.8286129167847887,1.9002737529163902,1.5390583768982458,4.912602045333074,-1.9765140102170635,-3.247201440134632,-7.978760694083782,-5.668181546189202
2.368,0.5900379988575135,0.07671593620617911,1.5582104144658118,3.2251823710083776,-2.1929856322601355,-4.1613060030133715,-8.199329991086149,-6.7302120716926845
2.372,-1.3534821514407787,-0.46055866941920875,2.447814252392651,2.1473376086553557,-1.749055514697917,-4.751240264854253,-7.503074155932016,-7.640432628930828
2.376,-2.096252348771865,0.7263473345599905,3.919867583179771,2.1416665893527878,-0.7800329877615297,-4.902906530371258,-6.139673867998319,-7.834111383499151
2.38,-1.2983485003987454,3.3278721294811806,5.5335078796970665,3.279457790757265,0.44203356375514424,-4.6465742469169395,-4.622338611208718,-7.031737420672048
2.384,0.6731528903804032,6.43880919719889,6.841571417724368,5.194197837780815,1.6389197880987347,-4.176179600109867,-3.4839860061128665,-5.477087757066773
2.388,2.9666887569311076,9.023342871628909,7.524702111368288,7.256135913704418,2.644907646840503,-3.7888064122929093,-3.0567779609401597,-3.910869574582687
2.392,4.7037462186671615,10.436376460226573,7.485472591959267,8.883406055662348,3.4527030922219892,-3.7527073231583876,-3.3664214704730178,-3.2547617042840926
2.396,5.425669098148334,10.712555465523987,6.879136540635498,9.823002193960669,4.1673441249979515,-4.1621490427925165,-4.171940053282743,-4.145191082612717
2.4,5.290018896336054,10.476439604718518,6.059853517915248,10.240236638970652,4.900924224631691,-4.853697573381124,-5.11049489414218,-6.5557548642736005
2.404,4.91136607335731,10.52458200856309,5.445072300682656,10.55952745769082,5.668604472190453,-5.441720686340176,-5.8593916595179945,-9.70945581603451
2.408,4.9495891910925165,11.32625020438225,5.334868215889155,11.149498113550628,6.3516476448063255,-5.475503035496495,-6.244742511947514,-12.362296855089529
2.412,5.686890854159963,12.728795818965008,5.7638673007989585,12.046503485084964,6.7555734689677625,-4.657337899617491,-6.260446012623938,-13.328392795906211
2.416,6.839230467863954,14.034408615052874,6.475114124487558,12.892338468703874,6.736940873087134,-3.01437981410417,-6.018702737817886,-12.005720837004752
2.42,7.716064484914505,14.402653615748733,7.047358887740351,13.138257714870258,6.326388181039221,-0.9254715502615172,-5.667427076394569,-8.652875325524304
2.424,7.635862805796255,13.336815182669355,7.1228973274283,12.39889477068298,5.761511704937305,1.0146378346513794,-5.313688694485945,-4.291329884811603
2.428,6.353584564384914,10.99061811611432,6.619295409455893,10.73847595622642,5.404892208922769,2.2397674550864104,-4.994418169685527,-0.2866484787817072
2.432,4.251599229778774,8.127083160107707,5.799704040536074,8.70305893864208,5.5754799783976665,2.4490563453534375,-4.686895222384751,2.2004063194602175
2.436,2.170728041079316,5.749980023168325,5.1440666644168065,7.05527610683103,6.3768624287643245,1.7172316380297101,-4.341372340276361,2.638756962988907
2.44,0.9691613816203795,4.617998057954007,5.081480698329231,6.352666303594448,7.623312961234556,0.43165505230910095,-3.914225136563653,1.2605201317377919
2.444,1.0645078003126902,4.892659505194186,5.740318719148068,6.624655654740641,8.910425936741662,-0.9023782557501473,-3.3806146777722628,-1.1186706940572222
2.448,2.227395874613658,6.100877678261384,6.866156834203483,7.342681025941582,9.805702530199596,-1.8816516823642897,-2.732620536046749,-3.4867966196460225
2.452,3.7506929888248677,7.4164116439680345,7.966433663477395,7.725996741205832,10.072627645516036,-2.3347134341475613,-1.971284647197546,-5.031417083825762
2.456,4.899332841142256,8.102633016236444,8.609061117276275,7.2241125480671355,9.81408881743123,-2.3085648011155353,-1.111589539142872,-5.386094715232538
2.46,5.361206613397395,7.881451437316807,8.69131821281865,5.881126653105841,9.446159535648889,-1.9417922686373004,-0.20755240579628698,-4.665169805312763
2.464,5.40752942939947,7.036515711727135,8.509815462570549,4.354511095980692,9.503271529988139,-1.3208184560373133,0.6278729564364607,-3.3157154159471376
2.468,5.672862262114197,6.220988817513719,8.57851058606362,3.5602887755650734,10.366797539316925,-0.42312851444748667,1.2289651221719065,-1.8967695455368827
2.472,6.687762866909306,6.0830027513943605,9.29159667662177,4.137849720148709,12.046487978814355,0.8252388630511089,1.4233104640696344,-0.8822602179384194
2.476,8.452676681190315,6.910098163789423,10.638642594673232,6.04097105791815,14.132658243694447,2.43004977425891,1.1135355641900644,-0.5403202133402569
2.48,10.338621955763664,8.471866574734822,12.14171413116696,8.50089468239942,15.948797879518548,4.238208926228096,0.3578056138036063,-0.9036585701741351
2.484,11.418351546103862,10.13585414903349,13.069129536058185,10.415124963183628,16.838402777335304,5.964443699125531,-0.606931905090272,-1.801448262716974
2.488,11.048821706933214,11.192721911809421,12.818486572882723,10.954621854735889,16.45231240817441,7.334435802908327,-1.4146716345825872,-2.9213217324236034
2.492,9.335340615373156,11.208183831004341,11.247932953880946,10.036100318771805,14.895444775247658,8.247188591748928,-1.703687950131335,-3.900265345658341
2.496,7.17618464437988,10.234326736562034,8.775405491703657,8.387877551179088,12.667598054369419,8.847273438582327,-1.2754034125470006,-4.428837640399652
2.5,5.814359855130673,8.781301490285099,6.186084647624917,7.155220763535866,10.426225270758415,9.440641865719822,-0.1985919303193855,-4.345293598588288
2.504,6.124111769976011,7.562450914976327,4.25945901059375,7.255302383025825,8.690231825280438,10.288661082161013,1.205182575214712,-3.6797413415187052
2.508,8.038408327872855,7.141527780747696,3.417808772943017,8.833776205646027,7.6315478215657,11.394006352348743,2.4932144173549173,-2.630043487095741
2.512,10.476273191905925,7.65206379570661,3.5705564982471207,11.132873822078347,7.042295450178939,12.427859464754606,3.2957169447088894,-1.4680565298149872
2.516,11.856220380808852,8.731707604532517,4.2182197005551245,12.858423369752847,6.479888839952178,12.876054352755437,3.488961950590817,-0.41234446797846935
2.52,10.932856532123159,9.701729686419176,4.732154057036703,12.842641203245782,5.5068778747461185,12.332764118762888,3.2396645128285035,0.4564784725643092
2.524,7.4951431731357525,9.895002325677815,4.644549424619124,10.640485174561247,3.8971397116595563,10.780494209388031,2.9007490876507784,1.1880388465294693
2.528,2.5346705929001296,8.985422351588241,3.811628907110685,6.748422301246762,1.7205805776488718,8.688226511506477,2.804415235527484,1.8652770616999477
2.532,-2.2322348360604356,7.154938351092406,2.391115819457109,2.333551507630252,-0.7247809652453845,6.843856382660659,3.060132764592238,2.4769740971556256
2.536,-5.230785634575383,5.021016568604922,0.6937295946005446,-1.3581335205268026,-3.0669121699466655,5.988807535264336,3.471523869190184,2.8536098374685133
2.54,-5.804797235938093,3.3621433564743906,-0.9815138501360869,-3.5847621068474425,-5.004755866832919,6.440768157110655,3.616456867426977,2.727426753653208
2.544,-4.479722129233235,2.7669814304925238,-2.43519730044771,-4.3713271423926505,-6.374684063710773,7.9109189030810585,3.0680038640700187,1.9045212160172662
2.548,-2.5806747902618823,3.380282998112962,-3.5510160759709986,-4.337682419131014,-7.119206572001196,9.622655800181544,1.6511378959890157,0.4598554032707718
2.552,-1.4483906572995178,4.861168671688769,-4.2262673666370185,-4.231075934525051,-7.211401443857806,10.67278420864699,-0.3950123116565014,-1.182575427981177
2.556,-1.7046051843480043,6.567777242198135,-4.324970447484316,-4.452218182050648,-6.6025192779816315,10.457080364749832,-2.4427317184117205,-2.360803364557416
2.56,-2.9637759603299054,7.882247465455787,-3.698222693700031,-4.839603453550666,-5.23280609012755,8.956534659344628,-3.694374973874951,-2.4389433217292664
2.564,-4.144079545145565,8.498997489942946,-2.2711693338297207,-4.829578081489657,-3.1159068360027327,6.734711683840103,-3.515352562953245,-1.1116210354745633
2.568,-4.164805872950359,8.544037861943188,-0.1473563894140173,-3.863965504131027,-0.43902246418083646,4.658527653428482,-1.7465741709926637,1.4074331346120967
2.572,-2.6015541450782935,8.47500906144868,2.344071175834303,-1.7801837968447165,2.400816285878282,3.500688174750655,1.163315586455673,4.429006800672996
2.576,0.07367063962494647,8.820718974050353,4.699001686010579,1.051156082685521,4.866224473889771,3.615224708646396,4.268530464110703,7.053908393874599
2.58,2.7782330223908707,9.899486220786008,6.3771635692682835,3.9112473327680197,6.447311110369234,4.832398740003834,6.460040814222377,8.550529904696141
2.584,4.4243202110679265,11.64257585065289,6.972625165957947,6.111586432444014,6.838686447943999,6.603281625738177,6.904786755887702,8.654996381341501
2.588,4.486469378454371,13.610065233392735,6.34997937274549,7.340717606505979,6.04808685618685,8.29491809537672,5.4019459965900545,7.659418422483305
2.592,3.2004703554223144,15.172421841832428,4.685814659680416,7.766287266895726,4.3752424760686335,9.472295246543633,2.497518807349514,6.258829995537123
2.596,1.3147664863753192,15.756219583034099,2.3950435933552146,7.84435548953403,2.2630560791979164,10.03360513366366,-0.7080739595688197,5.228899351996823
2.6,-0.40578897621739163,15.047446153247543,-0.025717684098691684,7.970769688079667,0.10281483960828908,10.155041641003521,-2.9888396960514805,5.094251873187149
2.604,-1.6120289259770297,13.06728443296482,-2.1774704515812866,8.18810083233815,-1.9189187342633982,10.101190360231618,-3.490653502782136,5.928977554472478
2.608,-2.4860683059636397,10.11985974917954,-3.8820389802682618,8.127802502883108,-3.8461772845158606,10.019139925175669,-2.0751257425934075,7.362139055860757
2.612,-3.5046911152036415,6.659139505534822,-5.202808572462723,7.218372435097487,-5.851656525909613,9.83190609613667,0.6449583800660879,8.760028501505849
2.616,-5.051620152144872,3.142343719862869,-6.359398145848121,5.02199770479709,-8.072216266015609,9.280989679236354,3.5930509613666786,9.485836750128355
2.62,-7.137398589443228,-0.067951807101027,-7.583007354338876,1.5047677224047753,-10.468035333275864,8.085534180869356,5.699455952392428,9.132780589013619
2.624,-9.394104771074266,-2.735276314132858,-8.980046523850142,-2.902038491908135,-12.789271059500223,6.137332284278532,6.342722083106021,7.6545497321697535
2.628,-11.310726414623986,-4.722589780373685,-10.468024406297973,-7.465573398958205,-14.662646876337659,3.619783114743811,5.564146030718463,5.364215221809676
2.632,-12.520306138154005,-5.936829117516748,-11.810047000907007,-11.42240123009862,-15.746151794441634,0.9867297607495509,3.964723725940946,2.828146948533636
2.636,-12.935393662113574,-6.282221334708101,-12.723685928445606,-14.202576351207643,-15.87546570828354,-1.19392182669732,2.360298366863713,0.6947244115064741
2.64,-12.657312863398904,-5.647297712019196,-13.005316740813798,-15.512893330688966,-15.125636186842446,-2.4660182212423685,1.387299043905248,-0.4972729052878506
2.644,-11.759668921278504,-3.9381843901169375,-12.603850187635437,-15.28389711876555,-13.761065636258117,-2.669225125728154,1.2584731524508506,-0.47043039600837133
2.648,-10.142245917585802,-1.1509302931963497,-11.619014110240322,-13.57886254656828,-12.108277444979922,-1.994345986760031,1.763977835626779,0.7163703752698307
2.652,-7.594239850867056,2.5440678906893357,-10.24144194159259,-10.564799483529189,-10.426213659484743,-0.8879755190889274,2.474077281145524,2.696692339196794
2.656,-4.04619841887845,6.75175035077153,-8.6773416495987,-6.570693142853332,-8.839953299847558,0.15256735049041747,3.003206472074851,4.922929913303716
2.66,0.1705525092448923,10.882581503318189,-7.105294035998749,-2.1671385180154417,-7.3571411481986,0.7917584143779552,3.180787304057092,6.849328853029389
2.664,4.268240214560848,14.282259273245117,-5.669518598845486,1.8509120656322122,-5.937665535561625,0.9810925277374101,3.057382904325193,8.115056860894402
2.668,7.243352457982871,16.427143571978306,-4.491579495799754,4.639187380380155,-4.569987515304965,0.9374463339509633,2.7801147508708617,8.643853809152601
2.672,8.313320246202693,17.09679977193815,-3.6733545062211865,5.590232923336286,-3.3121680623041767,0.9886093587904998,2.4511722894892545,8.611909035870669
2.676,7.303321891461707,16.435639864004155,-3.274152397645075,4.597708478469254,-2.2760645245899305,1.3754783415172627,2.073518907906953,8.311730857285095
2.68,4.749701510824305,14.866148153462229,-3.2780386484023936,2.1437350577518703,-1.5625380562623654,2.112447316752437,1.6028211604438756,7.989668429883475
2.684,1.6333668256308203,12.870299352569976,-3.5914969252435522,-0.8730666273059065,-1.2005937828736606,2.9739476612667897,1.0636291159322955,7.7315091614201945
2.688,-1.092638047187891,10.76788671471911,-4.07762699252007,-3.4978194529648405,-1.1081277194326287,3.6150336862051917,0.6324899206170187,7.47097063068172
2.692,-2.913723300281829,8.61498331667724,-4.61804193325122,-5.094538282279899,-1.096303534798274,3.7576493039565273,0.6035055265287319,7.101507818115605
2.696,-3.886598556069308,6.27420131028246,-5.1594503498011095,-5.559524827704257,-0.9228253913392201,3.3417585865998305,1.2459679354935016,6.607343391492576
2.7,-4.43857928963716,3.6203994330926825,-5.7128767945161805,-5.2820367757674695,-0.3838042144732601,2.550537390338129,2.630134436882493,6.117799600564885
2.704,-4.9907058642232665,0.7463563780040925,-6.301220741376454,-4.889585349966719,0.5783998839594915,1.7043706632955917,4.526194812976835,5.83861215765514
2.708,-5.661522934077505,-1.9781097775223353,-6.898195282061587,-4.9274193225928435,1.7892931295199954,1.0851809032273199,6.448785743310551,5.899619552644391
2.712,-6.223251998121809,-4.043873179950455,-7.408058573926517,-5.62876958870056,2.8240577313772883,0.7911544593206878,7.8370608683809415,6.217838824689411
2.716,-6.310815785696807,-5.067995073530132,-7.714606473488627,-6.871008011718271,3.0961450458676376,0.7080713594860408,8.280379660829459,6.484158818983425
2.72,-5.705969287865589,-5.017207350821721,-7.764962584511357,-8.287865585496437,2.062268819754392,0.6147587590584429,7.6997691992304915,6.31309904414647
2.724,-4.487022245128907,-4.237859620103599,-7.62159198419028,-9.438425389810952,-0.5169235175434905,0.35795771641536256,6.3992647505771085,5.47384213935153
2.728,-2.9439275310975423,-3.2595078296197864,-7.435715000703209,-9.944033331461466,-4.371267555453873,-0.012071644555855299,4.952939594783083,4.057551903398034
2.732,-1.3486551956476838,-2.496723968106412,-7.348565101456588,-9.566148477479693,-8.707133266030374,-0.2412056662692199,3.97701971931209,2.458845831580026
2.736,0.23055072982146507,-2.0395298749259694,-7.382380412784417,-8.238491071823528,-12.438852102804656,-0.018395647184297648,3.875992657211125,1.1581143665313745
2.74,1.922392228356974,-1.6665939620492622,-7.406484631437235,-6.092371017233882,-14.599758871931144,0.8140784707719395,4.656381670131127,0.4240991926648494
2.744,3.8530443508543253,-1.0765661628934746,-7.214204206827564,-3.472623590843135,-14.760402973199358,2.1160475205288583,5.905024105463488,0.1308086071923844
2.748,5.91602822052797,-0.16813507683871487,-6.6630560648838495,-0.8980566535970511,-13.224267717979886,3.4743605489684186,6.96028256006705,-0.1613381573764201
2.7520000000000002,7.7107262106756425,0.8306003295486608,-5.77651124223586,1.0732434300294917,-10.87706823635543,4.4130084128763905,7.232422603541314,-0.878162946462715
2.7560000000000002,8.733035886569102,1.4841101492890774,-4.729610513163966,2.056178983133012,-8.742858940382536,4.675918348434545,6.527530226324826,-2.0583740785230864
2.7600000000000002,8.702535890064855,1.442517011540982,-3.7294914604535334,2.0272768522140883,-7.476696248271707,4.406965855501454,5.195683542777262,-3.203466938132272
2.7640000000000002,7.780071586626738,0.6823752232823512,-2.885717523987161,1.3487685135615768,-7.088884610096227,4.088403953310187,3.98100889143256,-3.5090415547620135
2.7680000000000002,6.471130869930446,-0.5053103249040918,-2.198633241774196,0.55374964799053,-7.080783964807661,4.2281739499627395,3.585076374385517,-2.4225924604105957
2.7720000000000002,5.228303615165176,-1.8065170263549444,-1.7113347679778954,-0.03356322514655696,-6.936920309905714,4.956994250282925,4.132454907103668,-0.2234212018554036
2.7760000000000002,3.998983120103853,-3.266197591920288,-1.725411346312404,-0.6304157515049722,-6.670346681703773,5.774708908853927,4.850678988283622,1.7699538382365625
2.7800000000000002,2.0664332892285096,-5.455795754686372,-2.8939470621694032,-2.0395553105013677,-7.048646596528111,5.641982906127343,4.208646853782702,1.6003907125887422
2.7840000000000003,-1.6138355206354973,-9.225926942020264,-6.026073499580124,-5.285939509776433,-9.286380723237517,3.444439457032294,0.5663610198881495,-2.408945185950841
2.7880000000000003,-7.691982431948032,-15.10337129067622,-11.609379710947245,-10.970674054007166,-14.29517015170832,-1.3674285177417058,-6.903161386846014,-10.6487237509481
2.7920000000000003,-15.714675465111112,-22.66296183854068,-19.27063512757552,-18.67144967478565,-21.88566541058988,-8.293012419101963,-17.47823508470605,-21.676290884114657
2.7960000000000003,-23.90294976487326,-30.30265866360872,-27.521186947408566,-26.76167595163134,-30.42087319111034,-15.747737358187337,-28.786663655723196,-32.50047987054123
2.8000000000000003,-29.678263854248186,-35.67187787880848,-34.049323690198975,-32.853478361764466,-37.2168472125711,-21.567852919342542,-37.50507299774598,-39.67037884781769
2.8040000000000003,-30.767004718171137,-36.63494777087317,-36.53966532309898,-34.73609688522467,-39.588332936311105,-23.866771487899,-40.63746341728438,-40.69681369296997
2.8080000000000003,-26.33417035668376,-32.29916240570487,-33.674862217075656,-31.374916578208968,-36.049334744341465,-21.841775358768096,-36.79724025636994,-35.122685780453
2.8120000000000003,-17.527884127521673,-23.556068008610573,-25.82092351040894,-23.465720397248635,-27.060322128012437,-16.130357068651097,-26.85910782891952,-24.698772946020036
2.816,-7.0756871933436685,-12.796404991856537,-14.998582180804446,-13.220454520794206,-14.904306315542286,-8.521119882778537,-13.630819980980036,-12.56280856866681
2.82,1.9069892329951175,-2.9061585171242577,-4.099244498947489,-3.456058227371391,-2.727208370206965,-1.1625997831204737,-0.6773623544416614,-1.8425994070072031
2.824,7.2973369325492925,3.9572881043076436,4.303198923427838,3.581029784029105,6.781913646557992,4.339007618269457,9.139290267332209,5.617222781825334
2.828,8.827221004400243,7.18686284151728,8.955622889718892,7.077598073438805,12.41136714762158,7.489285483169079,14.69172628512332,9.780532846633948
2.832,7.972681113730537,7.73203952504808,10.248679257918276,7.7793987988374305,14.656154744654888,8.874943880100165,16.70328323755358,11.992975594977318
2.836,6.9660293221841325,7.33512864192695,9.729233343258226,7.361193979804465,15.107902806470204,9.605968825978518,16.972711831633394,13.914953695962001
2.84,7.501508149641485,7.467857579273118,9.114977135342894,7.417059131309942,15.413151341082422,10.574227184611248,17.1902002873861,16.450661495089236
2.844,9.842137731890228,8.55740014679579,9.370155806966402,8.624506487145977,16.39192590086442,11.948811036289227,18.021668687336962,19.268761275756884
2.848,12.796537987096242,9.902180451564812,10.327977355100089,10.506977156860138,17.77096894393234,13.171633182606831,18.92705575050343,21.132500074401545
2.852,14.528130069887942,10.253848485370822,11.009204288278006,11.866929034684446,18.596333134961153,13.409230642307037,18.735400206790594,20.784116178518545
2.856,13.695953971251086,8.671901753911484,10.385608244240363,11.588078292753117,17.995652457131456,12.1560954504029,16.579327202567228,17.825877997642163
2.86,10.26073933192784,5.129865763555883,8.092827105303517,9.317590344555548,15.794354116026566,9.60908920811251,12.585049875797598,13.064347799411623
2.864,5.519656026856465,0.5419228266029239,4.677631154439602,5.657817397752992,12.629006040272179,6.6039255634445695,7.910049646247497,8.13863287815713
2.868,1.393874636930514,-3.748416528442871,1.272265752859978,1.8036735436455622,9.542490621438446,4.1684333552781245,4.144517507999189,4.673402000073187
2.872,-0.597773186514706,-6.685175284477652,-1.0660612620244168,-1.1261878672029946,7.355961941199405,2.9718563838075243,2.4452960948200433,3.4566168852346264
2.876,-0.07799064992772209,-7.98462902184934,-1.9141566441033815,-2.6391471965163307,6.238973187191085,3.0129574171255973,2.9438375932045684,4.127778321480366
2.88,2.125064040714487,-8.13496583599241,-1.6155489347134369,-2.9919393279964925,5.728661926860173,3.7182752992912436,4.765852618810525,5.523648204621232
2.884,4.564368111625015,-7.977363784434556,-0.944145489046174,-2.863420764608615,5.143362458449917,4.35816192372493,6.609799523169,6.432572867099344
2.888,6.020381037373234,-8.161930221926047,-0.5450593742324976,-2.831004737418515,4.094773315092235,4.509772832666273,7.509657741706665,6.289319826019936
2.892,6.107467339898268,-8.817666329838644,-0.5252019055561301,-2.995840226405111,2.754456512828019,4.268035247393348,7.3257817227006425,5.4067388486962304
2.896,5.32602037929691,-9.598475124491191,-0.4408511017352299,-2.977416143061533,1.7185360217003007,4.090211778734673,6.686621288098928,4.643260002676399
2.9,4.603436566444502,-10.01254339729884,0.33692027208885944,-2.2497522994379904,1.5837140541269812,4.397971630790585,6.466068173408619,4.753507850399215
2.904,4.654372642231397,-9.789319658119492,2.1343652811937055,-0.5756408463804472,2.518688299981849,5.214724292770921,7.151989505743598,5.847118263243241
2.908,5.559091394311931,-9.039950606893607,4.684152303417566,1.756615204621954,4.114307562739711,6.0840313026432264,8.50868709741782,7.2868785659056945
2.912,6.791420048566278,-8.137664696025823,7.211390394427818,4.045526818796619,5.597280844489781,6.328064169795973,9.727744847059517,8.074977307006115
2.916,7.631410347893868,-7.43916385006402,8.833770626220929,5.558712888975315,6.249382275810518,5.481335531772891,9.958059306637413,7.464826681743583
2.92,7.661465056606668,-7.049244285224317,9.02710099419466,5.9374179722642175,5.773314691336689,3.62637912158458,8.859623329474985,5.418312419534279
2.924,7.026627552321425,-6.791191919407525,7.879438205829263,5.36918532748581,4.390235294070186,1.41119959450657,6.835220185794534,2.628423418684718
2.928,6.309895852296954,-6.384599185214205,5.990823568585148,4.423918981757046,2.635581761984993,-0.2731533141879492,4.790059998202215,0.10074176236209231
2.932,6.1375629685547235,-5.687810209301739,4.107336105959539,3.6764917639395467,1.0151555794990514,-0.7603045630836212,3.5856910608734736,-1.4140346764252674
2.936,6.77027971261512,-4.842566897089771,2.7179708894057866,3.3566194465033687,-0.25831124019511176,0.04443876540891889,3.525591146553605,-1.7939457148265014
2.94,7.931349368579141,-4.21932417438854,1.8435450462211995,3.236249641372569,-1.2925573068637808,1.6291064325802629,4.175092245118769,-1.516108430775272
2.944,8.96699538894613,-4.200105328959904,1.1277238005719201,2.8128176809807446,-2.327017735852414,3.16670544403547,4.6319916085648725,-1.255785265965689
2.948,9.216538378256105,-4.940062104228081,0.1451978349933083,1.6525124071026218,-3.4759928049537088,3.9442553297162393,4.078640562799174,-1.3955383253433213
2.952,8.349460424175499,-6.26293250577957,-1.2763356119433151,-0.33256710411493806,-4.5839728785114655,3.6932005565543156,2.2874113881232097,-1.7596301843664093
2.956,6.483863990797077,-7.746003511864405,-2.91410463403737,-2.8390704228322834,-5.2876855878202615,2.648568824946035,-0.22901226080357184,-1.7510589266373113
2.96,4.057418853311336,-8.925301267378439,-4.255812494168781,-5.360179135462099,-5.227458372093387,1.3501392245611168,-2.4948581126032483,-0.7964658696008722
2.964,1.5695183036561091,-9.497627496990075,-4.780415807191892,-7.458721203447191,-4.266452408158145,0.3285780576280297,-3.6081222848599515,1.19884582270424
2.968,-0.6243793042009654,-9.415347923122926,-4.24635665330097,-8.942492596697427,-2.581857838750617,-0.13987428195839557,-3.222638556395781,3.6759438904311086
2.972,-2.348932559274986,-8.843130979234317,-2.829672234343796,-9.833986644971729,-0.5874589279743132,-0.08636938073657141,-1.714760830062911,5.654170850262908
2.976,-3.5023430726973754,-8.035005845732847,-1.0478975984134284,-10.186309906507828,1.2489615309320499,0.2684832242261989,0.04938153490891306,6.235517701083259
2.98,-3.9382754728859943,-7.218228237711431,0.4770302405588922,-9.909818766270124,2.5788986307531374,0.6896206818610184,1.192406214115758,5.073159941447262
2.984,-3.4721696285183548,-6.547439825723934,1.286586377114765,-8.762341557464795,3.2496148752936307,1.0354204109846297,1.2631970493389533,2.5365834397644558
2.988,-2.0311396212803916,-6.125173811101152,1.2504271252007433,-6.537314984358738,3.269928186633071,1.2411866581795998,0.3880982607874248,-0.5288536871377296
2.992,0.14565027075129278,-6.044361582092981,0.5661760929492536,-3.337574595937138,2.7220117591445057,1.2285027220011442,-0.9279379920290713,-3.289649517597536
2.996,2.4274736130472574,-6.399742843439833,-0.37526209483607254,0.26938165327980945,1.7017440664007348,0.8418608655533757,-2.1930361703958683,-5.357435406035146
3.0,3.949701190139213,-7.246860489644169,-1.185809420244889,3.3597777684678114,0.32230764987523486,-0.11765475102850664,-3.2574637754746796,-6.918810057373166
3.004,3.9784774828215546,-8.53671589292929,-1.636694707851765,5.0082200760754,-1.2493104322565975,-1.7628842944605214,-4.3630707095520265,-8.500477518355183
3.008,2.2986489489705426,-10.074350173936196,-1.7106091113321495,4.7129509565951295,-2.766074144101003,-3.9765217029104356,-5.892837619602193,-10.526252478148109
3.012,-0.6191419353676446,-11.547919229858795,-1.5563747422431682,2.6472137903150625,-3.9384514460324445,-6.36839048037292,-8.001772895439787,-12.96595265560781
