Timestamp,O1,Oz,O2,PO3,PO4,TP7,TP8,Fz
0.0,2.3447910280083306e-12,1.0018652574217413e-12,-5.186961971048731e-13,-1.4104273304837989e-12,6.821210263296962e-13,-2.7569058147491887e-12,-2.5579538487363607e-13,-1.8616219676914625e-12
0.004,-0.8321178747368094,9.795039506643228,-18.641388786852275,-8.306471259628761,-4.8906601210717895,1.2159714939910629,-3.18357800736662,-0.19854144827596087
0.008,-1.3627020650619244,16.860781612442423,-32.316037340790075,-14.14874272284328,-8.200702303946706,2.4434898883911274,-4.604531801530534,0.256203069869386
0.012,-1.4203168585000867,19.678596419158765,-38.204234534843195,-16.208216229428185,-9.056795380997492,3.658984491517785,-3.3170932312759334,1.7018001718013238
0.016,-1.024066222552591,18.550942994662982,-36.71103254359986,-14.845981711445667,-7.631412884181586,4.795589443299903,0.38793740376993924,3.990641858561631
0.02,-0.338665295228779,15.314860623725686,-30.966320491275592,-11.752098407530468,-4.956503113907871,5.764464786231713,5.150456844157034,6.539089335385455
0.024,0.4420678341268598,12.349547364187352,-25.083017025944468,-8.95066815073072,-2.3357443304646424,6.49599846158506,9.212560621446364,8.574549933197702
0.028,1.2058354754118952,11.413636728312351,-22.13755944574035,-7.743652088235169,-0.6824593166346453,6.970574638131367,11.257711037992955,9.467583832512616
0.032,1.9642411032986473,12.917922839281797,-22.936537190376775,-8.183310977884407,-0.136882086623892,7.220295227608204,10.982958682705458,8.991170144451559
0.036000000000000004,2.803189633662555,15.960986108712653,-26.118226112529342,-9.315228581718198,-0.13752635581422723,7.306045990810034,9.13723276324788,7.404745710893863
0.04,3.7704935276017437,18.99586130702537,-29.348427611827546,-9.96683313353698,0.1361775053556329,7.279393854185159,7.044633362742175,5.319469584338876
0.044,4.78361382955913,20.695041521015643,-30.803446110069167,-9.54750022656853,1.237895754344727,7.152472578036566,5.877332762580579,3.415367290048806
0.048,5.633330125252925,20.53275409233489,-30.076893670104518,-8.370593477990685,3.142182845985033,6.896377079350017,6.075383493524718,2.14963632430171
0.052000000000000005,6.0924531674337885,18.850492768555547,-28.12214739790968,-7.35613974723309,5.295387890816052,6.4779255317808975,7.196426146108692,1.6019341420083606
0.056,6.073692598933846,16.49413437490792,-26.440757004688162,-7.364194565473866,6.9553404130222845,5.917117734130329,8.238277493459513,1.5179045994210298
0.06,5.729665149901464,14.301889394795065,-26.093850837961117,-8.60948655407416,7.599293401465509,5.325160252255216,8.238120364461743,1.508280211384104
0.064,5.40558293487242,12.741721974277255,-27.14238804421334,-10.531464741066138,7.163298230020164,4.885407172482573,6.815004722844876,1.281092135270356
0.068,5.4594992021943725,11.849669812399952,-28.76691289043211,-12.164191778498772,6.0010653771277696,4.779084369127389,4.373398928536226,0.7769866450553593
0.07200000000000001,6.036137832683352,11.413974382245762,-29.90520432967515,-12.7507033573875,4.621032188570371,5.086225632174475,1.86118059211136,0.14275192934856307
0.076,6.930569799638143,11.225591691663102,-29.95621612494518,-12.202515845735121,3.3808358713767817,5.71397825833391,0.23419475743347107,-0.4165553249677174
0.08,7.644746672732097,11.201694332862989,-29.0945438392218,-11.111889032858798,2.3224544282566555,6.394081127574907,-0.06467438350256316,-0.8022718794683357
0.084,7.637481912892142,11.337370718905238,-28.04705088456027,-10.327781727039707,1.2282854732124306,6.766678136173795,0.6676390911412042,-1.0899433451852616
0.088,6.643496264707807,11.576478071507783,-27.52427449058255,-10.383039890784364,-0.15414880963085054,6.5223786382937305,1.5771646583648717,-1.4568269567641323
0.092,4.88608741199797,11.753291731051181,-27.72578679644303,-11.155288093849986,-1.8734489998935757,5.547752585706192,1.7246869742140447,-2.017736441606658
0.096,3.047762054613443,11.683833923132866,-28.23964785485393,-11.96533800259001,-3.6652322768948338,4.015252802684486,0.5873141604488268,-2.6829805098185346
0.1,1.9811877044683044,11.329733025472333,-28.345295490042087,-12.030521886054409,-5.03215076734346,2.3537949284172015,-1.6775449602399206,-3.1572223373293156
0.10400000000000001,2.3014050280900875,10.895915106875794,-27.488146657481266,-10.966258266659217,-5.4620776241293285,1.0931771991470782,-4.329136585360885,-3.1027082758261884
0.108,4.073237684820398,10.749180255058146,-25.618528602403437,-9.013032871650218,-4.672639523760566,0.639836644719658,-6.422972683631762,-2.3891056092572285
0.112,6.737170897702953,11.181375848194868,-23.22946627356591,-6.888097001632474,-2.767567860653564,1.0812911622372852,-7.271642044936144,-1.2675558141645666
0.116,9.323343253766858,12.167575036536551,-21.11729613257824,-5.382860453428933,-0.2399554730937119,2.114941048418551,-6.7527265652705,-0.33109806787498997
0.12,10.86281614358662,13.28349820505699,-20.007769283620018,-4.956344217481448,2.175952874658961,3.1454185980667546,-5.3166763466551,-0.25680773894002584
0.124,10.792646825324994,13.86303256536478,-20.24372527636837,-5.558542631084585,3.750294078358067,3.529271574219095,-3.7130031745594394,-1.443128052111959
0.128,9.171833317052219,13.333149837423385,-21.659092662804905,-6.749676785753579,4.0172471421272675,2.8666883504426437,-2.590178412083233,-3.7352716486566777
0.132,6.629990755289249,11.562269990097622,-23.684617422779993,-8.002908097796254,2.9470029832189653,1.2087483291687064,-2.1934111958381663,-6.41003042029925
0.136,4.083143954525603,9.015112635253509,-25.61784494132983,-8.988233335979793,0.9624477282928616,-0.9314086845028626,-2.3134896138727754,-8.458474740074294
0.14,2.3591090945428306,6.5942465372975825,-26.8986345344862,-9.665165743572807,-1.2085253461716015,-2.7918534653044205,-2.4718018188259947,-9.04319850452918
0.14400000000000002,1.8952724165613901,5.225335863919565,-27.281018736048097,-10.170722168087831,-2.804822454391932,-3.719348924363011,-2.2274120174153005,-7.915226770056762
0.148,2.6102848052834418,5.384802581521509,-26.854103179315885,-10.62803006257256,-3.3277747314045847,-3.506602801396724,-1.4385999087108594,-5.566072763857711
0.152,3.9755797187940303,6.829786138360664,-25.954289549446894,-11.040245247753646,-2.7459933006610626,-2.5208699230751037,-0.33633960886532677,-3.023362806255001
0.156,5.250658642222248,8.700112561252524,-25.028623772445048,-11.340703891583267,-1.5149750621074958,-1.539596429898502,0.603682318549879,-1.3802514672217185
0.16,5.790461558378983,9.947597427478822,-24.459318780277098,-11.521066010324953,-0.3701667290124071,-1.3600977151903066,0.9217029845528586,-1.281528319340417
0.164,5.300286063302099,9.860279322435733,-24.397223940631058,-11.71100363895256,0.02225241546647183,-2.3833996898802425,0.4204959992595896,-2.6341522236270407
0.168,3.9512903267901542,8.405394406865156,-24.668393495971042,-12.118923284774834,-0.6061533496766067,-4.394800125298545,-0.7302363257626965,-4.688856273833736
0.17200000000000001,2.3064696311609723,6.221683313470599,-24.83974546649264,-12.874428342985576,-1.9870085756213758,-6.66987448742001,-2.0853532603786107,-6.442807809025979
0.176,1.0748952126247175,4.274084624611801,-24.449033109494636,-13.893292574336886,-3.444875039565721,-8.351339201914435,-3.1647441535443583,-7.1454752081649175
0.18,0.7832053900711458,3.3391194411357112,-23.27898784041913,-14.877239405380385,-4.245364520278548,-8.89847433854868,-3.7050106494553887,-6.654058596613417
0.184,1.5048150535546796,3.586667349455947,-21.52880271012149,-15.477087832159322,-3.990418197800855,-8.366357039751527,-3.7872174281392432,-5.468777994272969
0.188,2.794502108662112,4.486632249476145,-19.76230287617979,-15.507655263399267,-2.8451003787132585,-7.356034960504061,-3.7704680445492045,-4.43494889988127
0.192,3.877847883178365,5.098503269793845,-18.66283831338466,-15.076515144051639,-1.473257639077115,-6.653439186616858,-4.081403339815299,-4.269876312807362
0.196,4.026523414246135,4.59878078557484,-18.723064731702955,-14.530549051551912,-0.7104754887672691,-6.763607114656885,-4.979347313814404,-5.176345622606284
0.2,2.9512179550896,2.7596728607889105,-19.9998823972603,-14.221828730326294,-1.1323788691722427,-7.609879371572134,-6.413172247336611,-6.734005944549686
0.20400000000000001,0.9993577662363933,0.11309744150859302,-22.06055754962879,-14.23571091661448,-2.7496070200181926,-8.584633044713243,-8.03836915648191,-8.118478485188731
0.20800000000000002,-0.9544537998723222,-2.281448957612138,-24.144640115653544,-14.262020676044333,-4.989046794438078,-8.915943635834985,-9.373508157407407,-8.525159986957
0.212,-1.9016061210383448,-3.33766356386883,-25.490819313543483,-13.732620909115553,-6.975320675379706,-8.12964680874186,-10.020149152775556,-7.571378031682336
0.216,-1.1790325053884416,-2.4327544538017953,-25.670070273089628,-12.163883671171549,-7.956501712836275,-6.336919640408226,-9.831875407517842,-5.463601948592583
0.22,1.2134940584238407,0.3439526020950794,-24.74087299261799,-9.500467716775074,-7.638591415724555,-4.182722265169566,-8.946406907071246,-2.8553304294834305
0.224,4.613074354839295,4.273786082692634,-23.154292636483035,-6.247011889167496,-6.2605960826218805,-2.4936522727532164,-7.678033366041909,-0.4982767281835834
0.228,8.01266333626269,8.35689375896703,-21.479790073064876,-3.2891043043992063,-4.3904185864760485,-1.8375955497301462,-6.348148820272996,1.1144423521725457
0.232,10.521212604470538,11.72982904158804,-20.12383735791081,-1.4914755244280773,-2.5771888058007804,-2.247662163279024,-5.157250108482653,1.9336466660232787
0.23600000000000002,11.716953650015622,13.932320784519579,-19.18385140212303,-1.2879839777731448,-1.0764905857955789,-3.2658739223701225,-4.159070387835165,2.2749260946960845
0.24,11.734626883437695,14.931659903452521,-18.498042478358308,-2.4839860012242543,0.19283025106460272,-4.251926036391065,-3.3299077984389562,2.545408902390399
0.244,11.07105415784027,14.969211488992999,-17.85745889573641,-4.383661619065634,1.4554690652880904,-4.750710119814489,-2.6777718247240436,2.9553327189919045
0.248,10.252402950352497,14.349949078208864,-17.214653233012783,-6.15147009623264,2.7912709500350807,-4.704885539114095,-2.299550091623903,3.3858819252266414
0.252,9.567224378149886,13.298149475431437,-16.737934347282604,-7.1934666915183545,3.9587677420640386,-4.405411423209543,-2.3334859046227905,3.4872474603008783
0.256,9.002134743704763,11.944209705634748,-16.69016874739316,-7.362050622184865,4.465636876205756,-4.2377161266205725,-2.8337368237714315,2.9497561538795765
0.26,8.383214991609782,10.409833425714805,-17.224513043413253,-6.900671065437824,3.8577229846249637,-4.3944150087443425,-3.6598936880713993,1.785843413671607
0.264,7.604839454468468,8.909334942010645,-18.238927489291026,-6.192154857622643,2.0617537098048713,-4.732375576631011,-4.470329012238913,0.4411620685300335
0.268,6.776768084593156,7.754263601103717,-19.372367374588805,-5.47820219613615,-0.44562483926386065,-4.851617919176697,-4.840327580162702,-0.3449850706585238
0.272,6.203407874995209,7.245212637768448,-20.135323306831133,-4.710259324403062,-2.7658903732424385,-4.332068689487489,-4.45384259749806,0.12767062038944843
0.276,6.233889415655556,7.5278220235899,-20.119046259104177,-3.6070663837256305,-3.9603692726404898,-2.974912910903811,-3.271384783768955,2.1634489587485675
0.28,7.063418504852963,8.499012316823999,-19.189099719782334,-1.8823108359741068,-3.5019385450862615,-0.9027749407283849,-1.5798077647503455,5.4835369415588815
0.28400000000000003,8.60407229031905,9.83422281735487,-17.563895367210293,0.4977326299171505,-1.5417661751266722,1.5198037312675048,0.11559406781233861,9.321899248950604
0.28800000000000003,10.49889719938951,11.11013047178042,-15.719568008920028,3.1913722077556486,1.1620007703396098,3.862939117163492,1.3134991296505802,12.7595353616491
0.292,12.253122072894637,11.944815588556757,-14.158952361514405,5.5701794511219305,3.6222601216692634,5.786948815210081,1.7505230299954704,15.126476868025634
0.296,13.409152640158819,12.107557638794699,-13.172018809535395,6.9777278652563535,5.108304309683271,7.106010168624838,1.5222284472567544,16.271101903380796
0.3,13.693418101523486,11.5748085805098,-12.729923517874168,7.0235727567403865,5.4698409125121135,7.767367983574358,1.016732029293558,16.567599423226888
0.304,13.094365096566822,10.538273326305928,-12.569343755200704,5.764868369298824,5.142115179070712,7.804394766456911,0.6940698979206017,16.66192354975319
0.308,11.861197898067118,9.353205104659978,-12.382420409854044,3.701314258556266,4.838557479591818,7.3174151365702045,0.83548658875094,17.092302729096318
0.312,10.435797625441158,8.433381883836423,-11.978159414728667,1.593402136903888,5.124861602862998,6.478312984836116,1.3969546145077745,17.98953195947151
0.316,9.335422868563043,8.122019931992895,-11.340336134789814,0.1777666947104497,6.111837273955443,5.524132291107566,2.04025567079585,19.00845982608009
0.32,8.99600826515864,8.56457570588692,-10.588118157809172,-0.10667292937483186,7.413888131722284,4.713126880497929,2.328069412138336,19.530134082870948
0.324,9.620115970771888,9.648922158196067,-9.878643376159406,0.732968429415572,8.391237242755807,4.240005394432468,1.9806030201166474,19.037868856341415
0.328,11.08030302877624,11.031504567137302,-9.311261222039253,2.2850911773035056,8.511263931513072,4.14648894614127,1.056443363935447,17.461254604707953
0.332,12.934166347463261,12.24630750139635,-8.884488193458493,3.9489231064323116,7.621663111048454,4.295987010305856,-0.04149402331978891,15.29384556145735
0.336,14.577677096241587,12.876359602306861,-8.522891940161895,5.225120411836961,6.0017452915751495,4.457931460533377,-0.7458226452935577,13.424540135691146
0.34,15.481482561829452,12.718046988507368,-8.16197712473548,5.934600458655501,4.175354129340128,4.465094210393494,-0.6103340647783981,12.76176113142153
0.34400000000000003,15.409125790173313,11.861856260229368,-7.8334766484589355,6.248820030965396,2.6179705939280247,4.3437380662989025,0.43747580081473725,13.824701034902771
0.34800000000000003,14.497497087739532,10.623617460586688,-7.675924781733453,6.519357789209483,1.5278490896798562,4.3224684482155125,2.019442117370633,16.496791308560653
0.352,13.153611060301472,9.346226524613249,-7.845227503306241,6.998963658233953,0.7770916064359152,4.694179092183106,3.4562442127815984,20.04765846067583
0.356,11.82847607536133,8.192715501218009,-8.37993871272484,7.610315951095662,0.051650407336223836,5.609060879788389,4.080085136092827,23.41128591781295
0.36,10.787367085417868,7.063414978809067,-9.119890814594251,7.900617182478589,-0.9210258604844839,6.931433909123053,3.5596897392177578,25.600013586095187
0.364,10.012685680078002,5.70664507465891,-9.742630604995046,7.2332996860408425,-2.186267505266718,8.26864354740588,2.087111810916192,26.073513388504455
0.368,9.287123203896265,3.9441433148529184,-9.898301409088774,5.141956098507038,-3.519426061816202,9.165626709255847,0.32293012193179926,24.90571822122531
0.372,8.39607896941412,1.8752432022497985,-9.351867087846596,1.6704183271168214,-4.521497251722005,9.35004897001874,-0.8789314067681229,22.69538571642511
0.376,7.305975959818532,-0.07664312126593487,-8.066374188506028,-2.5018299905989325,-4.789284473140855,8.881425171064286,-0.8409323366383745,20.286029399418467
0.38,6.197875419247211,-1.3243718625125114,-6.210231600642977,-6.259907781875755,-4.083903319819754,8.10739340603629,0.6366102890614962,18.426195095582607
0.384,5.347165714642649,-1.395145204888106,-4.098697433892723,-8.507871360145757,-2.423160729289707,7.4489698741844235,3.1756722434473463,17.50507701287868
0.388,4.932765471724714,-0.1850608538225691,-2.0841996125830837,-8.648866666712774,-0.07367387899219269,7.146155576725003,5.975687079591334,17.465283441680977
0.392,4.906374319321289,1.9499220724877255,-0.439333174019819,-6.841218815584686,2.534043561080996,7.111344694665699,8.150886990583848,17.896189376072442
0.396,5.022475723493113,4.339836864152251,0.7126889322842103,-3.895505248759042,4.926747166256515,6.9864022015798595,9.09228693317645,18.23884981048702
0.4,5.008402329104305,6.313451084842905,1.3892551925365884,-0.8691059084868513,6.702762233622714,6.38131355146421,8.688880785348296,18.01759434392688
0.404,4.758399066310094,7.517584709968645,1.670548790357505,1.421022025214309,7.6232454758736585,5.148006104243163,7.301474610795694,17.004553611318546
0.40800000000000003,4.404666420753497,8.049355111285209,1.6114449786992644,2.7086674329965,7.648627430602987,3.51577518561059,5.526206143405614,15.259204767255063
0.41200000000000003,4.211670039155669,8.32739928393371,1.2024002525150266,3.2716337489747547,6.91880397045418,1.9986780607946801,3.8811384237695696,13.048457128014668
0.41600000000000004,4.360072360746214,8.788684682994266,0.38007810239945883,3.6340176627589464,5.682542900986439,1.1239558940248358,2.575918988204923,10.698276746347098
0.42,4.7653373640494845,9.592798206955415,-0.9398000810278742,4.1654748065835445,4.193449462993765,1.1393628892955685,1.4787871302718014,8.456837906527145
0.424,5.063138380752186,10.509697883156198,-2.8361935417994477,4.8079843686671335,2.610540751541329,1.8690172667572689,0.2797596773957052,6.4296552310492645
0.428,4.782362609997141,11.036456756837701,-5.347364609654921,5.089324190372773,0.9510386721285968,2.800410510047858,-1.251775668907011,4.601778969369939
0.432,3.5994509202849576,10.661448891721918,-8.418159659000564,4.401944102404634,-0.8792689161231682,3.3465326005666376,-3.0725419064305592,2.915340806138329
0.436,1.5166265866217525,9.13354495483877,-11.852299991034188,2.365561373403067,-2.9928471799986696,3.1434586146159216,-4.848520120737731,1.3566986977113489
0.44,-1.1494043915012293,6.594648120620633,-15.3020043063659,-0.9341920263432195,-5.406746485189139,2.2239022639156847,-6.133661292777257,0.009439283004752719
0.444,-3.940204663025783,3.5391455773860594,-18.32502163420022,-4.951668661230554,-7.958646259237149,0.980177268269685,-6.641894258995947,-0.9548280699275776
0.448,-6.467474500426661,0.637490328533787,-20.4837573093748,-8.900489107032367,-10.29879024142647,-0.04577988036059821,-6.426561365252835,-1.3344553141689905
0.452,-8.506175683555632,-1.4721083314826577,-21.433445825150134,-12.027175769426615,-11.955058594801343,-0.4179677151637877,-5.839157753909791,-0.9697189339194583
0.456,-9.9144371841739,-2.3250984486096398,-20.97913605896891,-13.799257443785601,-12.439903370109867,0.018756780298327058,-5.277907978418329,0.20042567449365878
0.46,-10.465504097153172,-1.674135751482809,-19.088179983563382,-13.951407731905539,-11.36924696833261,1.1262906198224227,-4.8686068821518855,2.1115299909252943
0.464,-9.770726273891297,0.5211002915123393,-15.890707581782038,-12.453638829870863,-8.581774592192192,2.5907805287557597,-4.309364498272666,4.552571043490511
0.468,-7.412359775820708,4.0921755878034665,-11.669365429468373,-9.480136559298042,-4.235530944248648,4.076375788683475,-3.0108344797966975,7.154301299627661
0.47200000000000003,-3.2654239819423694,8.623895686124934,-6.836703164562692,-5.4225883939030375,1.1533303575736058,5.327152035903427,-0.4680647466147523,9.411855852667564
0.47600000000000003,2.1886712254102334,13.439320287966325,-1.9084717256782735,-0.9169589132123788,6.757705544592856,6.188294842816075,3.3320834853424115,10.764171322581298
0.48,7.812512587403207,17.697998413488463,2.5466338278350076,3.2173133649026724,11.599301262413208,6.577783033966151,7.7385171877882755,10.759878660075225
0.484,12.148133324754463,20.645892235598843,6.002591986712973,6.1842106146767915,14.825116098755753,6.465377818052382,11.66148353255705,9.282254346942873
0.488,14.023018844643063,21.914021650769463,8.11533185770429,7.515999144833425,16.007141479370205,5.888872112712808,14.108177501021192,6.720546128855266
0.492,13.13106730446533,21.70165793350946,8.860980191476887,7.31474798057165,15.329880961249895,4.980518438567562,14.740691896799552,3.9553257471523917
0.496,10.240254226760872,20.701835945446476,8.565766852856203,6.241136821363247,13.536168264374528,3.950786287363699,14.091870723232432,2.0828101750218586
0.5,6.844695612491966,19.74311797959568,7.736026154260384,5.1691410502802135,11.575111484506266,2.9943173676646717,13.236124919057797,1.9283929668923714
0.504,4.391898919801833,19.300800934518563,6.718981587957817,4.633568639726206,10.075723916534967,2.138389229818551,13.046201416934561,3.5462329200773746
0.508,3.4784627482670887,19.125786161087735,5.378983574025421,4.380714380576181,8.903345235689137,1.127169470287006,13.462347296297619,5.981973990923886
0.512,3.4754689391147777,18.234706914677897,3.015643412296095,3.335796755467314,7.07102694828285,-0.5522702386298004,13.25477821344733,7.491393035421348
0.516,2.8313837097016865,15.347196037063192,-1.3455618347468619,0.09488167923352187,3.149170784781063,-3.4629356747671194,10.523897057592013,6.208227038287868
0.52,-0.06625624757212312,9.602916744152985,-8.366051699867624,-6.248978691602337,-3.9513911294660993,-7.886804874321475,3.764975840273282,1.0203007033113498
0.524,-5.90144393105178,1.214977088066533,-17.789866579329072,-15.37055417947291,-14.175116450771641,-13.525717836951351,-7.055244330214348,-7.74958497418554
0.528,-13.849005682052999,-8.318747439631496,-28.162867235237467,-25.496923677876804,-25.93723007728516,-19.413411270732624,-20.035362714050805,-18.22961386558807
0.532,-21.746386180767672,-16.616983159664972,-37.09584872922258,-33.90121626910555,-36.428751127039256,-24.133966445264566,-31.826102533594433,-27.56471088800102
0.536,-26.95942146412613,-21.287506605636516,-42.0534354925966,-37.93085857567306,-42.56476492635399,-26.28613025634118,-38.91326780246647,-32.950343751072175
0.54,-27.524269318499798,-20.885769370298966,-41.36174738957735,-36.101338069986625,-42.20238266310513,-25.003601348475783,-39.09528716291491,-32.68742710641424
0.544,-23.01176393990079,-15.50012284259124,-34.96281965811013,-28.731030171436622,-35.06184246489681,-20.299909921424156,-32.409499985000195,-26.785872006669983
0.548,-14.689561489105985,-6.695309756031266,-24.517356395746905,-17.798376458054598,-22.90961896920132,-13.082362180470344,-21.04559708867264,-16.860868941727006
0.552,-4.920372644451813,3.1408053066124935,-12.767106355763367,-6.0928646696977955,-8.894379723991127,-4.8309924758922085,-8.304607812061487,-5.4101034984869845
0.556,3.858145340384264,11.7110126551401,-2.458727893464583,3.892042383390744,3.6637616083082394,2.90234618132309,2.836399085080105,5.152830929598636
0.56,10.057665203539015,17.555051788566495,4.649859752568116,10.785097785596745,12.463922077090475,8.952521987220479,10.80535804764995,13.267307647190275
0.5640000000000001,13.362591577143299,20.341145574117682,8.232734796550794,14.53399808816434,16.873665857023127,12.783197775051482,15.661786914228049,18.49560642751738
0.5680000000000001,14.512688482253111,20.644238254062422,9.150014418119707,15.982161062462147,17.796545632369273,14.452864482673903,18.48046986794421,21.273178162866643
0.5720000000000001,14.650760479317979,19.414431222467144,8.735968456253001,16.155237508327854,16.918793580223188,14.382049027880733,20.362963151128614,22.380619169650608
0.5760000000000001,14.63341178952999,17.469108701829782,8.04083305441642,15.681179339292534,15.769567399250477,13.075289736519705,21.69324461573544,22.45759278325598
0.58,14.657540495448577,15.253935943936952,7.418949002331043,14.629732284620474,15.063275818491615,10.939308774316906,22.046723291271235,21.79081344237859
0.584,14.341822393100479,12.92632967639409,6.6079243665136564,12.76344574178786,14.60267615158704,8.25170311909565,20.715116140248373,20.405203391288605
0.588,13.128011248339277,10.59201063864439,5.1614359044692275,9.951469319812357,13.683111531164375,5.2344756178289895,17.428957537396435,18.2995055055779
0.592,10.724091984121467,8.472926660729186,2.915958267589409,6.44544501132237,11.697560368913365,2.140036572863462,12.770817545472298,15.622976416409825
0.596,7.330462032325567,6.87973697198413,0.194955954874517,2.8382464739668753,8.58797245522352,-0.7184804676156511,8.01513946791609,12.685530997962726
0.6,3.5507482346074046,6.019934520278154,-2.354800070521093,-0.238964338539831,4.908762485754423,-3.0143475639303636,4.4944031671663645,9.827595783905235
0.604,0.09699713154561751,5.825967439012648,-4.147658204073341,-2.4493167026525926,1.528111230796136,-4.493066494136675,2.9035459789605533,7.277520963065042
0.608,-2.5237476026390384,5.944852214235186,-4.98138267682411,-3.879398036846858,-0.8146828468919942,-5.038098872256323,2.987097326286455,5.109793895773143
0.612,-4.1584230554912445,5.926306043473514,-5.079664286864158,-4.87768397908326,-1.8337988116396655,-4.6853486629249605,3.7896425247584347,3.3225866853693447
0.616,-4.946909519745657,5.499409876977962,-4.862414613580679,-5.737913096638707,-1.7552972828790665,-3.600865849024559,4.279468407551491,1.9469929037809695
0.62,-5.137360441909262,4.755453403410363,-4.624369900090646,-6.457005407012999,-1.1249420880102314,-2.039952791371242,3.947446775205102,1.086408303008815
0.624,-4.9137830099497135,4.1192230525983105,-4.356016826857465,-6.74274679640952,-0.5070944703478482,-0.3085178586431794,3.019645778286132,0.8441222677399338
0.628,-4.344395070500072,4.101434411650315,-3.8207910899833895,-6.271644104176688,-0.2567857302402601,1.265570760028715,2.1951094528884845,1.1841896028969696
0.632,-3.444145428558434,4.985112425813451,-2.8016956840228744,-5.002830477738081,-0.44692302253127636,2.3726830477883585,2.120135557708437,1.8498611558865932
0.636,-2.2811087628415336,6.639390915671786,-1.3384881555737103,-3.3230068223735856,-0.9388577532774498,2.7897218278919915,2.9532541887801607,2.4281676727035943
0.64,-1.0379482128690878,8.570477477683474,0.2096099370332709,-1.9086782576777583,-1.5196320782824877,2.45860356737748,4.291572113601035,2.542846391326421
0.644,0.03347951599935861,10.199930884721319,1.3179258640161748,-1.3689942070809735,-2.003775642004973,1.5380020278325333,5.462859075466056,2.0767208470168335
0.648,0.7269371371428921,11.18974486986425,1.5801240734500936,-1.8859810271991955,-2.2689537887209834,0.3760084560176056,5.963275404653492,1.2767272162004417
0.652,0.9880526749814753,11.615804628552496,0.9477217742885422,-3.0744400171461415,-2.2454610579630097,-0.6100842178061945,5.748089935702975,0.6463723839188633
0.656,0.9260983600325727,11.884894197252303,-0.24001199500163395,-4.179599566528315,-1.913186530019705,-1.1086382684299136,5.18144847117955,0.664932708169569
0.66,0.7254605573457402,12.456576491477552,-1.4382881159074072,-4.498430996337946,-1.3223060456137823,-1.0576648340637451,4.71689820853316,1.5002474723184287
0.664,0.5198061818681854,13.554126626026957,-2.185496055703389,-3.7852855169037554,-0.6093747340755495,-0.6792383766286161,4.539635280693183,2.885812700633087
0.668,0.3063284083950366,15.020169293787108,-2.3213063123106163,-2.407561985831169,0.026535311424574104,-0.374237055542082,4.421016478215256,4.240530821601289
0.672,-0.05215918964209898,16.387576712088546,-2.014561365269193,-1.165383734986266,0.39203867103447365,-0.5267628750969084,3.888683286073519,4.963576524147097
0.676,-0.7334022640205045,17.11684542098116,-1.6116228681080793,-0.874854116350912,0.38826250758245173,-1.3142624042989937,2.5889832817135225,4.745732597584206
0.68,-1.8362971834967858,16.85289105605402,-1.4241994528498196,-1.9567030710583815,0.057425401542744225,-2.617413404504507,0.5950412249610082,3.7286760455139056
0.684,-3.3077496573028684,15.57129854797638,-1.6050250033063547,-4.259618279971637,-0.4600151745309189,-4.076312743228062,-1.558968281760034,2.424042119037515
0.6880000000000001,-4.962172258002761,13.54114597743408,-2.160973204368918,-7.19210385070965,-1.0444394551949285,-5.2548020008390655,-3.148416383634979,1.4425742392024494
0.6920000000000001,-6.573794436543129,11.152049839880677,-3.050335165055494,-10.061721734247753,-1.718240378350647,-5.828555473682265,-3.6741419481421955,1.1847628035420827
0.6960000000000001,-7.989635868458567,8.716811031265209,-4.275392867402612,-12.422642879286904,-2.685366148964201,-5.714490633851376,-3.1720051653897094,1.644776475372915
0.7000000000000001,-9.208043516484404,6.350722591325213,-5.893553103966544,-14.241203114412714,-4.24603825730227,-5.084481078964189,-2.2251715619831325,2.4237301051580267
0.704,-10.37713148004636,3.9813829642859035,-7.952110174090036,-15.818477241221775,-6.619603165231283,-4.27251942677071,-1.6869666710790572,2.926981618971343
0.708,-11.70989628921263,1.4584525144229337,-10.391784027363595,-17.529135616084293,-9.765016985836658,-3.624859953557415,-2.2585623495864837,2.636651734168846
0.712,-13.363668781790398,-1.3171782357591149,-12.992856031331524,-19.534365748056594,-13.311538343291446,-3.3664425767522133,-4.148218290041425,1.3301024195233193
0.716,-15.327895676176368,-4.296282328844747,-15.40358527431107,-21.622988398108404,-16.640508253867424,-3.5342399923283265,-6.9829811504681985,-0.8415047208781248
0.72,-17.35284730776271,-7.247097760226321,-17.23538240150758,-23.24534761624622,-19.079402198798483,-3.9858364769596895,-9.985426854816346,-3.417750967782747
0.724,-18.96540904042792,-9.789213298149589,-18.18546331505908,-23.71897840497123,-20.12211873094424,-4.465119426074453,-12.310342468330882,-5.806775748579306
0.728,-19.595950236778112,-11.492178082826017,-18.11609790793212,-22.506066790608457,-19.578964847266416,-4.697848285652574,-13.364637093416867,-7.500604115542886
0.732,-18.768787062603817,-12.008502583602192,-17.053463706601544,-19.436778144230473,-17.593812986516923,-4.493364847958909,-12.975689863780918,-8.249250586215139
0.736,-16.31400495791982,-11.219166097849039,-15.151202925297955,-14.811305440211454,-14.563354192212383,-3.8318376923990964,-11.383859329936348,-8.141016233234804
0.74,-12.527533429554147,-9.347318964783998,-12.662588039551299,-9.361054126021163,-11.021604103213734,-2.9020303975055874,-9.10820324328977,-7.550255709868521
0.744,-8.184058735374892,-6.959739887309707,-9.946757798434236,-4.090916571742697,-7.543809537088705,-2.0684894847585324,-6.787874756989204,-6.971528100931451
0.748,-4.3570304507459285,-4.825474575218841,-7.468510496825015,-0.03771499801944467,-4.678071016562626,-1.7526417175293396,-5.041932492587104,-6.79173371142565
0.752,-2.0787842559861454,-3.660012039328821,-5.736985246032594,1.9975217847980156,-2.8782589282927793,-2.2600892714352803,-4.354421721498342,-7.099174786452081
0.756,-1.9538764888126048,-3.8397553839822933,-5.160693219058977,1.6755208316336554,-2.405094067940995,-3.620693779384508,-4.9767061258971586,-7.62597468255624
0.76,-3.907480773121058,-5.238838062299707,-5.879041064586474,-0.7843476032264736,-3.2335232718300446,-5.531830403985964,-6.855158428335605,-7.885532206512784
0.764,-7.1916510622715,-7.279235694562896,-7.672506524098453,-4.685342718427883,-5.024916812943351,-7.446018486144336,-9.614393595792592,-7.451233444745635
0.768,-10.673837365487977,-9.193848386322289,-10.006406919796586,-9.093470960328073,-7.209306785014784,-8.786395735941738,-12.622590437621117,-6.226018961909528
0.772,-13.29923447161962,-10.394643559378611,-12.215303104485464,-13.15444406372977,-9.18587728155792,-9.206770733926554,-15.15975294922152,-4.563359217922979
0.776,-14.52825068481365,-10.76233099124229,-13.767005833168922,-16.371028683680187,-10.571203889362474,-8.770386763294885,-16.649713621058247,-3.152942232955473
0.78,-14.53466980663162,-10.695447437551573,-14.468454227071565,-18.712582208256507,-11.363871066495307,-7.938130936090987,-16.84877710780658,-2.6970830514878603
0.784,-14.064160027468127,-10.864707905918305,-14.50919091793128,-20.507552138139992,-11.912286559680055,-7.348326744872878,-15.90594553078485,-3.5366325420167524
0.788,-14.016127597242477,-11.797708636887684,-14.307621764988642,-22.16665411832541,-12.679915257616237,-7.489903495260625,-14.253176989859632,-5.4289153315239975
0.792,-14.956482482276039,-13.525585432599573,-14.243500262555756,-23.878465364431626,-13.931592370002726,-8.436085245600704,-12.382551537151759,-7.613270880466067
0.796,-16.802993086752576,-15.491532248513433,-14.423791882086704,-25.432927351469527,-15.516221816801817,-9.779539301987477,-10.624490053432764,-9.149421619086167
0.8,-18.83538377448182,-16.786681541822094,-14.608113878280347,-26.268614399972698,-16.886984104385213,-10.815156090310028,-9.041372248707347,-9.346239996700415
0.804,-20.02264523604096,-16.590660859894097,-14.350269318194375,-25.731611633938996,-17.365585373820426,-10.887021345800614,-7.500102636419072,-8.061925189297275
0.808,-19.507261850774626,-14.594927915700206,-13.271575521201765,-23.416843032758003,-16.516963959596993,-9.720485207861572,-5.852872932595099,-5.719088204131813
0.812,-17.011406137610507,-11.190609509698884,-11.307817643462894,-19.41993410491506,-14.42120524854414,-7.564654861698073,-4.103337011934113,-3.0406141724175355
0.8160000000000001,-12.975070514886369,-7.316572740942854,-8.793648849911659,-14.371909910328512,-11.675005911593885,-5.07585518410433,-2.461712732051983,-0.6705738609013339
0.8200000000000001,-8.379157090574832,-4.0481854621327225,-6.331197901470318,-9.229843392133553,-9.110007790690519,-2.9972656323822173,-1.2364017896209925,1.1094046451700446
0.8240000000000001,-4.352299488527885,-2.1291696583547606,-4.522268156139015,-4.92611747667449,-7.37586940154271,-1.8035386146738492,-0.6382867293733046,2.4216710191876745
0.8280000000000001,-1.7444326490695339,-1.6812865048208898,-3.7037454120111226,-2.0348095675586833,-6.620410568061816,-1.4958149605532158,-0.6222333523389025,3.5951855294445467
0.8320000000000001,-0.8536532939763322,-2.2293643930012874,-3.819477751005663,-0.6068412248289075,-6.444113284726926,-1.6547516142108565,-0.8698575349198561,4.870125293764373
0.836,-1.4013863017806112,-2.997771889237688,-4.480825123073873,-0.2386496586911413,-6.144513964223946,-1.7131808792645922,-0.9324730579702853,6.199201968550449
0.84,-2.73362726243465,-3.320545702590232,-5.182283813731418,-0.33824903753434943,-5.119107645819712,-1.294519871946334,-0.45654687038890795,7.255582334998892
0.844,-4.119557598353389,-2.940504930273855,-5.559268267133667,-0.45181880151408915,-3.1989055999255704,-0.4290882700451881,0.6355498733047042,7.616029241905437
0.848,-5.021767091316623,-2.0714390093521757,-5.5503080232417155,-0.48726044045430816,-0.7313931080335276,0.4684731182978936,2.119666048998777,7.004646709812661
0.852,-5.247460994171886,-1.2248114752044827,-5.38087134443788,-0.7313560428404826,1.6153154576686504,0.8393703409139377,3.6145101485052464,5.451506263897027
0.856,-4.928925271951744,-0.895185957849586,-5.378659534649999,-1.6400629201562225,3.2065329986520936,0.3072062850194559,4.805535001218404,3.2798977608372493
0.86,-4.385460810178106,-1.2930063731041832,-5.731283209458134,-3.5150727528616024,3.748544124368655,-1.0889215667008707,5.600656347238887,0.9556150927471192
0.864,-3.941915548018608,-2.242162089897578,-6.330257506934111,-6.239748180390254,3.3918267307268586,-2.8822308423859377,6.1329213260207265,-1.0961877777221805
0.868,-3.7773626734821493,-3.2777021212194386,-6.785933988919866,-9.213401198229949,2.5952105836050556,-4.392842453272075,6.6151873116924484,-2.6100651746338754
0.872,-3.867937686398828,-3.8956575556630355,-6.622585751354864,-11.546435019194188,1.8405287437455211,-5.056354735169591,7.137330385399954,-3.507475218228935
0.876,-4.032852690080665,-3.8178736384108785,-5.5564181780247015,-12.43834802673365,1.3723372239058822,-4.694511352875976,7.547860283683473,-3.8565735827107015
0.88,-4.055171091953763,-3.1414169819212034,-3.7091821860441136,-11.557926555596675,1.0929883910893583,-3.580278791929114,7.5082339289148425,-3.8119342993190974
0.884,-3.813110831636937,-2.2938488079878514,-1.6409856057399599,-9.232363978158396,0.6605718437555055,-2.2708924062365092,6.689640994812272,-3.5734980090024813
0.888,-3.35445471037732,-1.8245544890873147,-0.15122819589885683,-6.323303143170107,-0.28053093671555374,-1.303921665707641,5.011460435685784,-3.3501628164063053
0.892,-2.8720790980270707,-2.1302978698985955,0.08381278488644117,-3.834264559816791,-1.8732551983321617,-0.9208297712677336,2.7775506112169666,-3.3025791591886597
0.896,-2.5907476898096258,-3.2376278602276103,-1.134121239042733,-2.43476986852818,-3.9382858080422722,-0.9640469700329648,0.6169995923099059,-3.458687694271031
0.9,-2.6170731933052642,-4.752243019653649,-3.3594270070299728,-2.1447681264552547,-6.028159009228712,-0.9953901298135932,-0.7527481989005302,-3.6459066206271444
0.904,-2.836998418271633,-5.994681666256991,-5.63697794633007,-2.357545873750694,-7.600760525251832,-0.5683886890155048,-0.8252354925729932,-3.507115083184104
0.908,-2.9282695110913397,-6.2679234277789675,-6.896456432345499,-2.196003625833079,-8.228897222915252,0.503222213152636,0.482754949330765,-2.6361079036550903
0.912,-2.495093792062496,-5.141221610291902,-6.426093805000621,-1.0114860338995717,-7.744178956899515,2.0296222365872953,2.801325761851836,-0.7911997178423018
0.916,-1.2667211661699191,-2.6232157941499175,-4.189645706841073,1.2518969900980033,-6.253357227510814,3.542584580532985,5.476316448612245,1.9291619533408166
0.92,0.728211939072184,0.8351297117312568,-0.8281224703782673,4.018425778284252,-4.052979271312738,4.5489950122322576,7.846282408021265,5.058407940585813
0.924,3.1188976998074165,4.5130227390603,2.651006944230758,6.3921664111892245,-1.4883828969743358,4.796699714704561,9.488285933053856,7.9236831067652425
0.928,5.306803178441975,7.673548206194081,5.343302993597565,7.643382584470966,1.171681736418548,4.402701256040782,10.334209116296334,9.933160183087834
0.932,6.6823628342323556,9.784020808016145,6.8357552995061805,7.589246863336916,3.790401943855496,3.7685665524899132,10.618290229259049,10.8306302280024
0.936,6.861436717543478,10.63009888961991,7.321918343441908,6.659760801406632,6.3371663043467095,3.3379327455567314,10.705325254519073,10.77765845844457
0.9400000000000001,5.829052563270053,10.292892054543259,7.404081465301962,5.622212114961913,8.806248339833788,3.33818991606862,10.900449441185293,10.227401670999699
0.9440000000000001,3.925692815116954,9.044884807619756,7.698053587251875,5.1258733481249035,11.129021615707229,3.651437481935937,11.314047134216484,9.663872943231365
0.9480000000000001,1.6983875901651209,7.2386496618558045,8.472162105507781,5.3424069667337974,13.128343122911428,3.889890156018943,11.833004603274798,9.362977659393255
0.9520000000000001,-0.30869952175903487,5.231336882118003,9.526594770443428,5.915057419710145,14.546026625480035,3.6322877857228204,12.191388150064743,9.315797981652533
0.9560000000000001,-1.7299706078027217,3.3525832879084927,10.36026778203006,6.229065960069942,15.132339717145102,2.6834931611058446,12.103604507478078,9.334912259191572
0.96,-2.464212265056906,1.874810056332795,10.502691012935136,5.827421305157442,14.748496822365347,1.2135618866143372,11.398085916487705,9.25022641801393
0.964,-2.6498872809069494,0.9691482207757209,9.8014440123595,4.714503036473634,13.443579033560695,-0.30290263924842953,10.100744999871416,9.057448418321794
0.968,-2.5576733451989915,0.6416048912279926,8.495400644207766,3.36652197267029,11.456711839598904,-1.3164004970113978,8.436026912792231,8.914062445263239
0.972,-2.4606652833874545,0.6855828818609098,7.040203254397785,2.4484621382068688,9.137062155481566,-1.4784554150447757,6.735971627513757,8.98211047206443
0.976,-2.5323180483536603,0.7139517639621908,5.8204250663488315,2.419053239678682,6.827850675319811,-0.8160648100678207,5.294288877921654,9.232893572719991
0.98,-2.7924631831628126,0.2925596024746552,4.94322504803209,3.2751948553436225,4.767275645674202,0.2862082630716769,4.224632171471823,9.371752949263193
0.984,-3.1067842054048604,-0.8641012024822357,4.223881348099892,4.5684348195511415,3.0453005891950378,1.278998023208615,3.382295239020421,8.944799671131303
0.988,-3.235139712800965,-2.7247804648170444,3.375124013669934,5.678014182947486,1.6440240327598195,1.7185432768054296,2.4120047394466315,7.589328907652456
0.992,-2.917444174753708,-4.898550945995881,2.267220502805385,6.160782199695536,0.53337319110479,1.4822318851529355,0.9144141807407746,5.2911771437307635
0.996,-1.9773816275955731,-6.766327215740277,1.0772415891762326,5.9646245750519125,-0.24317596727239277,0.820626935665167,-1.3367004924610022,2.4837430668518716
1.0,-0.41903249720626334,-7.749550921902074,0.23072689631673482,5.388180102682293,-0.5513011895295561,0.22937111340102478,-4.220609892307607,-0.09115773474748035
1.004,1.5242458273948154,-7.579670155823257,0.16300421006163246,4.8340851549271004,-0.23166815245835926,0.2086028254728367,-7.247065430373311,-1.7064183726895692
1.008,3.4262210358216043,-6.431469895092803,1.0491037122190345,4.535644052925088,0.7816551532775087,1.0210491700059485,-9.71616009444299,-1.9947344726565892
1.012,4.8029958254199325,-4.840289610922537,2.674864642305301,4.435158389704014,2.3569684964616346,2.558929911524518,-11.007524440314697,-1.1445031843600937
1.016,5.299433465661337,-3.4385225159366533,4.529237056210118,4.285474852292364,4.149303853310363,4.375141911217404,-10.858138493368916,0.1587017613743038
1.02,4.848612840338694,-2.6585703937015315,6.059691052522783,3.8889689048707474,5.687608235123057,5.862738949811167,-9.491979391127376,1.0184680919135962
1.024,3.7298818814043577,-2.543596332596939,6.9325233885529,3.2961609791827637,6.542701721869223,6.510101820731264,-7.531121631478028,0.7198001506191605
1.028,2.483259991198974,-2.761264964520251,7.155683116744435,2.824013304471871,6.503340313916932,6.123971531861992,-5.721858908532392,-0.9457458174462658
1.032,1.69361141536587,-2.814670513761703,7.004195071739158,2.8627593085365293,5.6682697012718295,4.921409316508445,-4.609891167307039,-3.573758920079052
1.036,1.7336389059290553,-2.3271983829731973,6.815112106359222,3.589550783292108,4.412588334534874,3.4437839271201227,-4.3280644437367854,-6.306990130778715
1.04,2.590080570243212,-1.2549579866081428,6.792694647833087,4.778357712750876,3.2358794071473826,2.3304611327341638,-4.598603273446115,-8.190907085785149
1.044,3.8559423529366903,0.08637340096967527,6.927809275827859,5.832279323005418,2.560322110236891,2.045409192392005,-4.953061402258358,-8.577324535721086
1.048,4.896416662373866,1.1763964949779058,7.055353792370075,6.037718926632058,2.554416281397525,2.678152823451082,-5.037132897379896,-7.401077865546345
1.052,5.121237989689464,1.5335626355270686,6.988497008180236,4.908130971127038,3.0534924063621003,3.9135789113815136,-4.836688024346368,-5.2198326146638765
1.056,4.244843125009108,0.9248647084833652,6.631356549198465,2.4357563130206747,3.6169441228741617,5.188586445197479,-4.701060138409327,-2.987796523447102
1.06,2.4066933195136015,-0.5731476659991643,5.998323402343864,-0.8888353718923039,3.686161498160588,5.9576598948418535,-5.155538443298953,-1.6604704253974187
1.064,0.10821214171205806,-2.656880988982545,5.145452198869826,-4.296326245403844,2.7870832908079772,5.938171040265576,-6.601963523687401,-1.8088063844488316
1.068,-2.005076918105071,-4.955918340512934,4.0861484294729244,-7.077575703752824,0.702096318217837,5.2094472007608505,-9.063550255078788,-3.4059692550152647
1.072,-3.418310167843062,-7.1850714373831694,2.763549269026017,-8.86876300155346,-2.4445468262420604,4.12075167419777,-12.1151125295543,-5.879958557495006
1.076,-3.9391924415506026,-9.200686287809777,1.1203827659236536,-9.73848202013297,-6.199084529981575,3.0701869578309946,-15.029269906295326,-8.394679952295355
1.08,-3.743820435984105,-10.975977894093678,-0.7905499599711581,-10.066559917407929,-9.901430048132193,2.283156507366221,-17.07791339867946,-10.231489045300176
1.084,-3.2665872314573283,-12.527160436163204,-2.742980457319422,-10.305221425848796,-12.873594408120457,1.713116633081699,-17.835249887108866,-11.09526480666313
1.088,-2.980396953546057,-13.842418471214447,-4.37401814413937,-10.745917846588338,-14.610150525272974,1.1138594336655396,-17.33987082017471,-11.200404326489437
1.092,-3.1632461507320064,-14.845741287051494,-5.302284692810052,-11.396129913724462,-14.9029253908884,0.23656526291252677,-16.045446254698177,-11.104703861045905
1.096,-3.758505572270579,-15.400130836497187,-5.2605273338351,-12.007277558502716,-13.852170025621948,-0.9790623741964234,-14.580709564873645,-11.392489984422433
1.1,-4.39162141093103,-15.347834842694834,-4.173978201215695,-12.211187766542489,-11.772654805156026,-2.3401004515005472,-13.450137211554896,-12.380429208264193
1.104,-4.525738864235916,-14.550213714050484,-2.1456767574714863,-11.682189369836516,-9.031560999371994,-3.4943870280207685,-12.811939660389712,-13.982845343142255
1.108,-3.6847606414776126,-12.924946756415801,0.6224382970574536,-10.251025287212125,-5.898554140052607,-4.1153877064800595,-12.429826677126208,-15.778909942671671
1.112,-1.656385178735645,-10.495240954008683,3.900221541971579,-7.945385549829069,-2.485625616581042,-4.058100763211552,-11.823775817166934,-17.227734931384475
1.116,1.3956808093018453,-7.447319061868503,7.43643493267662,-4.976222791143225,1.1881615901034241,-3.399816670189763,-10.543469310288069,-17.9163244799459
1.12,4.962783140884232,-4.166857225960403,10.919881268263882,-1.6825488502742507,5.04357273978581,-2.3506527105602792,-8.420508809720193,-17.70850873011638
1.124,8.345445690785981,-1.205050642202921,13.945376210130055,1.5282723962176394,8.798590101891431,-1.1166788370476826,-5.68716900820141,-16.75473473944806
1.1280000000000001,10.859884997369049,0.840889063087884,16.043807990747013,4.234390548840248,11.936029861279145,0.18071190859995045,-2.9025248760293674,-15.383925379403362
1.1320000000000001,12.030178260568807,1.5111584798186768,16.80151134257468,6.059670575298305,13.830381721015481,1.4793580393443353,-0.7200160925311421,-13.951749153598504
1.1360000000000001,11.709234527083765,0.6622777925354542,16.01741316370833,6.740170293409192,13.99350398801009,2.6789447360890706,0.3826889498887134,-12.713325121785184
1.1400000000000001,10.098030173730946,-1.4549815943129674,13.812048225269603,6.1901181839780435,12.312401510344461,3.5728745864254003,0.28987746384865654,-11.757512490598296
1.1440000000000001,7.669717912074883,-4.264947624778493,10.608054237922,4.539138683801894,9.15339368957422,3.889484355415229,-0.7397169537948218,-11.001663700539428
1.1480000000000001,5.0378153019994425,-7.066635598798801,6.97370864292434,2.1170330580472996,5.250386297845475,3.444047283310173,-2.242991304740453,-10.228317469746855
1.1520000000000001,2.806240183311405,-9.284103115840136,3.410555783576776,-0.6207723541987518,1.4139636710192103,2.308601532367706,-3.7988233912103717,-9.169450677661345
1.156,1.4399512500686757,-10.643524192191773,0.2076101355317237,-3.202279220773902,-1.7863744102168244,0.8694426798568653,-5.220856209541369,-7.6257631847149066
1.16,1.1637187548093282,-11.209627720268916,-2.5626485503831864,-5.249333229989457,-4.2094554363489625,-0.31072063961269925,-6.601745528634406,-5.599561715282348
1.164,1.9164537230667564,-11.26302584309964,-4.912674089832328,-6.550087253842348,-6.083953498672161,-0.767058090334122,-8.179462738852294,-3.3802355248201934
1.168,3.367910946834777,-11.099176641295243,-6.7751255352321005,-7.071002595013692,-7.746261609285263,-0.3894371451100067,-10.108091110886717,-1.5119732012097633
1.172,5.017520384759555,-10.861318337338686,-7.928285477885398,-6.907281167124017,-9.330455884602355,0.5048800177384205,-12.26840739548453,-0.6099889914928474
1.176,6.360954954002291,-10.478153604596766,-8.06242773865658,-6.201414098935643,-10.584042716137438,1.3486736581413288,-14.22796122981538,-1.0737495989136394
1.18,7.066651649923177,-9.740969648179508,-6.958637214550986,-5.074084615659478,-10.94323470484579,1.6585309232055914,-15.381528528351083,-2.834266262454399
1.184,7.0993235870458555,-8.448743766156873,-4.679823680993069,-3.597643270158269,-9.82927751215427,1.3283920696485394,-15.20829806157276,-5.282696967073435
1.188,6.725907857396162,-6.538722037340596,-1.6415062848678996,-1.8288330938508341,-7.004778085609132,0.6949982465605183,-13.524066476823318,-7.477056596619292
1.192,6.383685304896241,-4.140562838910779,1.4974305096578338,0.1246071478401376,-2.791696360686567,0.32294995844228414,-10.597230464831203,-8.56219181689151
1.196,6.465617114403535,-1.5263098001677928,4.083376831011742,2.058982684992571,1.9897358228410162,0.6356534455871323,-7.0678643378360135,-8.200737745162451
1.2,7.111150560822715,0.985687513904185,5.724848629879557,3.6849650250265444,6.332795779978863,1.6199571060222977,-3.7157873699378547,-6.786785422609624
1.204,8.119647734885882,3.1353285911799205,6.424509029444707,4.707585278374474,9.46039297561839,2.7947359901705497,-1.1873061726842513,-5.292686357470091
1.208,9.031888261058942,4.779278873555356,6.51786009943975,4.945938653064081,11.120743415064723,3.475769349675906,0.20251542974077452,-4.784079777361306
1.212,9.340772111073704,5.88832587803247,6.459222692707067,4.43017865567585,11.613059510813056,3.1855872596879715,0.5140917597765076,-5.831306991565988
1.216,8.729516991900692,6.502003021545647,6.570516463264705,3.4173989217583545,11.540335815949692,1.9564152593896673,0.07000239951058074,-8.13979368017183
1.22,7.221359474480797,6.669070929697791,6.885054939792056,2.303640107903724,11.423577728488691,0.33530949625284,-0.7345195707867247,-10.618789752121678
1.224,5.158143154634578,6.407539544001322,7.149902435256028,1.4595512535239468,11.391122395427397,-0.9150093573981852,-1.5969602628158968,-11.873301942667489
1.228,3.0258722190614105,5.694083001636684,6.959747307423141,1.068962004952167,11.103908252940904,-1.2401236306076044,-2.393766585435057,-10.882562359500039
1.232,1.2347110778495356,4.492016446854608,5.947427541941173,1.061125591514478,9.953646784213706,-0.5901558743336155,-3.155423602912032,-7.518355056251059
1.236,-0.022900910304281652,2.814285136564081,3.9457348302374298,1.185517079178389,7.440746683309532,0.5939777884197257,-3.9578828588815447,-2.6211930559759757
1.24,-0.7792216615049474,0.7854711358647952,1.0709542315941607,1.1968152223474773,3.527896796239409,1.6863674596941705,-4.799637675978566,2.394036365526155
1.244,-1.1800727471316712,-1.3224630146786165,-2.286410205298611,1.047970446947275,-1.2108297138267368,2.2678009997673008,-5.527951940699979,6.188624941878318
1.248,-1.3404946257216972,-3.112184078701465,-5.546950788691426,0.9713246349228406,-5.726126875560669,2.3584764865790104,-5.859015063857623,8.066096886554684
1.252,-1.2679802912755092,-4.158723007199367,-8.07050867498571,1.3910857562351913,-8.861860651493725,2.3490759059537707,-5.483990177043068,8.168138623199948
1.256,-0.8893350351740494,-4.1532999948540485,-9.302329355914456,2.6969585142986015,-9.786556128564836,2.681673171699696,-4.213587914658986,7.238935394306003
1.26,-0.13810333523452734,-3.037367652543553,-8.90867489911949,5.007893428321457,-8.300000264752931,3.4954044084736413,-2.1002683398396744,6.1257583217377265
1.264,0.9704105436491375,-1.047669733858493,-6.88361675539611,8.052321295184608,-4.8798854992857015,4.472136512745395,0.5221947244100344,5.305951969189348
1.268,2.338002036169033,1.3677823141860816,-3.5890718972882807,11.244399711980567,-0.45979612533478686,4.996016520904052,3.113063970754175,4.697321567580397
1.272,3.844122747798754,3.726073397564674,0.30130893606737175,13.919691870035638,3.9375237186588006,4.532148641699852,5.0887490709207155,3.8197940639085832
1.276,5.403797984961955,5.693189593316941,3.9600295435874866,15.60224407096173,7.545207523593304,2.9785011719380616,6.016066528025289,2.166464616346594
1.28,6.9684106919825854,7.172711550908343,6.643517184861406,16.171422369317064,10.029446838394172,0.7671086759992596,5.758081838092255,-0.44968181986023437
1.284,8.454530892432151,8.257823020561318,7.9150923738882994,15.839700907623815,11.445298645483346,-1.3556386711113548,4.503814894937209,-3.7697380722973497
1.288,9.664067000101616,9.0850968642465,7.758027981176642,14.969144582712213,12.034271514482564,-2.7429235782009673,2.6676165160273806,-7.228695598526247
1.292,10.286044193074293,9.688674548123416,6.5349047539768375,13.846989768078078,12.002302007256048,-3.2024382450107423,0.7108179608786012,-10.240524869658318
1.296,10.013952244023656,9.959323867563912,4.807799886872116,12.5503015353941,11.410622918015292,-3.0818342468619555,-1.022846556350887,-12.432872222047676
1.3,8.738664942755635,9.740483538909054,3.1060669360599205,10.973676598240553,10.221662100908894,-3.0323034909563473,-2.3851944345015994,-13.712693287809287
1.304,6.69075652848319,8.998701109337686,1.7378534627104698,8.97734151479413,8.444101520767795,-3.5942148166050725,-3.4020729069549587,-14.164729656362447
1.308,4.398494446125175,7.937728667282325,0.7176073724561243,6.541342524696991,6.249183157499905,-4.853465731977678,-4.174884597833062,-13.882057451654436
1.312,2.440403262123315,6.949066654022881,-0.17671409899324453,3.8236921771716164,3.9500777710600774,-6.374362737665373,-4.776368973124451,-12.87088021131035
1.316,1.113274495560258,6.411350116218003,-1.253893510764774,1.0934594521371153,1.8466605026356806,-7.440190154025274,-5.204331077170376,-11.097052810808085
1.32,0.21502318770654116,6.440768669051488,-2.7387846618830753,-1.4039272377518217,0.032437630151266106,-7.4498201293511634,-5.40309650998577,-8.62058779808526
1.324,-0.8896455603927453,6.769218356655391,-4.661809996217631,-3.551951962424073,-1.6927175346489158,-6.236097818900719,-5.326770201739037,-5.700883156493267
1.328,-2.91138245838736,6.853943326565959,-6.853431844976424,-5.367679632807911,-3.713905834189697,-4.132408246766247,-5.003174868645662,-2.7808005377356864
1.332,-6.1562302216547655,6.180165502688588,-9.027879931653608,-6.906345430075818,-6.322071715414869,-1.7666543121860765,-4.545270867757184,-0.33321077775120633
1.336,-10.208117111914845,4.588987389035828,-10.904582582609688,-8.146405345655294,-9.42416384465551,0.27050927693068694,-4.103306759661866,1.3371632046440867
1.34,-13.991736174838955,2.422089727435402,-12.303094456719613,-8.939401743459754,-12.434744381930292,1.6828661685291415,-3.7876679918148666,2.2116162741577554
1.344,-16.216208966913683,0.3936487288189694,-13.168709845447928,-9.06478492837951,-14.442257182421592,2.517610687210548,-3.604625995798421,2.5232223731007504
1.348,-15.991884721015097,-0.7575740486273048,-13.52519198141674,-8.356469699428747,-14.59904351827407,3.0110833078568118,-3.436100504175897,2.592901695174058
1.352,-13.282744884626485,-0.6318503208989923,-13.380422465093218,-6.809170354901989,-12.53110707258811,3.365645944595151,-3.065106960627588,2.640182172656923
1.356,-8.934722409810364,0.6694035296597001,-12.649564064710438,-4.594776841876372,-8.538128774273268,3.6075757841893683,-2.2423518410233036,2.6824095300182407
1.36,-4.266381269657796,2.65668233880015,-11.13876317209626,-1.984774637375367,-3.471639538361538,3.6062519230517456,-0.777288507944732,2.5727249880563
1.364,-0.4457167861724072,4.773359885952578,-8.621148442800635,0.7556252909264298,1.6473986731948336,3.218309173468285,1.366134835360985,2.1316491205175967
1.368,2.001498455865634,6.710050749119474,-4.989122801457617,3.421244733260252,6.055129281214336,2.4419449743278356,3.9958029559532893,1.2813822130961796
1.372,3.2964902329261414,8.518013089969013,-0.4077255509832325,5.844730669374683,9.47920886247194,1.4709621529756916,6.682113149928227,0.1010379699996049
1.3760000000000001,4.096684898230362,10.461575732570545,4.6236564499019845,7.834771954794146,12.075394599397896,0.6153651072671169,8.844982212407897,-1.2191122520022852
1.3800000000000001,4.992525443952182,12.722129600523813,9.372632800039144,9.165322389533442,14.141903370869581,0.1515369954398713,9.95135147518167,-2.462020845417584
1.3840000000000001,6.138438756754486,15.171438683469525,13.109926561710832,9.661698488583642,15.820050783851151,0.20772016916952252,9.769662419056036,-3.4349241905519663
1.3880000000000001,7.214538345568068,17.36396121407173,15.37212553476444,9.328417613855297,16.968430941423836,0.740629406833055,8.548376837865781,-3.9693796858973815
1.3920000000000001,7.706905543213643,18.747197917632,16.105904059988845,8.411774821167326,17.259612428052595,1.5884248916579402,6.97996100764998,-3.917473440500261
1.3960000000000001,7.2817600426503155,18.93697163384926,15.602381615516077,7.297072061710427,16.401393371373544,2.5345036035690693,5.89299111421199,-3.1971370894308926
1.4000000000000001,5.9832450822822505,17.852318918223904,14.243107400502785,6.250371604744358,14.294128019591163,3.3178706508388256,5.765948312507343,-1.910275418198641
1.4040000000000001,4.126490199987712,15.62945148911017,12.179542555926652,5.137748584727926,11.00353889289249,3.5965521204596804,6.298994394315027,-0.473767958941985
1.408,1.964259432276132,12.385608987663996,9.139164042405945,3.3162469752119654,6.577793219832315,2.930563479925718,6.314701547359704,0.3607186107499981
1.412,-0.5962880343583477,8.045750416374851,4.524183221739255,-0.1457390085516681,0.893422672586035,0.8697369768122909,4.146484062149897,-0.29603235377318626
1.416,-3.9785456905888754,2.419299223134024,-2.197962207058505,-5.953077446579347,-6.27960110149067,-2.8338572572692544,-1.5745145378847816,-3.0856156485362396
1.42,-8.578676858648826,-4.473453767575931,-10.972366161650848,-14.002613145937552,-14.947528268922646,-7.973183335764485,-11.051961549007569,-7.989105834156263
1.424,-14.259364629134609,-12.010885971379317,-20.793108549185064,-23.073808674692565,-24.464047593626884,-13.750393080666953,-22.831850265431882,-14.110066705799653
1.428,-20.037659589316036,-18.82050134409947,-29.76262200880764,-31.03589084386264,-33.3144030318596,-18.88542551873067,-34.02488328610595,-19.829619906046254
1.432,-24.239205391911877,-23.074607302063214,-35.628862303213296,-35.55632786304147,-39.3521195885391,-21.98238511515894,-41.240906577231854,-23.33012253134088
1.436,-25.12428610813101,-23.177012244872657,-36.61237984013728,-35.02313891022851,-40.49791934022237,-22.02170271468072,-41.88078432208644,-23.282499029533405
1.44,-21.71476236397703,-18.551987901881144,-32.16212728361303,-29.249290854337005,-35.63455738909186,-18.762122887644423,-35.21583045939941,-19.385627645497234
1.444,-14.387882297702822,-10.103460180958136,-23.276859206484264,-19.60973918821687,-25.256127227900286,-12.851886172114028,-22.750734942117273,-12.50148283276309
1.448,-4.886076935925386,-0.04449571055713353,-12.208116408383344,-8.524092388279934,-11.497168589602527,-5.5825417023789194,-7.681558047433942,-4.31469030837804
1.452,4.314661463010453,8.891891446568053,-1.642368660710186,1.479809097736116,2.5471447379879786,1.5977870553924216,6.314515245781635,3.3217143674117846
1.456,10.986466516924636,14.514557249461793,6.275843246894052,8.672547711911427,13.930861403454964,7.576536322042997,16.40347338891873,9.040116317905781
1.46,14.006526475579385,15.993526991700499,10.650169211261867,12.600843488097194,20.88427948194102,11.855430393828115,21.456080752476566,12.324147302485093
1.464,13.669158325117102,14.044090494999272,11.955095063845107,13.953827247388546,23.288116179388354,14.512618945521579,22.102398537502687,13.459145168930167
1.468,11.322796019125981,10.402323641394618,11.553442952920664,13.948724891164991,22.399672519919115,15.922409234146816,20.0605204360433,13.16560368113981
1.472,8.560062934277994,6.891380478690984,10.883831842724483,13.600751139116074,20.028702316053522,16.424218198938014,17.15601240734217,12.156286691464526
1.476,6.409755742466295,4.583645541790236,10.738939758020035,13.256072467448943,17.620213185056897,16.137431397391797,14.543579602582778,10.851839527932263
1.48,4.9352605700234005,3.458404025201851,10.98843996349873,12.582960464593022,15.704200293175298,15.000289316210344,12.472629170559976,9.361947088146122
1.484,3.4293128274009224,2.705965437707815,10.849538157469912,10.96807628649777,13.955377728527058,12.978893608453879,10.607396270804232,7.680707304494808
1.488,1.0471260717103483,1.4500086295722245,9.513514721064299,8.048012684022067,11.737861870437406,10.29238387030989,8.60925093994807,5.920362961390713
1.492,-2.5269969340081153,-0.5763363772148664,6.751553721687558,4.054810270160312,8.752110146886224,7.488840067617916,6.581255016869881,4.416316585642293
1.496,-6.7578395589331635,-2.795175316128798,3.159035630811105,-0.20599440331569996,5.387547843873203,5.30369426293645,5.111647252799724,3.628745202779778
1.5,-10.452401395353666,-4.121603630983634,-0.08730365093442316,-3.7038498973155467,2.5814372065031925,4.3667562170173575,4.91979808699352,3.9119382356491705
1.504,-12.344768713980926,-3.6560420670244156,-1.8323112782778903,-5.662646582094403,1.2881693365262787,4.9153699518147045,6.3423476391110905,5.296784377420084
1.508,-11.740593489855689,-1.3124587890251398,-1.5687693964441376,-5.907580974474003,1.892504167776842,6.669769542223863,9.000786328079567,7.4060515958426905
1.512,-8.873341849060017,1.9931323674356225,0.2533419274032056,-4.912770399144897,3.9144588732661667,8.937508582004652,11.863231725964344,9.552960630291839
1.516,-4.795164391458454,4.725453969577002,2.407620706314969,-3.54125585960173,6.193999635471414,10.899205298780231,13.680064399700402,10.9792859534334
1.52,-0.8858006936491183,5.4752999378097265,3.4855815326744173,-2.619336416644968,7.453666285282976,11.931299728424197,13.563909936255424,11.116972150377006
1.524,1.7546441844623306,3.6776541599450567,2.5936540743951353,-2.565658854835462,6.936829828871694,11.81332861604389,11.401496672645663,9.763566264350118
1.528,2.7128895179285824,-0.09329758222795803,-0.2117937490106705,-3.254471342952808,4.772485112556535,10.72595808370648,7.888998259261454,7.106511358401911
1.532,2.3038488474311203,-4.398752008192696,-3.9592165782007323,-4.155298356473561,1.89103198268446,9.06563751038103,4.19455275397449,3.6142082874133346
1.536,1.2935619275136485,-7.6147306334906855,-7.233759559476373,-4.645180248133546,-0.44266634311729547,7.195802517466909,1.4322522368297355,-0.14075655131740206
1.54,0.48513913347652515,-8.665511978481618,-8.830646297556417,-4.331397831483741,-1.2276115991256136,5.2728763131998235,0.22707256185711966,-3.646965273206858
1.544,0.37175002072949503,-7.443407473391496,-8.277999755440993,-3.238747314687617,-0.14888790405401853,3.2342829089541056,0.5534965263884644,-6.559537809070525
1.548,1.0000252923382602,-4.728147358876616,-5.984075200168843,-1.7794091006281993,2.3621727751796993,0.9413827910151196,1.8830118933672335,-8.727317991396202
1.552,2.0482437169060024,-1.7045460763887421,-2.9724774894273365,-0.547163121211907,5.409747728597253,-1.623326928339028,3.5116942973686083,-10.157895045788111
1.556,3.022655063117631,0.6301740466106622,-0.3706078079566626,-0.056161561862029696,8.081422883582283,-4.234105905015199,4.8739392818072345,-10.955980562082868
1.56,3.4519293243046354,1.8472688210926478,1.0845241435966209,-0.5496666372467071,9.818508123250979,-6.462468154885331,5.703136841772148,-11.261732387180238
1.564,3.0294367432838794,2.109160078077744,1.2900596947826821,-1.9518026321865167,10.551704019657004,-7.869733555141286,6.00613161073319,-11.206239414108804
1.568,1.6810027717182394,1.879611313257592,0.6865069543998904,-3.9641023246553373,10.583103000353912,-8.25153215285685,5.921919908512608,-10.880648557011536
1.572,-0.43253979390087527,1.5314239138659227,-0.07587394497644423,-6.235457408183608,10.32157693610649,-7.792727340625223,5.58764759639491,-10.334841418409852
1.576,-2.9549738341393557,1.1049503502102018,-0.512310017718438,-8.497908499296983,10.041566603817227,-7.029466877277982,5.087011374610901,-9.588083471991254
1.58,-5.4282874896879205,0.33031518714288044,-0.5238388049991618,-10.602564096403153,9.77805617378082,-6.618304858814354,4.479595838080277,-8.642171909788189
1.584,-7.445495795181842,-1.131392747228218,-0.3886658019211717,-12.470069173024601,9.370119299709383,-7.0286803479707025,3.8394533788733254,-7.515436614345509
1.588,-8.811762248708565,-3.3963689533734573,-0.5654725325143866,-14.00785222710403,8.599283748004773,-8.313201941332977,3.24606238654927,-6.277887721694242
1.592,-9.632231351382703,-6.202128939130551,-1.4371200167806313,-15.068509118346485,7.326624511685723,-10.083450261566593,2.7204920817002254,-5.075654355308768
1.596,-10.25273330414643,-8.971639044604979,-3.1301191429393995,-15.485518885382984,5.557288517562828,-11.713388336796994,2.1608520620520317,-4.138590321054791
1.6,-11.052811967937963,-11.063662865275692,-5.479735878038438,-15.158130475361245,3.417288678149661,-12.662659635352465,1.3502534076573989,-3.7441626790026
1.604,-12.183756381497359,-12.055861220774078,-8.138839935165372,-14.12731831476159,1.0888699095871557,-12.74945960633497,0.0545911253252207,-4.134591275491071
1.608,-13.413661205715812,-11.909019329403494,-10.74933150279523,-12.581766234128597,-1.2461787609698716,-12.224241995549722,-1.8164399245183969,-5.405336689403564
1.612,-14.192010819531433,-10.934148146834657,-13.07352162721697,-10.776789997185345,-3.4260118956543106,-11.606007075477104,-4.088410580381627,-7.413039820562089
1.616,-13.928769873697899,-9.596937674673216,-15.03062704054675,-8.912744457735052,-5.292786133092985,-11.380388598432482,-6.335795211829452,-9.766268038784213
1.62,-12.349225177082644,-8.289047186018479,-16.62556160834437,-7.043945969644563,-6.6730453073904865,-11.730678530523086,-8.029293123897348,-11.92229289114228
1.624,-9.716309965458045,-7.180221740560208,-17.834483586938617,-5.087023729787387,-7.38174470187341,-12.452626309205145,-8.753585713515045,-13.375544622323584
1.6280000000000001,-6.770932655206427,-6.218350203511383,-18.528686697092976,-2.930971130566058,-7.263626411195668,-13.093091093741624,-8.385654043304136,-13.858513994937484
1.6320000000000001,-4.4019314623603645,-5.260915457445573,-18.48609581464089,-0.5837229076912631,-6.25378012171274,-13.227064292198218,-7.1376855517978175,-13.461935555353836
1.6360000000000001,-3.2132667533987487,-4.237731201810228,-17.485204602506236,1.7421480746774844,-4.419095076355369,-12.708602567912473,-5.443386935408858,-12.6020968907628
1.6400000000000001,-3.2501620875260304,-3.260388380687507,-15.433231058754474,3.6667226371580823,-1.9679626629192413,-11.750169005148894,-3.754520149540218,-11.834252173200472
1.6440000000000001,-4.049557303412066,-2.615470827864763,-12.470639544599566,4.786349140819578,0.7792517111328756,-10.792941292854849,-2.3783360813023093,-11.603041907889981
1.6480000000000001,-4.974516537631256,-2.636900975555876,-8.98669333981331,4.849733847047719,3.4514286660021334,-10.253728448884452,-1.4443299617972203,-12.056494090299914
1.6520000000000001,-5.627445446285047,-3.5301168644356293,-5.523810570678005,3.868944809233276,5.696961667402892,-10.299951405479835,-0.9835984219113358,-13.011510373827218
1.6560000000000001,-6.088537105112195,-5.239932559608652,-2.610012312263243,2.1021015523164994,7.238184244838537,-10.788260650575994,-1.0449088426936441,-14.089805198812062
1.6600000000000001,-6.825912585710506,-7.435294921444163,-0.592932766021125,-0.07649258912465307,7.892189563036043,-11.386238426403565,-1.7490735648284206,-14.936697404920427
1.6640000000000001,-8.317309207732773,-9.608335332708458,0.4471155691257511,-2.334559006338875,7.571718386386912,-11.788400311241146,-3.227937144031011,-15.401834393825336
1.668,-10.638541522819459,-11.256853864521073,0.6672931417240031,-4.475159320672606,6.273220729505891,-11.885741632301169,-5.486118632382896,-15.579019157012349
1.672,-13.285822375544479,-12.070841742246108,0.3285964257684677,-6.4216272595260655,4.065492269901561,-11.78055014489285,-8.294657117172187,-15.692696613365175
1.676,-15.357837286705598,-12.033197377267944,-0.378865605815796,-8.13211933123877,1.0880928253669324,-11.65880330755498,-11.209312891624313,-15.91834842917146
1.68,-16.011876949469894,-11.401842822478255,-1.4441276370971265,-9.519271668239352,-2.442283002312176,-11.610414586797202,-13.724724259988262,-16.23956599564694
1.684,-14.92362133056629,-10.578146310434793,-3.01435623277086,-10.443606251338661,-6.222441802806051,-11.526470073559354,-15.482304868035104,-16.43346252947348
1.688,-12.491465199607457,-9.933706294612668,-5.2640426435311785,-10.803035649157813,-9.891061144300856,-11.15291705570404,-16.411954435988186,-16.194349673099662
1.692,-9.654211385023736,-9.666669259611272,-8.223274536028205,-10.646263897661715,-13.094345617547638,-10.26158578314839,-16.70730776370773,-15.30659957052275
1.696,-7.4180321681254,-9.737356122898277,-11.664008437355557,-10.213080319679236,-15.56619821341653,-8.825861946240849,-16.64946826995375,-13.762824773757048
1.7,-6.3671608041840155,-9.922984688579742,-15.114519443568977,-9.84303624359441,-17.20054700127328,-7.078719537435925,-16.385118076748803,-11.765123314038844
1.704,-6.401196850298174,-9.945276524121008,-17.991367596261924,-9.77587556413512,-18.06362883731148,-5.410316567682128,-15.801110243856918,-9.618179727581737
1.708,-6.832200844952676,-9.611603798220601,-19.78709771601655,-9.965792706650927,-18.32734770910144,-4.164832821738324,-14.59401883555484,-7.598390438592679
1.712,-6.772919178850271,-8.906552788002985,-20.223000820458306,-10.042262226673135,-18.141204087844525,-3.461358852469644,-12.497898006296893,-5.880044050732365
1.716,-5.5875286152719195,-7.984492268872502,-19.301804703737897,-9.474361495118982,-17.506483121400635,-3.1509281886577094,-9.540020121268164,-4.5471436463124615
1.72,-3.1842643206067827,-7.089323933829306,-17.24749986278645,-7.87556979111403,-16.23519648026061,-2.932114584042715,-6.155148670005855,-3.6537901047789294
1.724,-0.01959378282111679,-6.429929289591669,-14.369536320101615,-5.273038143119263,-14.01373368140612,-2.5494799832872266,-3.0644020301005597,-3.269923100135026
1.728,3.1465033784004506,-6.074392209998194,-10.939010180434384,-2.169274491459598,-10.568599460443277,-1.9395874388088892,-0.9647129128150844,-3.4523174846911413
1.732,5.580450367565332,-5.917578794097394,-7.151139080562029,0.6527265943579437,-5.865233676188666,-1.2342214339727642,-0.18577104286589652,-4.149567527667952
1.736,6.840617043169136,-5.721593187612625,-3.1703257220377488,2.496834142045776,-0.2244276013006914,-0.6208893313721919,-0.5057864533980343,-5.108304849222393
1.74,6.874160634365168,-5.230715241266361,0.7862462600212119,3.094169161867084,5.692670793467267,-0.16637954143909184,-1.2398523492711568,-5.8693114169228515
1.744,5.968275461166774,-4.288565200124943,4.411454226606782,2.7328416760475864,11.062376262077146,0.2730450296624518,-1.5598425881771973,-5.8862753706244595
1.748,4.605062457767448,-2.914867199600881,7.344423127562971,2.091711867074185,15.151582505900173,0.9859568503003135,-0.8862671618328282,-4.729438573934266
1.752,3.3023342378072744,-1.2959770330694749,9.274399910861613,1.8817189884555123,17.538040985174565,2.2231815286694907,0.8491560580839765,-2.26628401876334
1.756,2.48625453420674,0.3141938425081898,10.0585209787117,2.499219281985096,18.20895611201751,4.010960841437026,3.198458725651005,1.274155871414787
1.76,2.3871360510528374,1.7165322566325019,9.788181745344927,3.8830059033173976,17.496029895157072,6.083501335936129,5.450689462886356,5.385096847012172
1.764,2.9844442702436265,2.862757261692451,8.772000195744987,5.647241328769157,15.90633742778711,7.981800784499911,7.004053704359727,9.46410767495105
1.768,4.008131684167003,3.856896247705015,7.427587834372315,7.373857521912557,13.922027892258367,9.261715302686211,7.656322769558777,12.999784971327914
1.772,5.022045633390086,4.855560101426333,6.129162566234667,8.86969702638968,11.852700134283177,9.68876022774295,7.656566320590716,15.675267255493019
1.776,5.58967331682219,5.923460076230824,5.07377539249501,10.22235563455419,9.799202602077333,9.316033059655304,7.509892763442956,17.36972319912594
1.78,5.45671122316732,6.9122427957620545,4.2255012366249325,11.627387262449819,7.702808153347354,8.416567683071861,7.652347705775719,18.106450843325607
1.784,4.668354154600559,7.454564727626984,3.3633297988303728,13.124249814559224,5.447473948349613,7.322591468342193,8.182177549525647,18.000856338737048
1.788,3.55403546784736,7.103092379575414,2.2047556440336322,14.44418382589353,2.964984039062487,6.280457344714231,8.799013103251394,17.250180251521236
1.792,2.5673625897818617,5.568181934038513,0.5614915467848443,15.095367267107159,0.3088904529284455,5.400979135754092,8.987155236660959,16.148307009138854
1.796,2.058266170010664,2.942633283246225,-1.5330656078501725,14.650802629624593,-2.3083094554020684,4.708453913452283,8.339973039346674,15.05777475330877
1.8,2.108279981393072,-0.2185419118750659,-3.77706332736488,13.063547110395621,-4.5244694775809915,4.224418247209844,6.844707345402464,14.307939861857157
1.804,2.525128129925965,-3.0273168962750137,-5.649264318421987,10.794620642993253,-5.883401241756328,4.002438937370973,4.9611746386930555,14.04229478152428
1.808,3.0013710075669127,-4.567245600269933,-6.546938841491641,8.64413302016922,-5.941924028282328,4.089480557469001,3.446807933460633,14.108055616526947
1.812,3.3370428455408345,-4.249897171393557,-5.98072581494719,7.356725930197668,-4.421332907420869,4.443405200853081,3.010828680294664,14.078614177771344
1.816,3.5954414378172777,-2.0427405535274925,-3.757234053118335,7.230920549427118,-1.3496126262527328,4.886505110113758,3.972354896397293,13.436343497738775
1.82,4.0705033510632385,1.5190113907809015,-0.0786440451531425,7.9605478658343465,2.8574135646298298,5.143460440194225,6.096092027043117,11.845281525157297
1.824,5.07367870798502,5.541549652709299,4.488591136067328,8.813278809488356,7.445172592324686,4.954732688064073,8.69313630944906,9.367702862078621
1.828,6.672436461200373,9.102728825018868,9.166668941489192,9.04964070490618,11.506554288120329,4.2031040702217695,10.924809488266384,6.491336930979557
1.832,8.55095445128111,11.549576981171267,13.186596574068968,8.34198849736832,14.250506496025189,2.9681142354176293,12.148858894355481,3.9226204955742237
1.836,10.09724751147627,12.645421500111429,15.986355479723855,6.947142862257257,15.243392278680096,1.4692623185228655,12.131259404283314,2.236750550877289
1.84,10.676940960153544,12.514407830823831,17.31379325859992,5.537174828705674,14.504168512169453,-0.061184014840001855,11.03843313102081,1.5861608257940145
1.844,9.955634446069169,11.464864609950315,17.217136622753117,4.798307242031036,12.419676337809051,-1.489031155903442,9.250737735388348,1.6339723308557752
1.848,8.084242129033907,9.805651228642368,15.942810517783863,5.032319848140074,9.521456559411625,-2.7974164210448675,7.129971212910075,1.754205757824171
1.852,5.615221688605542,7.73675188041991,13.79113211052385,5.9732620475319695,6.22661016307148,-4.015120518266285,4.87386361158422,1.3833398400287162
1.856,3.2060734289734114,5.363893587107183,11.00727403157462,6.918242446927396,2.689555081151133,-5.113854232200056,2.529931162375237,0.33112522912746556
1.86,1.2804777383877157,2.7824851883052073,7.7607570457257475,7.093776934302967,-1.1611246177439583,-5.955288805421363,0.12418782668610451,-1.122904024055123
1.864,-0.1441573506786309,0.1613370963666716,4.204210893151222,6.045678152281665,-5.427046226856284,-6.346624226590167,-2.2057819278025335,-2.414375416039295
1.868,-1.3684896707594563,-2.2429636284003878,0.5530099692380617,3.846489910989983,-10.010315399462197,-6.17528912793562,-4.175876816829483,-3.03822075397133
1.872,-2.7324896456504644,-4.161568577023498,-2.880943361233656,1.0254085244051343,-14.502572052467972,-5.526486685355023,-5.45644386861623,-2.8486834446209714
1.8760000000000001,-4.325088462008825,-5.421202257684413,-5.734591248381892,-1.7070201288942597,-18.262807954893702,-4.694486517328561,-5.843198895190936,-2.1371215807085657
1.8800000000000001,-5.86937656526044,-6.022660303702979,-7.694990986888378,-3.77215862039115,-20.66164872290523,-4.051924346068909,-5.37467721862573,-1.4475976404299082
1.8840000000000001,-6.8700340311480526,-6.145087831653905,-8.606392361096496,-4.922331309045453,-21.35945246801159,-3.858109531660772,-4.323932013966977,-1.2532286364418557
1.8880000000000001,-6.936036176931299,-6.069922771448897,-8.524700661148861,-5.253525995404804,-20.464602773722245,-4.120217695574736,-3.0654301907586308,-1.6857030814741538
1.8920000000000001,-6.061276786585362,-6.0528727600948695,-7.682867070912676,-5.057045629645735,-18.4743255145958,-4.590415940552827,-1.890866014586663,-2.4709048395035165
1.8960000000000001,-4.6667938296776,-6.188365030376241,-6.378732473919168,-4.623828977357245,-16.013815031064038,-4.910245195174329,-0.8943951180965808,-3.10389286761563
1.9000000000000001,-3.3697363134553506,-6.339074906505179,-4.840931322899983,-4.106866538015763,-13.5211559807552,-4.813968808615203,0.017750435904381412,-3.141164363797471
1.9040000000000001,-2.6134336933815563,-6.1656448582439465,-3.1384102045949636,-3.4945344663807862,-11.043780617469796,-4.2677963260426335,1.0137543293653892,-2.4384909097684044
1.9080000000000001,-2.3881122453189976,-5.255917126839209,-1.182119292588082,-2.6800764219900994,-8.269253845982409,-3.4629449139239816,2.1970267307648426,-1.2038851101591321
1.9120000000000001,-2.234243610907251,-3.316092068696845,1.1759712242036802,-1.573131848324234,-4.787233372250293,-2.6799356143972903,3.5341153920173802,0.14220360132928445
1.9160000000000001,-1.5386773088651888,-0.33682824063505823,3.992954837520544,-0.1930857653745477,-0.4297266590370006,-2.117797483223042,4.881074640060478,1.1885294352461844
1.92,0.050336895483627186,3.3281017981228667,7.1173078829421605,1.2937660482859643,4.484926306081274,-1.7948408186482299,6.073333734761838,1.7009780975349924
1.924,2.3555316203106074,7.025181164051443,10.171647907202214,2.601559870519146,9.152774010716996,-1.5835032952945878,7.00646831452974,1.6440479276518751
1.928,4.728822504556851,10.001230209183129,12.649402165237387,3.409291895650986,12.547137906349475,-1.3429118358474528,7.6485411066451,1.0856881262735436
1.932,6.408773974722082,11.665222984913044,14.080983118668842,3.4699350960846687,13.813925174671105,-1.04803581637609,7.9874936537848225,0.08249522271151877
1.936,6.958929208855253,11.796882932765142,14.188162727440876,2.6979913940475893,12.606580813426735,-0.8268140937744062,7.962885753447276,-1.3604127367176564
1.94,6.509817047745608,10.588398516338586,12.955348164014094,1.2110792733371776,9.196439431634,-0.8781786778865863,7.450617355004129,-3.2162475982592738
1.944,5.6570471196591186,8.512025205621644,10.597140635955103,-0.6941543321733743,4.332096427642211,-1.3285416877351952,6.332545962391588,-5.316838464045864
1.948,5.074604972015635,6.085280327737771,7.451174029783851,-2.632914973364751,-1.068243118185098,-2.1266032198882185,4.611455305823819,-7.2934286221194995
1.952,5.086221580314591,3.662670802558973,3.867321690398101,-4.253826696627425,-6.223042612169669,-3.0496446403735313,2.487212505996422,-8.649783804491188
1.956,5.479920762572068,1.382009830235079,0.15618407905836929,-5.337306874288995,-10.636263022074308,-3.817372730101105,0.33178025024630053,-8.954460011600405
1.96,5.6669904836261065,-0.7373066352558109,-3.391916577072703,-5.832434587581729,-14.07000577745569,-4.246957845510517,-1.4430542084569882,-8.050710701962347
1.964,5.07820861825155,-2.625085477581448,-6.448589718536308,-5.8214684572276445,-16.4077016388656,-4.351388120660339,-2.557365083185241,-6.161773552667128
1.968,3.54835814398405,-4.057294180408993,-8.63009157577805,-5.437851247618123,-17.542079332284896,-4.320688400991639,-2.979280500564488,-3.815755497945816
1.972,1.4385030658039912,-4.7187954540035,-9.576132010690372,-4.793116812926705,-17.380101092576147,-4.402393884759818,-2.922354213989956,-1.621500964301858
1.976,-0.5840371129802326,-4.4042569895670285,-9.115104988706898,-3.9624208382489794,-15.952604024861841,-4.752444602506484,-2.730734191432052,-0.025139589926486572
1.98,-1.9500540635179129,-3.230861098130033,-7.420684932611355,-3.0180528065472814,-13.536131764658881,-5.3464786281668255,-2.717651653290063,0.825342253936999
1.984,-2.498479674091466,-1.6815467599752696,-5.036553700678519,-2.063998513190688,-10.650277194192281,-5.996208323774637,-3.0311614052548768,1.0432812922787509
1.988,-2.506149255735939,-0.4144600037894013,-2.716887291308976,-1.236100152202518,-7.890274696544998,-6.454077477176636,-3.6152284998404287,0.8406047499135312
1.992,-2.420787090691003,0.08586231196878735,-1.1225727360439612,-0.6435979371948188,-5.665182390892532,-6.541066176380324,-4.264225628918599,0.3569886392653796
1.996,-2.481503550597471,-0.17467899258602593,-0.5195630768516712,-0.28820568338190133,-3.9923390442038453,-6.230997889033729,-4.732153646672975,-0.4106098210513869
2.0,-2.499710478911162,-0.6426584263402773,-0.640404980800215,-0.02322690793297122,-2.499321799347869,-5.6483304545634185,-4.829351506663268,-1.530857883407108
2.004,-1.9551717967549336,-0.4828729332885615,-0.8026755814545572,0.3975440985392642,-0.6525955323578652,-4.9913796230908165,-4.475601367120838,-2.9785131325006917
2.008,-0.3551936761550136,0.9591973113149095,-0.25038438883547,1.1872419470807996,1.8916247309998493,-4.425502931148033,-3.7046563811250586,-4.508217812322584
2.012,2.3676766933756346,3.747637334270472,1.4518264547769189,2.376763791249039,5.020866039335783,-4.0000182060346035,-2.628293250637078,-5.658917064322139
2.016,5.681248307353827,7.253849912835726,4.176867367293326,3.7456955350063392,8.158905234366483,-3.6224095549598205,-1.3854505899083587,-5.917808295870349
2.02,8.611261313759776,10.413161793293927,7.269999498466806,4.885819781978311,10.517780280222091,-3.1020413564261986,-0.10144855912027217,-4.977791644115582
2.024,10.165678378932423,12.22207662768573,9.858515517748902,5.390499898771922,11.49788604249062,-2.2444674817023262,1.1438786580839846,-2.939083548259841
2.028,9.779118623227664,12.19232523525703,11.259264146007695,5.067048305914916,10.997167425276567,-0.9605590017360919,2.3241153511804846,-0.34816780645277895
2.032,7.5380487388499695,10.511831891649752,11.261724382044777,4.052637120961335,9.442056983169786,0.6537691228335223,3.4436384631977415,1.976802058195128
2.036,4.09883029710204,7.859513846315386,10.147800620476627,2.76424572606913,7.533532234850363,2.312255848479091,4.48983179725627,3.2708546504954823
2.04,0.36686496203421504,4.997611317707544,8.45989372354164,1.7032067226024243,5.853223500555506,3.622454083307993,5.385471427727364,3.1514108261154226
2.044,-2.858615454034727,2.4078711059310605,6.677669844666338,1.223050342607292,4.573588304429382,4.236055785442289,5.980300082947131,1.7989346098639076
2.048,-5.1083907802973965,0.16764489581896047,4.9943033597009805,1.3801611489071135,3.4392785551106897,4.006749763814787,6.10084583579255,-0.09853451851397255
2.052,-6.280293854640125,-1.9063402883791059,3.3145487976253234,1.9429084818101021,2.0256978118484135,3.0822498466845505,5.652052715507707,-1.6214068628211242
2.056,-6.530566548454079,-3.976067803852771,1.4511029129374522,2.5452204541955763,0.10888905449597885,1.876521665632541,4.709641157397057,-2.00163027725121
2.06,-6.141612623132371,-5.990528390699908,-0.6304152294656928,2.882053553137671,-2.1030541806964713,0.9152209581262344,3.534037897534107,-0.9490849583827159
2.064,-5.420766478986215,-7.693452774127522,-2.680376226818969,2.851156307249158,-4.019254370316309,0.6187877529526802,2.486035425587813,1.2210209931046427
2.068,-4.638910432690481,-8.804492890780496,-4.241265741322615,2.571373607343531,-4.980919691667785,1.1269667477641097,1.862839610178276,3.7166587514567784
2.072,-3.983333030210371,-9.225272921596343,-4.885023325242036,2.2792428028525187,-4.656231727349942,2.2553520417005,1.7393735103419266,5.597682052004185
2.076,-3.5090701976727203,-9.10540075621426,-4.468723882459579,2.1693627984252486,-3.2714440258262023,3.604216646002129,1.905563837979523,6.163311208766083
2.08,-3.1009540785976113,-8.714035692593757,-3.2356834580415086,2.287818948111293,-1.5311329646953702,4.763919647526057,1.96681746529622,5.2342418951713725
2.084,-2.5097624283868623,-8.215984365191316,-1.6998739460869121,2.5195133401412653,-0.2601111889406802,5.5027626529217954,1.5688651680924317,3.2024722497639364
2.088,-1.485723552317439,-7.5278330614642845,-0.38008172738719637,2.6687214937257595,0.03263484018550855,5.8465487232074915,0.6245514696751386,0.8513269597624689
2.092,0.06204828554753572,-6.3600942373248515,0.47081309699586615,2.593576352677082,-0.5726623109342457,6.018086783480582,-0.589440660564799,-0.9680908944050293
2.096,1.9873530873629828,-4.420056894189544,0.9756837113674601,2.3200418937660228,-1.4374448308750294,6.28266215397571,-1.5313925623138844,-1.6610812809036037
2.1,3.966427195541318,-1.6556839396077265,1.518464107628951,2.073091585496817,-1.6915967215736432,6.7986627690641575,-1.6477259762999656,-1.0784599452861392
2.104,5.686911740078908,1.641971801224571,2.486756802774294,2.20744171894478,-0.6690257884291686,7.548718690256762,-0.6499118137153663,0.4878667703692523
2.108,7.0361850891769855,4.942816771946576,4.018859792781997,3.0531299672185095,1.7662643220397924,8.372755240640126,1.3309394837692357,2.472469981941005
2.112,8.146073839479808,7.716085562465798,5.894468615074425,4.7368706637501745,5.149927444606229,9.064964175887994,3.7945776563108584,4.277935209872158
2.116,9.24257046587664,9.653712141238884,7.62416043224251,7.0580039645955885,8.623833180407848,9.46320584331168,6.095102954526483,5.484645690531562
2.12,10.379484908721556,10.731793523730072,8.688350615577628,9.489845500204282,11.288006540689306,9.485217653369364,7.715693428563512,5.94948635822593
2.124,11.265794311904298,11.105828770565804,8.799254099144466,11.34122519335864,12.539006253443528,9.11259302975978,8.460300834878064,5.792461849615359
2.128,11.340747135142731,10.940043539859033,8.04620604577951,12.03334696818071,12.25907483766104,8.367896466654425,8.48238937719598,5.310540758257322
2.132,10.106650269636763,10.3140488695213,6.853945624024689,11.38230796803772,10.802441278436685,7.323371582667129,8.153633128567412,4.859213498057191
2.136,7.542700438111407,9.288545750453533,5.7751058972713,9.746639543601194,8.82160142528985,6.137500895779574,7.850349306302778,4.740299124960382
2.14,4.307331144943618,8.051141639387152,5.222104250213027,7.939845530788112,7.012428362976758,5.073251895364128,7.7708272921807495,5.119956763031752
2.144,1.5388660414961939,6.997676976903514,5.2691926959147,6.906897198395873,5.878991751952647,4.445338505810531,7.851854344210941,5.974472330764522
2.148,0.31250862483790354,6.628765345217948,5.6099073602342,7.294133610859869,5.580035722332834,4.494604303513638,7.807837719111114,7.081571844280302
2.152,1.0447540904270873,7.273992330618549,5.690205431600462,9.117008176846266,5.897029579007194,5.243088174419153,7.257782366490096,8.07919061397039
2.156,3.186230122948426,8.80504903784099,4.9552840774557465,11.698357856494212,6.3369804952876,6.414772794388406,5.881701493069144,8.579941898919424
2.16,5.428922457023983,10.548408383157703,3.1144147816950154,13.939471174417214,6.336925360847662,7.498494694215781,3.56950227814812,8.319008242135588
2.164,6.360123934725814,11.526565403645591,0.3149691795595164,14.812972279773243,5.5096358776802195,7.947039807271821,0.514507354241887,7.274139362403659
2.168,5.208349594134477,10.943214849573616,-2.8502754373049424,13.839290946326251,3.8375769793324155,7.431694845853249,-2.78037315153852,5.699980615124655
2.172,2.267606711043128,8.660470816295181,-5.51611905920365,11.310810896421682,1.7197998527720357,6.014438080240064,-5.603944109845651,4.046181336401578
2.176,-1.2512849816265315,5.384954875648449,-6.850337778272037,8.143101757327273,-0.16499142206224804,4.141690670393556,-7.243023676174211,2.7860182798118296
2.18,-3.8694460031672433,2.402284352784701,-6.378672608572524,5.431422900366455,-1.1437324319542133,2.4588425666710108,-7.246431008887728,2.2350532021106617
2.184,-4.606486201006886,0.979218159983831,-4.198488997580712,3.9465173758639676,-0.856672422001941,1.5311201260225094,-5.657680855127815,2.432918864286215
2.188,-3.4513003940613736,1.735943141827895,-0.9854003568803886,3.8212564180950728,0.5646316623600782,1.6058318310692161,-3.0957254891323878,3.1398468645302318
2.192,-1.2929358403971314,4.3247519936496825,2.231454804926174,4.573905574416459,2.545283712616131,2.530526186264683,-0.6041685944745696,3.9428784894939777
2.196,0.6294237731040742,7.610326179903604,4.44720025339889,5.433394950915005,4.336782400038546,3.8597873095243407,0.7073121114193888,4.4158942864678234
2.2,1.4208687695992275,10.251533746904112,5.074691260009779,5.771738860180525,5.375451917394413,5.079495270294388,0.11492097834526405,4.269331861610546
2.204,0.9665720054521447,11.372697403526098,4.1884878570313475,5.409385561999476,5.555626074053676,5.830330780516205,-2.3675554269353514,3.4422600141168758
2.208,-0.10415271035557616,10.971985899474621,2.502283992471594,4.647496673493378,5.274127059060248,6.0284578144490375,-5.920834252873312,2.11696797729363
2.212,-0.8578623115766133,9.847962108828398,1.0656762590012345,4.036276421593302,5.210346119158331,5.840342799439411,-9.198885048814532,0.6690954261626052
2.216,-0.6188562271471056,9.108190303272167,0.7936324132253798,4.02724849064512,5.954309026333329,5.5428367675728065,-10.868875522773966,-0.4309129627371057
2.22,0.6744579039126979,9.537923427504518,2.0403987704188316,4.714123854904015,7.674355231707524,5.358104665814709,-10.176334423655163,-0.7368287477323756
2.224,2.491367421501474,11.177037689404573,4.417739575789077,5.788385162484024,9.999960761248708,5.341191445903645,-7.276012899781756,0.04626221647178541
2.228,4.046485467321114,13.317020362741363,6.95339043696973,6.710352999597159,12.179572340300417,5.367606328392643,-3.165680364853897,1.9583421137231505
2.232,4.731831741048941,14.896853714727053,8.530803300158396,6.991682048436729,13.436076956745072,5.21695532975653,0.7573600988582883,4.746035079889715
2.236,4.386099416841817,15.066130447506046,8.397816645477844,6.418358167383579,13.334488880724855,4.700291864238951,3.301728143849578,7.911570694472092
2.24,3.286420475875074,13.604572380837995,6.503193986180212,5.114568786349729,11.97229307272783,3.775890378328127,3.9633366918569903,10.859336480346018
2.244,1.9239652065217052,10.997444594046602,3.4916287866809674,3.4421919988084406,9.911150054325951,2.597169390169962,3.0507029562194568,13.09161745023594
2.248,0.7264827061179945,8.161072370186721,0.36307099487657335,1.8112704244000877,7.895254193226533,1.4729316496379528,1.4193725416554468,14.37550672118336
2.2520000000000002,-0.11140475461801394,5.986738308428941,-2.0192870304589747,0.5107753044284216,6.506095942535696,0.7516547880586946,-0.0213065476757901,14.807862989831477
2.2560000000000002,-0.6179867979905618,4.96252076812547,-3.313289776753542,-0.3644348532358235,5.934224792554083,0.6734888301942002,-0.7573644041254899,14.744162928294731
2.2600000000000002,-0.9016497637376631,5.046638054878331,-3.7682055682251576,-0.8754546575887632,5.969081490270906,1.2632814748948178,-0.8275118578043148,14.630865977343973
2.2640000000000002,-1.0029042836676787,5.820703244616206,-3.9560855217274975,-1.1439086367990055,6.191872324220581,2.307788971198531,-0.6350884373063141,14.81226082186975
2.2680000000000002,-0.8553746564846003,6.781327342362685,-4.3465569281431335,-1.2712687392180457,6.234308491774885,3.4323281381097317,-0.5730794171541629,15.401176884315781
2.2720000000000002,-0.37011449195843893,7.5770752728822375,-4.9923776043957835,-1.3210023819905845,5.944373359324597,4.251027691074907,-0.7167887342385701,16.25158458549851
2.2760000000000002,0.42673489163937584,8.080375099945803,-5.524627877097206,-1.3655608544797575,5.380577954960671,4.521906632680689,-0.7856430537694603,17.013186191736985
2.2800000000000002,1.2976177919147824,8.285499022854005,-5.451438738692396,-1.543192818421434,4.669857140917843,4.238570827131181,-0.3946703064314119,17.249677655725193
2.2840000000000003,1.8322486866675423,8.170433032189925,-4.546407824665302,-2.053880437989223,3.8582041776128317,3.625606848276099,0.5945018063223078,16.577119165086522
2.2880000000000003,1.6285062163984194,7.6598957149305456,-3.0498067112650085,-3.064313438561295,2.8844509860768843,3.0471128760213038,1.889174969169485,14.807906330528722
2.2920000000000003,0.5165528386345688,6.719969032730839,-1.5329676167679667,-4.570408632143061,1.7003382946027013,2.875642975203046,2.9144020252009026,12.077656501245068
2.2960000000000003,-1.299057524815141,5.519030449918476,-0.5022925376614289,-6.312215857164141,0.45178277333451833,3.3655292717153538,3.216115514864004,8.897848438867653
2.3000000000000003,-3.281149713577909,4.496963573199583,-0.015235821884470369,-7.821409431761998,-0.4435339495527648,4.568683896863147,2.844040813548668,6.0728326851342
2.3040000000000003,-4.791878666294692,4.225470841432705,0.3943706141695582,-8.623512756968609,-0.4370789156251176,6.2984110233920765,2.408802935087733,4.44300173867853
2.308,-5.427334862578741,5.071990422042692,1.3645062600409503,-8.52751482123157,0.8039311733649271,8.130004951302846,2.6814861069953473,4.497156326804839
2.312,-5.2918751672377695,6.837304178984321,3.1083423974009103,-7.85180081316619,3.0272971799541173,9.440963791372006,3.9236571949546915,5.99552825045803
2.316,-5.051743088680813,8.612368581386786,4.963522230294112,-7.427730021970258,5.263662224971293,9.51068226154209,5.376559981211633,7.826188155705591
2.32,-5.693199098526357,9.008728875877486,5.459402154060735,-8.304713522028397,6.087466960920148,7.706892256699746,5.325822183403336,8.276004653215617
2.324,-8.045989972121685,6.743354612810759,2.987069098296841,-11.244262996915332,4.232928027472546,3.7382173995299866,1.8557197097627558,5.694226229775033
2.328,-12.289309155640057,1.3215034238053178,-3.232213991442226,-16.229903342967802,-0.7140685244410854,-2.1067020165157935,-6.0111510451134045,-0.6861226502903435
2.332,-17.68543082070623,-6.533556670955361,-12.416173367524129,-22.25566658525415,-7.92035516806259,-8.862420291538132,-17.397327083687003,-10.160117367057724
2.336,-22.701682926845123,-14.953054782733277,-22.20946020287715,-27.547709333495938,-15.458255677614911,-15.033402537113345,-29.458076820718993,-20.541886625028628
2.34,-25.534977076541626,-21.542658420712982,-29.512611551095514,-30.187787699605934,-21.011254151037317,-18.99969942254033,-38.28975597128034,-28.841574026887308
2.344,-24.825114061947176,-24.293422037611734,-31.798782946616207,-28.879231880766888,-22.822312775146834,-19.562066363025963,-40.52479035864433,-32.388852445208684
2.348,-20.252808811195276,-22.38487056044807,-28.276611303373627,-23.51825717653383,-20.441288937157143,-16.40526943106637,-34.85428673000191,-29.91156949633538
2.352,-12.728114095735537,-16.504109932010675,-20.27974167759936,-15.284473193704383,-14.89800692535203,-10.249197980965556,-22.704089268077315,-22.049216322172672
2.356,-4.070506461257118,-8.543641677690427,-10.677933758171847,-6.204262559788159,-8.224643327205387,-2.603120325623873,-7.6957727004094885,-11.06143527777635
2.36,3.6653624766675508,-0.8431559515434772,-2.6036147617592516,1.6104960621280218,-2.574750092124167,4.783380795291497,5.873936338566887,0.12651163586748027
2.364,8.919280443512664,4.684609209885698,1.869958661703472,6.697719721376103,0.6338597758211817,10.532666313707228,14.791048964969079,9.07307384183196
2.368,11.096238110891763,7.1650872576885085,2.455941120071526,8.632712005097469,1.158686393468706,14.04026938029781,18.079337075167096,14.62272305375393
2.372,10.594028561106953,6.885259220200666,0.4896418012090584,7.9462407130278,-0.1965325714153554,15.50351226718018,17.043101672508946,17.031382338685702
2.376,8.426094903952293,4.956624824156225,-1.9496634467162557,5.67715361853969,-2.124220924987232,15.603358621470615,14.274021519124732,17.44911287030586
2.38,5.667430598280246,2.7227255850428187,-3.101519692291321,2.8362163462094623,-3.444105449716792,15.046245534593893,12.228536600084631,17.1248962302417
2.384,3.0239542371061203,1.2090850061560654,-2.220322313404437,0.061367502968241894,-3.501401125601821,14.22429292540897,12.132552244861133,16.787398979539187
2.388,0.6966212412116537,0.8191323363247991,0.35985884491833775,-2.4193174426854815,-2.213659600178621,13.154178622397797,13.70379016993901,16.48075990767574
2.392,-1.4574377527273505,1.3335616001805546,3.6914346324893783,-4.586665560105659,0.13866560446460507,11.678979822086898,15.703300526490771,15.840731738864234
2.396,-3.6084557713145773,2.1500457985608703,6.8440445448394875,-6.379218359660189,3.1741781077172844,9.765666929352339,16.87404318951745,14.549916553087243
2.4,-5.689463483859326,2.6122478789883514,9.319768921051697,-7.56955626337197,6.549578964779446,7.686700440205498,16.683066814580826,12.662054738964304
2.404,-7.324700536815096,2.2945075486529682,11.080247298819245,-7.835428198829423,9.946720915858744,5.956537723126996,15.476598841994306,10.603747465369493
2.408,-7.978611471758788,1.1537641756617143,12.291212042921549,-6.94602459619318,13.007564969960733,5.06737867904625,14.064109632970275,8.911216403273905
2.412,-7.218846510294254,-0.4795529994883374,13.032151864879884,-4.914095543473964,15.336727905723517,5.192959853941338,13.084946262617496,7.925711073767596
2.416,-4.942513182240754,-2.044713662099042,13.180221029174628,-2.0159163679164323,16.62105499660896,6.047975390426279,12.582934419838312,7.65251939080413
2.42,-1.469251081339412,-2.9832114657735174,12.521367213282748,1.323524254927154,16.789795696726063,7.01018912273276,12.044639972878809,7.861929847645488
2.424,2.5402502565866785,-2.9740682240357126,10.960499993059189,4.684404402468577,16.080959557430482,7.436881191472063,10.817489544735508,8.317539880701126
2.428,6.281895113751877,-2.089332507209842,8.643250815907631,7.7316745583825615,14.920083092944699,6.991979572203247,8.596082435448563,8.939745818127772
2.432,9.02460940041136,-0.800334087351354,5.899572473305217,10.183490244909514,13.652768699737871,5.8021314174274865,5.646664130952194,9.783904613118377
2.436,10.281710297498883,0.20331623716993885,3.062914237797924,11.730782165309249,12.305216876781659,4.361916652690257,2.6441099122895397,10.863384805213311
2.44,9.900975250846844,0.3104693716690381,0.31637983497866284,12.015222837034104,10.541127864810807,3.255285085576376,0.25470079608546037,11.966561142683823
2.444,8.068186769559514,-0.722354062167224,-2.306384917934129,10.73708477098463,7.886440407062718,2.8541485394416264,-1.2485031962667301,12.631728157166041
2.448,5.234157632430589,-2.6347501358478995,-4.766122366153651,7.861740569851973,4.11718796517987,3.166225115037191,-2.083568870271429,12.341770927024147
2.452,1.99452293140159,-4.75972368979159,-6.831999517809758,3.796918686231944,-0.42637050341666605,3.8977633130290164,-2.718738412820115,10.830793744073407
2.456,-1.0402309934377727,-6.300482822294594,-8.02492331613306,-0.5945114939199814,-4.797965391424895,4.671281869730068,-3.4660793406318264,8.314766071382603
2.46,-3.3644369069519473,-6.666733648962335,-7.77212063431792,-4.210367600780698,-7.750432332820077,5.258725331245878,-4.19100347366072,5.488628394043996
2.464,-4.666348425932165,-5.707870166137806,-5.708372953122199,-6.097369173973549,-8.259609928633061,5.679348105377721,-4.351906920108695,3.2476766176150322
2.468,-4.863175099041063,-3.7360010690569974,-1.9486328619246167,-5.83023494864494,-6.000957054889283,6.106578222190045,-3.349713800880732,2.2726461624803402
2.472,-4.087398500420193,-1.3524639759102017,2.844512717135738,-3.6913481019244836,-1.530807682840282,6.663538770975793,-0.9740133002973901,2.6980526480756923
2.476,-2.6463395345934373,0.8115230464751981,7.652542995686209,-0.5617683034494192,3.9223855261576817,7.244700236580572,2.328749487811556,4.035422200319131
2.48,-0.9671256277647036,2.295066360644075,11.465441872638756,2.4354384685921717,8.938349646338612,7.493211913245595,5.545267466860452,5.39138748062039
2.484,0.47203248204479387,2.8799173211605984,13.639093465829529,4.380528924049252,12.42809896151592,6.967734078135166,7.525083130524866,5.863571666566311
2.488,1.232257047860494,2.552256527909134,14.078211866098934,4.895995722355333,13.958516545467525,5.408535709698567,7.528087201140851,4.923453410784668
2.492,1.0162458244498263,1.422094502367746,13.169579171470193,4.234670608519321,13.743914382806194,2.944715585597624,5.580199656379824,2.608405637457836
2.496,-0.2286289232008598,-0.3066239716459911,11.534977287835158,3.1092956437915733,12.375279753248769,0.11763202695356034,2.4574323532286746,-0.5333972430923596
2.5,-2.2537902878309835,-2.3217434487830513,9.745557510443675,2.357871588939598,10.452405916001776,-2.3121051361218834,-0.6880952927819364,-3.6937815024666585
2.504,-4.549823889981533,-4.201759107955828,8.132331280809144,2.590548256905185,8.313569588082448,-3.689365296795812,-2.869732975918218,-6.128206290426057
2.508,-6.495841805065674,-5.488188989766148,6.752057960306486,3.9627043479136637,5.97794888597432,-3.754708209746463,-3.6892038967230776,-7.410195656208361
2.512,-7.573735549321441,-5.847168358572287,5.481986542471498,6.147531821059815,3.2847843372351786,-2.7472102905371383,-3.446397458475377,-7.537235715801432
2.516,-7.559142947997389,-5.236475786735644,4.165150144711844,8.491913530825428,0.12580565407605349,-1.272958152830683,-2.908192480176678,-6.8677003270738
2.52,-6.603669102392349,-3.9767228186495616,2.7220721725654506,10.275419566969344,-3.3827309480581396,-0.010713330601937132,-2.88011092726009,-5.935504047081793
2.524,-5.152372854086354,-2.6380427075615422,1.2012882373189635,10.970311609244526,-6.866537698423597,0.5904503388940134,-3.8048286187508586,-5.226976944091954
2.528,-3.7359445113873164,-1.7735574534974992,-0.22943304132280806,10.40828257627788,-9.798836722712075,0.46632150075894896,-5.578488865839709,-5.001659409593145
2.532,-2.750492406932464,-1.6540575194739073,-1.3311709682485695,8.794024851978142,-11.687889529480206,-0.12323486146783602,-7.653945908814025,-5.225067442770099
2.536,-2.3187478202072893,-2.1463514941036097,-1.8544745165979435,6.581609245544783,-12.240016472459466,-0.8185682733420255,-9.34770745947532,-5.636178233889857
2.54,-2.303397137708009,-2.834850135327998,-1.615955460269539,4.270462866223134,-11.443807297155857,-1.4134032246752828,-10.183544393458558,-5.921368737353103
2.544,-2.4437697208442444,-3.315872101393799,-0.5771252474908604,2.21089758239812,-9.547780326489605,-1.9886063534739438,-10.109983932150424,-5.924175467662547
2.548,-2.5272309163188993,-3.482471321657112,1.1013230272148282,0.5044746910980982,-6.965593299866367,-2.857737046481336,-9.499761184955695,-5.775906951255343
2.552,-2.489550255865135,-3.612992982993444,3.0725948113745494,-0.9549000509683192,-4.159830642098251,-4.363918019867363,-8.948370114546222,-5.865794101264228
2.556,-2.395743124437047,-4.18066898441786,4.893958295825083,-2.3335205665143053,-1.5438621114075817,-6.6459743408612315,-8.980460597613515,-6.647838993152334
2.56,-2.3382040234438266,-5.50244739459691,6.16951299599833,-3.685153675670301,0.5707293003931013,-9.502292681732303,-9.795301548655537,-8.363081579025536
2.564,-2.333647352509598,-7.442789273217216,6.6930353692272355,-4.852989578126591,1.9930933137743738,-12.432184228194481,-11.166390699933544,-10.838710958025338
2.568,-2.2914681279706,-9.372808199341494,6.514447502923124,-5.504047867957226,2.6529010695829993,-14.826640527948754,-12.53501066876663,-13.48601959985644
2.572,-2.079684952896026,-10.449932403315042,5.889399104500329,-5.28823005064388,2.591947272781021,-16.20623952025159,-13.246580155124889,-15.531552424501019
2.576,-1.6241416507285011,-10.05594432846307,5.1405532805624,-4.033438318894966,1.9595761156243583,-16.386799663526617,-12.834851303834025,-16.378241694134484
2.58,-0.9691984328731786,-8.159129577299899,4.489552674007525,-1.8733043834086907,0.9774571923333958,-15.503574311575859,-11.24590322724768,-15.9085875136567
2.584,-0.2593190364441256,-5.387964231429467,3.9466046689348486,0.7588396272870952,-0.12956106911793486,-13.902587645146344,-8.904105821686684,-14.552361887465592
2.588,0.3388732684764637,-2.7634332561886175,3.30774969826496,3.2699223906585497,-1.2264110247133821,-11.977581847959279,-6.589659937573078,-13.05604991449098
2.592,0.7179377714464197,-1.2392543351091945,2.255542710443219,5.117069411596258,-2.349461261065099,-10.032839166245335,-5.164753287954736,-12.063922540971621
2.596,0.8434946654072712,-1.2980718574159655,0.5008993149947267,5.977101571340498,-3.7222969439254157,-8.23833193111075,-5.257409480189141,-11.743970750834135
2.6,0.6734657171707275,-2.8302706118008354,-2.1130712315854243,5.80362929472577,-5.688548577811145,-6.679098006050538,-7.036661056854228,-11.675232277691384
2.604,0.06669693002642507,-5.308021020775586,-5.570460001470469,4.776361468443563,-8.548610808428865,-5.436301124129432,-10.161594895287513,-11.073031210921128
2.608,-1.2184471706337656,-8.10591683315559,-9.692830638403162,3.1990219825436803,-12.35486498681893,-4.630454799691433,-13.91675978237419,-9.243923721941425
2.612,-3.407404192083856,-10.77279100137423,-14.162823759273802,1.407455213696643,-16.76985829457152,-4.3900436790729245,-17.463247396080998,-6.021621363970242
2.616,-6.496717120139481,-13.086308246430773,-18.530595681124048,-0.27484728206157216,-21.054812154522708,-4.7657462950465925,-20.09459779352979,-1.9403952100293482
2.62,-10.090045481198665,-14.921424869936628,-22.21863371911175,-1.5487457847668706,-24.235938415725908,-5.650350638664885,-21.39713210447252,1.9580957211235357
2.624,-13.409495136851522,-16.06755521236054,-24.561683469893453,-2.154943521117809,-25.38937418004376,-6.760863319452326,-21.26748162968209,4.592737694184183
2.628,-15.530220785759148,-16.16745059308956,-24.931803036935342,-1.9246793357259238,-23.946924520840792,-7.714381205438824,-19.828489184758784,5.337693593774115
2.632,-15.76379565256415,-14.854001449145747,-22.930769723897903,-0.8486352826473436,-19.89472760209059,-8.172902549375076,-17.31905506308444,4.281866775484872
2.636,-13.994982271312503,-11.99334987188039,-18.57412326115999,0.8866995969306561,-13.773227336589306,-7.990421433134837,-14.02147801534348,2.1273084713595045
2.64,-10.78049737579773,-7.868453878413886,-12.367648811510623,2.9413024409469344,-6.4958133294686276,-7.277576778954781,-10.245267039250123,-0.19665703772450183
2.644,-7.128058329939553,-3.149257894110925,-5.2079484939403455,4.946493622736533,0.9378671428417427,-6.34623056904613,-6.339011782865946,-1.9766665917589763
2.648,-4.056807400171199,1.357575204781794,1.8761573672795064,6.6549241082493955,7.70711990529336,-5.554141331660011,-2.683502280972559,-2.9811842321273883
2.652,-2.1558505800388352,5.048217418651593,8.046594816123115,8.037993046444685,13.317792294700958,-5.122665944198168,0.37936600646337126,-3.422633810167378
2.656,-1.3720232185212518,7.748815241766245,12.879016531602971,9.261288996632413,17.595880784514137,-5.025494754682622,2.6447768780228698,-3.687850077323084
2.66,-1.151930565853046,9.67510122399278,16.373511262061612,10.53501648294215,20.555139109874982,-5.0093033380897785,4.101223240956545,-4.0295755571491085
2.664,-0.846524032556955,11.166542542489482,18.761161566859077,11.926148528460851,22.241359927392555,-4.74045593167262,4.900313156362017,-4.411169421342898
2.668,-0.15063237681403052,12.362734048522446,20.21742426672521,13.237766395686592,22.631144556796134,-4.001304414027805,5.2341903657724815,-4.589263570252713
2.672,0.6727272486500945,13.028433103465762,20.663160692959508,14.03893709638006,21.626726041164105,-2.8314914990305664,5.182747960779989,-4.353365754738565
2.676,0.9186569795364126,12.65812880834088,19.773648218337115,13.83925849816118,19.138918055926478,-1.5358448333493593,4.626034732519905,-3.743263691488056
2.68,-0.15736021657949362,10.789789501932805,17.190401540136477,12.317012430074733,15.186290875187613,-0.5479397656252409,3.289199281569235,-3.090490274291052
2.684,-2.873865513725617,7.344849515392807,12.816325101474726,9.487381757728146,9.963522327783474,-0.21928571044341272,0.9194276031988275,-2.841501044432621
2.688,-6.8593120511539425,2.781457932423693,7.012329860810614,5.727476388624891,3.845288625907633,-0.6461678366987318,-2.502341715498683,-3.270812813673949
2.692,-11.149931413128252,-2.046795160055159,0.567868438206887,1.649494945290591,-2.6739301192494014,-1.6321397791445182,-6.631400162288914,-4.266305948709215
2.696,-14.59861442234333,-6.240049673483838,-5.562793798326214,-2.109191463784463,-9.069324691423741,-2.811576726574798,-10.797376946334458,-5.342122664929154
2.7,-16.38402796845672,-9.220975964926179,-10.627999350105473,-5.079373921862001,-14.884364434460199,-3.8649490342288058,-14.216421144610397,-5.887996086525112
2.704,-16.356971151844697,-10.908308750501359,-14.34355815087822,-7.055380141935268,-19.788655104285837,-4.699608428771997,-16.270277504287588,-5.514208749010245
2.708,-15.056748113281072,-11.6157510298403,-16.91891835005631,-8.076586317423647,-23.580641956598598,-5.49479931747446,-16.725936431191958,-4.300445828835428
2.712,-13.400734854176603,-11.761353888875366,-18.825284455902715,-8.327794597354492,-26.144447599982584,-6.569969695984746,-15.791355590696533,-2.793647601280174
2.716,-12.213182831630395,-11.568015784563006,-20.4363940308425,-8.021698726653643,-27.375233522771712,-8.144976400066525,-13.981770191012968,-1.745322255132912
2.72,-11.842827008650827,-10.948137571790964,-21.745958716512696,-7.321331172932701,-27.129662258126295,-10.13092358459468,-11.864803427850578,-1.7407794327609365
2.724,-12.060471888649833,-9.633342664497668,-22.32318890488954,-6.325470657504909,-25.235456640478414,-12.087357430608396,-9.825002988814106,-2.915798812046744
2.728,-12.252774471510929,-7.442188758724882,-21.5315155091809,-5.095446216321352,-21.57416935066882,-13.387675170453923,-7.948954409871325,-4.912234161593676
2.732,-11.772240561927909,-4.501065426531772,-18.882599049086508,-3.685954218546471,-16.21774262628506,-13.520749841131776,-6.065786271468256,-7.086659335460379
2.736,-10.259808340471274,-1.2760351472167812,-14.350095474391173,-2.1778360910526593,-9.561142900887962,-12.379758992163461,-3.9175718161654567,-8.848051790723206
2.74,-7.788099680252953,1.6005281098863344,-8.484791610398227,-0.7052827910667387,-2.377186318272879,-10.377328175123571,-1.3639862180567581,-9.935029659891175
2.744,-4.766213775322183,3.62407937659931,-2.261964751668554,0.5440285902609867,4.295886946055591,-8.314281427493432,1.4886237809418041,-10.488957647012043
2.748,-1.7040567445156372,4.64725313974789,3.2466371646634107,1.3539941990947995,9.418580304546449,-7.046197971832328,4.2895675158584154,-10.91222542947108
2.7520000000000002,1.012630192639187,4.901852831644857,7.218351074713468,1.5329187712274592,12.26853247105648,-7.100286216563013,6.5735911565529515,-11.606226884294198
2.7560000000000002,3.2243607745322693,4.820255258812057,9.291964032773105,0.9933442273749966,12.685354208159461,-8.435610508468795,7.945137667838512,-12.746267996871946
2.7600000000000002,4.939866122622017,4.753756486792776,9.572186525559896,-0.17457373830489198,11.105291431831045,-10.462782809235492,8.225667164075555,-14.21273258359302
2.7640000000000002,6.196188826315957,4.767346913555606,8.475441923732953,-1.6772863087557903,8.36037642591426,-12.309316624281843,7.505844569606106,-15.687277932206706
2.7680000000000002,6.953551281583603,4.632823698584213,6.513176021945864,-3.0771833241483915,5.317200318261068,-13.206058510480748,6.080329347288669,-16.839125156682954
2.7720000000000002,7.0991185272248885,4.0107755663785305,4.121246757977264,-3.9392285729665124,2.523530778110043,-12.80760272152271,4.310525600308857,-17.48647932153689
2.7760000000000002,6.560281475623561,2.7161396717690733,1.5905842649897812,-4.009695031710181,0.03924390116630194,-11.301850003157071,2.486999212945467,-17.64936143002734
2.7800000000000002,5.4368313518433125,0.8944648124593257,-0.9143370460306826,-3.3381826533806254,-2.4799606308354387,-9.27096971846795,0.7555375257626498,-17.47632241445568
2.7840000000000003,4.044570964561871,-0.9946168638800577,-3.3063582722968987,-2.272392251134621,-5.495150965766598,-7.390580881984393,-0.8664118222504862,-17.110535528960483
2.7880000000000003,2.81105327572648,-2.3941055258055304,-5.551975836459306,-1.318449764283267,-9.26155653452994,-6.128186922917647,-2.4147977295321397,-16.59506226322778
2.7920000000000003,2.065050951637807,-2.9487146305287126,-7.676562450901536,-0.9204818520770748,-13.648528773263497,-5.583308293398645,-3.8931352602819147,-15.866953635890031
2.7960000000000003,1.8453147167194728,-2.6969053245933337,-9.758574917506664,-1.263261692128038,-18.172838643324592,-5.52889328657168,-5.228949310123211,-14.836332570173456
2.8000000000000003,1.8499858534410003,-2.055488697701763,-11.880398864077824,-2.191756445001068,-22.21519489221084,-5.609998924161788,-6.2883722416138585,-13.490742670244543
2.8040000000000003,1.587955377255232,-1.5899903108749922,-14.03342237944164,-3.2824432988111436,-25.273028368044322,-5.5728976451731,-6.924160282547527,-11.95022544963522
2.8080000000000003,0.6609836421312543,-1.6965757861795687,-16.027288104089518,-4.036277366844612,-27.104675807834113,-5.400664532588232,-7.031508011678116,-10.444017669667332
2.8120000000000003,-0.9642685931603603,-2.3727575834181613,-17.467754297738455,-4.0859028726157005,-27.706396766688634,-5.282787551058306,-6.568261348972832,-9.218551252664348
2.816,-2.8433081213297733,-3.197577605749753,-17.85340718424866,-3.3170545782450995,-27.164197981451398,-5.45364477509895,-5.546289352595065,-8.423162096581358
2.82,-4.200268204701711,-3.553557275009307,-16.784119651038985,-1.8648007990240683,-25.52135454447554,-6.009636427673919,-4.028943655706834,-8.035411849884762
2.824,-4.2735710812290755,-2.9693604928962425,-14.186531737311768,-0.006745851533217273,-22.763600414673736,-6.809424793096106,-2.1467083596040224,-7.858475067305486
2.828,-2.691850927544632,-1.403143309232386,-10.438971533993538,1.9631564342863514,-18.93429475986519,-7.517185970258611,-0.1410909015632673,-7.594881371907565
2.832,0.31007890592581244,0.6883496889118732,-6.303233750919704,3.811394848252122,-14.2895792587034,-7.764539095516456,1.6203236198177393,-6.9640719056523235
2.836,3.9479449151142183,2.5477328634130445,-2.669106300989611,5.363675584479097,-9.354252409343593,-7.3349598375226925,2.701035245454989,-5.8141604736205785
2.84,7.19348176548344,3.4779479852057733,-0.20996721667241425,6.456170429693025,-4.8102413731765425,-6.260296262710985,2.743225950223227,-4.187978377365441
2.844,9.176555731782567,3.1849392733588333,0.8861506582354064,6.895339031903083,-1.2517884036917146,-4.782806055607136,1.653925336574769,-2.319158772526264
2.848,9.491740040984453,1.927282994889055,0.9627630615355993,6.474614245178175,1.050896732360712,-3.2108889001464687,-0.2774567123749627,-0.5622288084735456
2.852,8.274171188584575,0.38439575746488686,0.6966138538923028,5.056027643977916,2.231341461673863,-1.7586031376414846,-2.421457672709702,0.7195284911942177
2.856,6.0388264281270505,-0.6826807859604029,0.7447265142746682,2.6677399602783676,2.6932685527451867,-0.46646197348779217,-4.0333020336609895,1.274915878739206
2.86,3.3859782601716955,-0.8217511080080859,1.3986789851790458,-0.44931060288791913,2.8214631569846658,0.7508651378887523,-4.567592671704954,1.0502769031509684
2.864,0.7519717584637826,-0.11985382083833995,2.4341430101548607,-3.872688234446531,2.7294286414591236,1.9761469731381198,-3.9255363533929724,0.21692190484406648
2.868,-1.6702851791047015,0.8453364301567222,3.2329109066517074,-7.103224210609637,2.209306658653583,3.175262980091648,-2.50011474237972,-0.867744282148541
2.872,-3.838543241773423,1.2995920623553765,3.116098337024562,-9.69289763603086,0.9167571269894332,4.171375943805902,-0.9752885467531358,-1.7623725689672605
2.876,-5.694309137004611,0.668772195118681,1.7101813678147435,-11.346628440919416,-1.3220307786672487,4.729891660888143,0.014294152089787321,-2.0879141036063285
2.88,-7.0539288867338845,-1.123567908852277,-0.8381220007139145,-11.95675768372365,-4.280620652381983,4.708739687352878,0.19521476729181836,-1.6507952512911088
2.884,-7.636418026598822,-3.5986502058506487,-3.9083175688760665,-11.57775121232412,-7.338556494102011,4.169093200318617,-0.23695528735509752,-0.5062573223711779
2.888,-7.218650808103391,-5.931663860831793,-6.6944597982185785,-10.382369009463549,-9.755327087904247,3.364302243791469,-0.7820674500671111,1.0565984412469254
2.892,-5.819939991648379,-7.327500267024425,-8.578079192787175,-8.6252452391406,-11.061593664864251,2.604060396210202,-0.9636272027635628,2.6115548295696493
2.896,-3.7787520901520235,-7.368408393444994,-9.384679328789666,-6.621053657615608,-11.322583035895562,2.076060140904848,-0.6271595434703436,3.735785114305142
2.9,-1.6617754794703428,-6.177919423911391,-9.397339900971138,-4.723766419500394,-11.108734794836638,1.73540420832268,-0.02987633917785182,4.154337249660021
2.904,-0.021779519236684752,-4.319277871377309,-9.123762627623353,-3.2744740428956014,-11.156639342630296,1.3463336493453113,0.33146138166654737,3.835682690606576
2.908,0.8569812316985121,-2.500636575227516,-8.959751373465865,-2.5229962417269785,-11.90829237508288,0.6613815713722428,0.05029592759483503,3.0026489780803947
2.912,1.0710996638266819,-1.2553371762484562,-8.943609622520952,-2.5530594580879162,-13.205062583373437,-0.3780543116994943,-0.9030289767901083,2.0541828157097517
2.916,1.0101079277363372,-0.7402896371384342,-8.738872868652464,-3.2526996452248937,-14.319742340412345,-1.5511819922531722,-2.120782856635646,1.4161969801328471
2.92,1.0972402283971934,-0.7563184937621097,-7.85547602995414,-4.362869979180102,-14.338871151471025,-2.441246824278087,-2.9619873937896215,1.385785415987733
2.924,1.5162975716918208,-0.9481490938758195,-5.982501665608953,-5.594144970863454,-12.686550330933532,-2.656434366850987,-2.9011321596778927,2.021733543116393
2.928,2.0835634310024,-1.051098147181752,-3.231633218717853,-6.750555791077556,-9.48970837935739,-2.0576603942586384,-1.8128292120318483,3.121791753162226
2.932,2.3379906460769924,-1.0503642141215224,-0.13749894638596372,-7.7941568903754375,-5.576639970834976,-0.8522917587914747,-0.021509987477360104,4.311775035992875
2.936,1.8181516255964687,-1.152682100382461,2.5936551930067098,-8.813312950794941,-2.0936149849430468,0.5163772787173774,1.8977068878021277,5.205004879010794
2.94,0.37326318249542156,-1.6062141633561322,4.444586165362738,-9.905880340613107,0.047086534492271515,1.6255522068258148,3.4506993543193776,5.571066941958353
2.944,-1.6676356098066107,-2.482170955521492,5.354204500803543,-11.054782854054956,0.5921947602996602,2.319539291116672,4.489053104252714,5.428454172405722
2.948,-3.585271029437526,-3.566795237857902,5.721481942642157,-12.085939764711734,0.008364537050021603,2.787167158159874,5.240110964118413,5.013258678055337
2.952,-4.579732781824378,-4.439797630347848,6.142628175380221,-12.73633163262037,-0.8411944267006448,3.412635775812071,6.101461486995408,4.6394731017528406
2.956,-4.147306097194091,-4.697158354145801,7.026458823609337,-12.805484953795947,-1.2038555459785951,4.47853419715017,7.322346359509967,4.501688392059358
2.96,-2.3262713749399517,-4.1922782131041885,8.320262204153618,-12.297662396176438,-0.8447829613384763,5.904571349922947,8.780713996472796,4.530280054405012
2.964,0.3250721472008542,-3.1395921525728268,9.51883155546493,-11.453477429024005,-0.12480363379693715,7.193071533664744,9.994837424609063,4.373901093446442
2.968,3.0080240298351644,-2.0052654191069594,9.969092693669996,-10.637552072760997,0.2764233036868107,7.642625472988996,10.378393094428946,3.5378616698804213
2.972,5.077104581986267,-1.237394627523185,9.31296527953396,-10.129545431446786,-0.17845487909173974,6.7339835928794916,9.598871103473797,1.637856537983465
2.976,6.3473995390186015,-0.9824242525497544,7.800291268465346,-9.93823777958275,-1.5113645715196649,4.476914782081411,7.8249567651599445,-1.3571409081555048
2.98,7.140176039474626,-0.9759800032725501,6.261380742210513,-9.767354970833274,-3.1741002237380362,1.508613860109754,5.713504724894348,-5.015681134383872
2.984,8.055738424023932,-0.6816209596589422,5.7179078510649495,-9.171612389918259,-4.330522668406401,-1.1347392159063823,4.129659761826412,-8.538985929900802
2.988,9.592380791738538,0.38545142295032697,6.818121702263759,-7.838557533723094,-4.3143216527873545,-2.4697721553001037,3.7472012389171914,-11.036184062010435
2.992,11.810560107247973,2.3164566063019674,9.405613741171734,-5.846452041039625,-3.0077912094037433,-2.013888278114605,4.731496730647029,-11.871073451100568
2.996,14.231618576275778,4.661133876170838,12.479445855934157,-3.7384602692331055,-0.9186450666345087,0.0022786557496972115,6.667766232765758,-10.923872318146602
3.0,16.015332786127566,6.561359853967712,14.592869147971777,-2.350583063133048,1.0689901167842453,2.7721306036999898,8.758303235550148,-8.648702646906976
3.004,16.337917825183006,7.124534594034066,14.517894107448665,-2.456028176235211,2.1375710480202543,5.327410906921443,10.179701741027529,-5.895143082285209
