Timestamp,O1,Oz,O2,PO3,PO4,TP7,TP8,Fz
0.0,-1.0231815394945443e-12,8.526512829121202e-14,2.3874235921539366e-12,-6.821210263296962e-13,-1.5347723092418164e-12,-2.1600499167107046e-12,-1.4779288903810084e-12,-5.115907697472721e-13
0.004,29.217677927444498,20.166104366472325,22.58130030614666,6.096975486909855,-13.20139487162163,2.9286697260762367,18.819137155547594,-11.037731841515495
0.008,50.669687388273815,35.937527712468466,40.18096303464557,10.672759308958746,-21.36551255677813,4.6301045294130745,33.361499220160795,-19.242017926077523
0.012,60.047461609270556,44.82186666631651,50.04281346550539,12.979900255551797,-21.75787740078522,4.467866653376404,41.06674452959163,-23.087491133266184
0.016,58.183062491193624,47.1391605111491,52.6625500848412,13.368249092762937,-15.088391213333239,2.673383224903091,41.95369656674046,-22.98912299324263
0.02,50.18130726890723,45.51910940425154,51.13134291991372,13.00798860266758,-4.926653233672198,0.21102395884497582,38.25464145420818,-20.93990528455589
0.024,42.54600069481512,43.31279473025023,49.19598744561324,13.161880454257187,4.209199037671965,-1.7229846927609742,33.066555225263414,-19.381186294282514
0.028,39.925401078076305,42.85364173818826,49.2133692285401,14.461488382111042,9.031566672165752,-2.2637130431660353,28.825165882037993,-19.929930202697705
0.032,43.21857078018573,44.52044843947962,51.154090400089785,16.608842104850908,8.780598271838016,-1.221754267766073,26.41143216081008,-22.651409213252975
0.036000000000000004,49.86974310653662,47.0168016036705,53.10625876078683,18.64058366796803,5.060153125489649,0.9186644449214327,25.24760168773247,-26.224753436679634
0.04,55.89737891044953,48.54939919155149,52.84521848481819,19.575107879813004,0.5229492610455395,3.3261318178086867,24.15583672223164,-28.818658233265438
0.044,58.280381333720555,48.058803625437406,49.36974942464633,19.005688513831387,-2.71918560726607,5.21451818480125,22.309010546652075,-29.137883460439724
0.048,56.366957497476164,45.77945383141841,43.50294123690912,17.31298175547363,-4.0405859203684145,6.132139890182316,19.71268342558261,-27.04734598750653
0.052000000000000005,51.72145487177595,42.893932467868865,37.29134462180349,15.397933481179052,-4.221335141293537,6.03609965848284,17.0419290635852,-23.48730601300329
0.056,46.81774677559474,40.634898357867286,32.690708493935915,14.134097590416218,-4.607315681488899,5.176519343168252,15.078009381853576,-19.823615863096194
0.06,43.55189193357481,39.4867005538012,30.44007061343484,13.902573428890975,-6.136434930533767,3.948362918922612,14.200977207373342,-17.068048859659967
0.064,42.41282557178354,38.96234102709846,29.75444846836359,14.442275014588859,-8.84538783429241,2.7600162022575887,14.225761674513308,-15.431731512958493
0.068,42.64374018136773,38.057120316390524,28.98577690255837,15.08134130403144,-12.035183266975253,1.9804500184934,14.63618374466688,-14.414230416488493
0.07200000000000001,43.07542019529153,36.02464795428213,26.77826555847429,15.166475782692913,-14.855683814050963,1.9119899363445256,14.986140151906511,-13.317650142531903
0.076,42.98687957924169,32.94947326402004,22.988639594381652,14.416554292561187,-16.847230634994702,2.7230313156686066,15.173615804692076,-11.825342553577372
0.08,42.434877646597855,29.75414495041187,18.8424010834446,13.01359457253102,-18.06262739793442,4.359824874491665,15.428719782451935,-10.272187832033609
0.084,41.936672981388625,27.638743466898603,16.232501566855376,11.39654230288113,-18.755409514503555,6.451264229602543,16.035371314405438,-9.458294467048887
0.088,41.88860789319385,27.357491660465058,16.660183570460276,9.953991999160792,-18.925870683293766,8.35123449172363,17.05415330842044,-10.141288707603934
0.092,42.23610622535206,28.815628857190404,20.46204753001922,8.828336058344462,-18.138278205566024,9.356200400616217,18.257651629317024,-12.550935408057597
0.096,42.6098078604866,31.21409564688406,26.721175053413674,7.923128995302733,-15.800735023403234,9.003500532441763,19.295359603764155,-16.23653829536468
0.1,42.752861407889355,33.61251272794473,33.845370211891606,7.090620407179102,-11.685068335073794,7.335254391922888,19.957457168522865,-20.299249108675724
0.10400000000000001,42.7973948799651,35.47912191972361,40.34039857895547,6.308800398289463,-6.3132496103145,4.9173071450619545,20.29288497031999,-23.848587141975855
0.108,43.14759172016386,36.887062896983025,45.34640544352911,5.732679780850134,-0.8878653488275745,2.604639099327983,20.517490266972885,-26.383607747363328
0.112,44.073489427601075,38.27501035390071,48.71153312218408,5.582705775665659,3.2162389218080705,1.1482803544298577,20.81052238783488,-27.899668719750608
0.116,45.359931523024954,39.98240164422583,50.68422156747445,5.952621556529294,5.083660516156897,0.8383113859714513,21.17342998477676,-28.703085668764345
0.12,46.32214909049395,41.90272014418426,51.528290161840744,6.698229201542034,4.650247001732424,1.4141122743872074,21.474733766467182,-29.070089715365157
0.124,46.18575024752701,43.45378540550141,51.26970862564488,7.461663577068492,2.6157514016761922,2.2351721296311666,21.586002770427484,-28.987180342724628
0.128,44.5996739276317,43.8893724360602,49.72349119437098,7.848136831369857,-0.03771388027692524,2.6543499595262006,21.498440217225152,-28.121613184162385
0.132,41.933575293648104,42.75536737859352,46.729211882429524,7.651140727725732,-2.6277024657658785,2.374935433514679,21.32127725880855,-26.04026857442095
0.136,39.140972494628286,40.20940899115277,42.41342760082921,6.997478973547601,-5.09261226442888,1.5864180199048405,21.17402588472754,-22.53261364362335
0.14,37.26224498472007,37.01966083848947,37.31821457421387,6.357275065755772,-7.839216894212257,0.8504599683976721,21.08484424499221,-17.81641555859116
0.14400000000000002,36.840290182253725,34.22076822593061,32.26759330696109,6.374189204101128,-11.250700935975146,0.7629866682519832,20.96477797669104,-12.502477313214513
0.148,37.650338232653326,32.64914820191103,28.08876367557474,7.612709541203827,-15.183199631338084,1.6272908857609423,20.726210796459384,-7.3397045603595075
0.152,38.94034559499595,32.621033461963975,25.340647568214308,10.330860123410446,-18.825756466837532,3.307021228547569,20.466063783767083,-2.9144095198655577
0.156,40.013253294967654,33.90296810755211,24.167598040485643,14.348719066827982,-21.060114698195378,5.304134676838089,20.540318688889727,0.5135779435494499
0.16,40.72893332954652,35.93229386447953,24.328600214379264,19.062938794727813,-21.0913907524656,7.021788840177351,21.429366865985685,2.973503431285451
0.164,41.534553385822534,38.09099440688493,25.301421840140847,23.566327667105156,-18.959541780945074,8.000875497810284,23.398001752951984,4.597853581836517
0.168,43.003256443025606,39.88521812288127,26.445327498082236,26.867364092790922,-15.586799908360831,8.041059595682555,26.181732445482567,5.436320319109029
0.17200000000000001,45.23692839622311,40.995922904574,27.209873721165025,28.171249879791446,-12.322536965651182,7.179163721441796,28.958818086150643,5.3915768621792495
0.176,47.579681306118374,41.255008249263824,27.336674413870355,27.137141299120685,-10.247446608697032,5.574429412526229,30.691038029130596,4.309777952383627
0.18,48.884918785859725,40.63291769027302,27.001534775226503,24.043162272158725,-9.604938909838268,3.4380830625016188,30.679121059900183,2.1716721550323257
0.184,48.16737388519516,39.247653408138376,26.760176218144636,19.742693008031495,-9.69232581194467,0.9990469846457017,28.959108831329388,-0.7583562149958141
0.188,45.24735207430328,37.38824885144669,27.312748064204357,15.408590233255609,-9.271063468372631,-1.4756919034335851,26.297924310317967,-3.940739360652316
0.192,41.00132299856213,35.507417985823,29.175939025579282,12.132850924117804,-7.296463727091691,-3.674450785414024,23.77444021140485,-6.758164870690564
0.196,37.043222222971025,34.134527380948725,32.401414475764625,10.536367292233933,-3.5739562037090877,-5.3057340265065704,22.185363293034925,-8.805640932237111
0.2,34.98325682176133,33.71837990482055,36.498333531939295,10.575762583644973,1.0571636917088654,-6.181962341439203,21.640707898468122,-10.080631051596015
0.20400000000000001,35.60793390459298,34.414191285116885,40.538976006878784,11.592009149850753,5.100779829501448,-6.3195045402072765,21.542178783895565,-10.950490168676424
0.20800000000000002,38.452652974718205,35.95338143634018,43.458904849327496,12.617566169034944,7.148479135269838,-5.935555328914461,20.983684970654508,-11.883543991086071
0.212,42.02737232903786,37.70142496795728,44.44459732188511,12.808400827034177,6.558258934783453,-5.323203253953011,19.335605130323984,-13.108329292644953
0.216,44.56491129257341,38.90428277827215,43.23477161530934,11.791436796205744,3.682474193188341,-4.686180557239368,16.644459637562704,-14.422914752232202
0.22,44.87123058227567,39.01325908761493,40.22324749926781,9.791815017066313,-0.42438394016784287,-4.017157172582188,13.623392411273812,-15.271463691108579
0.224,42.79971714662622,37.89802014703929,36.26139309226801,7.473923750626682,-4.625212657842212,-3.161012267926253,11.214520610988188,-15.06730739356908
0.228,39.1858195869909,35.868756767434036,32.30262403386075,5.623677977589125,-8.264580765482378,-1.9977322816289416,10.032241582458596,-13.574502169722678
0.232,35.35485291895108,33.513476077924565,29.07435075989156,4.836088214678114,-11.365077343320195,-0.6229163529751531,10.055646649225082,-11.120719464612023
0.23600000000000002,32.46350529050349,31.401382749173365,26.85616484353136,5.3213027894956895,-14.37057115496998,0.5752714294737871,10.715222247497081,-8.486967585127275
0.24,31.027669666395866,29.81764924703316,25.4688541389869,6.89734561599397,-17.62608730595366,1.056245230345894,11.314575744999502,-6.514025505095674
0.244,30.841686135730185,28.664226014477435,24.45514518216089,9.111019128343628,-20.969503689125986,0.4180520535815049,11.497078448070738,-5.6618262391409075
0.248,31.21839377622615,27.540091822970908,23.321962489187626,11.386446208639882,-23.698566390976453,-1.3349508295889336,11.424859017129734,-5.781523267437763
0.252,31.343690728141382,25.939691704056713,21.722693092783516,13.14298272459655,-24.926234378686786,-3.7249414457589864,11.55397677449821,-6.245825030749188
0.256,30.58109209976942,23.49494727605503,19.5432785675182,13.88304978458848,-24.107258274107153,-6.004916658492675,12.192265583774883,-6.370446875536061
0.26,28.686345663556835,20.2006215434954,16.94746877310513,13.31710003079354,-21.392691891713753,-7.499185651834978,13.190605247769781,-5.873633737814828
0.264,25.92168326047414,16.54836715063294,14.401586394550918,11.533211726497484,-17.57682452711731,-7.893432918338931,14.031531214018173,-5.076552231101289
0.268,23.0203451505177,13.483228248763226,12.63626486454666,9.126300851485666,-13.63534039791,-7.303848962678558,14.263227367589138,-4.686712497081089
0.272,20.963310787391606,12.15224963256037,12.489885229045626,7.147647187560665,-10.12645348205126,-6.101078784645097,13.959495303192284,-5.281264388191005
0.276,20.600257761699027,13.496405313951982,14.629822103647257,6.778756554243046,-6.862917298665593,-4.640732402073581,13.845995625068099,-6.836585012152568
0.28,22.249472756246917,17.82625093974002,19.236126997487077,8.7996972141774,-3.113115409725083,-3.079891893304648,14.932569078757297,-8.65436792584535
0.28400000000000003,25.426724770222904,24.534610892527212,25.757561785772282,13.057200782426662,1.7372903952408478,-1.433376033376362,17.7937665323077,-9.805548057314184
0.28800000000000003,28.840352039156755,32.07524948112973,32.85673483971982,18.236949442309424,7.475496473034013,0.16088466046835492,21.89801317044953,-9.847298211568216
0.292,30.731865038612625,38.281677961858804,38.63343912950165,22.16624182664873,12.789904856778776,1.176417494451016,25.44344666213692,-9.354177464442387
0.296,29.532949000575343,41.00592595365504,41.13866028577763,22.629749309015324,15.677850033723757,0.6850742679544055,25.949417487383926,-9.861672474429497
0.3,24.629400072421333,38.91345331545085,39.07515120082701,18.400270379973108,14.382957475043554,-2.2710853150638286,21.433208818808566,-13.131010550773567
0.304,16.868272099801686,32.12892548072716,32.42192641916449,9.99421809050682,8.392464134228703,-8.066176049326714,11.599922530638764,-20.06560168791816
0.308,8.475635567916754,22.403013855682957,22.66408791140873,-0.2691388255534548,-1.0297323893926205,-15.970708463704568,-1.623485988530092,-29.859076170583194
0.312,2.295011118329967,12.633268846746546,12.437204553335278,-9.036186365898175,-11.102311404402599,-24.09073362871368,-14.593196726283963,-39.91319166488461
0.316,0.6483703949962205,5.884061760503528,4.673421972274355,-13.216839898966668,-18.516895549636047,-29.914752766236234,-23.323747579863266,-46.69195809025382
0.32,4.369113623689259,4.296583636151581,1.591845701004786,-11.21268732583269,-20.72900947741641,-31.266030007975814,-25.08738676912833,-47.17724713739733
0.324,12.468060280228485,8.325401146461331,3.9261576702256207,-3.519835622772689,-16.97368274714279,-27.24924611389997,-19.479929656054765,-40.24853390952546
0.328,22.560979170936264,16.610063623831138,10.69904803666418,7.556442040535671,-8.524025777263205,-18.71528047998595,-8.472341697033471,-27.262072359430704
0.332,31.83250837297527,26.518519521206713,19.616366173875804,18.910232720123304,1.9098521400042046,-7.984948445461669,4.518478081784906,-11.511528086019666
0.336,38.080129836293,35.12108260300943,27.909644824705765,27.851285127242818,11.308343556672185,2.043135393844068,16.05986263927116,3.1555699621738995
0.34,40.39566799562664,40.209877745290555,33.317065908874156,32.97811127850878,17.460569122664538,9.00895201288131,23.969405372135952,13.877719877546156
0.34400000000000003,39.240928358944416,40.96549010741069,34.81139802062262,34.36023152183361,19.597622833208106,11.913934847742667,27.869587918841262,19.730939343912837
0.34800000000000003,35.95170459103963,38.04097443906085,32.80181578270424,33.06969296792715,18.368832180212166,11.29341195541565,28.87597609563454,21.693742722368597
0.352,31.976677640205537,33.091864935637375,28.771623146359502,30.41512630473892,15.3118024165816,8.715854035309121,28.70227640697965,21.757803777670745
0.356,28.268086501073185,28.02818905518484,24.565198955246842,27.32579780974868,12.126706714918214,5.911394675137899,28.708552012514474,21.733891629639743
0.36,25.12180089358327,24.345764755916775,21.687640454138773,24.174467839023464,10.07953429687916,3.999682448354406,29.380718704851915,22.395764581312733
0.364,22.449237292844202,22.775024111123685,20.887007749263148,21.003375576751864,9.708152495392142,3.155408532624506,30.407194389918686,23.35010468816199
0.368,20.19667845366388,23.28195548701558,22.096118484977524,17.88913128009301,10.85327110400408,2.805625784748372,31.153201656761212,23.59633112430322
0.372,18.581093567991786,25.292039452814038,24.649226645164617,15.139381289984954,12.909073874095611,2.1701032279429455,31.167357257673302,22.36176775961701
0.376,17.991213463622728,27.972286854094136,27.607321851838606,13.175951218157365,15.112693309793713,0.7896374900174123,30.418709656925557,19.680102956055634
0.38,18.67316648541555,30.479701071750014,30.079279241962013,12.236883150760491,16.76411458725852,-1.2146369507231611,29.219465108780014,16.393381253127927
0.384,20.438308529528456,32.12827603679102,31.441421061986603,12.14111434304209,17.34142668371385,-3.252650667400303,27.96914727463036,13.627413073631146
0.388,22.582516929276608,32.47050757715897,31.4202181921562,12.315897078772991,16.568206844032602,-4.631997319230777,26.91214572447916,12.113415372925488
0.392,24.087023547128865,31.32883362388725,30.06339563618849,12.099091144215777,14.47130605006737,-4.944878810719274,26.050171528117517,11.78455955742811
0.396,24.025745192076272,28.803048105432367,27.65341543469026,11.123586293943163,11.392731313930426,-4.273394704023758,25.226602852651922,11.866835453333579
0.4,22.004723717622767,25.273694304439914,24.62723261699398,9.553202902275643,7.9150917418112385,-3.1052591300474433,24.300170505986443,11.379065745257776
0.404,18.413425857263576,21.3771775373948,21.500124045172925,8.000682245653934,4.678272562274287,-2.0504966781613803,23.27110970374133,9.716401271023415
0.40800000000000003,14.33035827152787,17.902506262947668,18.767737533865557,7.169301277664317,2.168091370681168,-1.5312265232146274,22.274289998717677,6.985438225223902
0.41200000000000003,11.083776174078935,15.589946135122318,16.774795512094897,7.426277208699048,0.5763843847973931,-1.608541676529967,21.458758236152107,3.9213516839957947
0.41600000000000004,9.665711209139431,14.885222774176555,15.59013557429489,8.550959908305003,-0.21529258458576805,-2.038926591764266,20.853246356387217,1.4555688062770287
0.42,10.298388226855707,15.763724174612435,14.98435323118224,9.821874157204547,-0.5276178780445662,-2.482037366991335,20.347579887142956,0.20922803252790345
0.424,12.355740276253641,17.709936644548975,14.542309969853704,10.376553263896312,-0.7287102592315478,-2.732380912778808,19.800061883244098,0.19030794810350926
0.428,14.65306648755984,19.861119369596736,13.855301028631857,9.626750423679482,-1.097740434006937,-2.8504230440635183,19.172102524588354,0.8424540650784138
0.432,15.949444131876476,21.27453202937056,12.699332048948918,7.505187684469547,-1.7516433260086615,-3.126487516092766,18.571900668436456,1.3942154782936313
0.436,15.44145732328434,21.24171396740394,11.12391510866155,4.421527482369356,-2.6557619101529326,-3.915767554753529,18.165186082881974,1.2842873229637917
0.44,13.085649945247951,19.56821964785331,9.442026672491238,1.0139275449037086,-3.6848823911268482,-5.423669591290036,18.034797609621364,0.41803367412649095
0.444,9.62116169889282,16.70351781558361,8.126844414536663,-2.133478695669055,-4.6833520595755544,-7.560081111374075,18.09810306505983,-0.8670918267980596
0.448,6.253424591248404,13.628282812484258,7.645306769514946,-4.660743850828567,-5.4853981687431315,-9.936008489497908,18.131858540924213,-2.065338057651161
0.452,4.131058547967427,11.502646947421567,8.275175030871878,-6.4391696056891305,-5.905785236530392,-12.008849103853208,17.8881030110565,-2.817892439289949
0.456,3.8585995196216345,11.206169566688345,9.973335011200334,-7.478815299523603,-5.752897848099337,-13.310187170884547,17.234427471957588,-3.0964978788708777
0.46,5.269364968958598,12.96530114457994,12.364406771690483,-7.839646436773364,-4.917844376992207,-13.639274464198934,16.237640275043077,-3.1800550257087252
0.464,7.573913574577432,16.244997462013544,14.856672859593118,-7.613083421256306,-3.5193734204635803,-13.138342156664748,15.135623751684989,-3.4660991433142954
0.468,9.784182330713065,19.958911015153944,16.83241661002785,-6.956649032603309,-1.9887725942082852,-12.208883166068972,14.204296968979179,-4.232178587424755
0.47200000000000003,11.176191180005162,22.903763609382167,17.830005610351236,-6.116310514137012,-0.9925753720483499,-11.31710721838499,13.59693633945767,-5.484406810486121
0.47600000000000003,11.567946225659057,24.2262921454369,17.667259854317308,-5.381337585631854,-1.1802571089158391,-10.789118313246945,13.260412279975071,-6.970393863387926
0.48,11.31323875199621,23.726344090982252,16.490470627136347,-4.967796911044161,-2.8523161828268258,-10.670564008345991,13.000262915360736,-8.33428125902617
0.484,11.030465790920289,21.86316519439754,14.722568303548769,-4.92842940641026,-5.7384484045487625,-10.741041732812846,12.642553577397848,-9.328650817319613
0.488,11.212913925982889,19.456174962671753,12.908140680318184,-5.167828973647147,-9.015950951055629,-10.671803989133423,12.168608635337932,-9.957063840099522
0.492,11.91032875279842,17.234057706497197,11.48974217587238,-5.569884834597815,-11.590503125382156,-10.24446123714506,11.713227685482707,-10.468198311215247
0.496,12.64948798289771,15.469122600932678,10.596382698568732,-6.155931041971485,-12.557305628384483,-9.522515116915201,11.412048335326972,-11.214634791977005
0.5,12.665643986717043,13.905528575649441,9.985181258483863,-7.120496612821739,-11.621214016201066,-8.85336976310964,11.22208247434969,-12.449583621544548
0.504,11.341931646089847,12.014979483069851,9.175911785952621,-8.676911425431285,-9.272305347416932,-8.698121743369484,10.843634346885437,-14.179755944437943
0.508,8.585933143402713,9.411974478063826,7.715803351030672,-10.794657791604891,-6.603888284608047,-9.372406779857101,9.81958872303403,-16.144208234802022
0.512,4.92348830664281,6.1825457099179175,5.449989124553895,-13.004583378205098,-4.826317431917232,-10.830733150714877,7.782685074701703,-17.908008671813036
0.516,1.2629727025310444,2.926155316967538,2.640540546831744,-14.467338791898783,-4.7283045393226075,-12.638045136103756,4.702157431583828,-19.03284472205746
0.52,-1.5039315395137578,0.5005239856606067,-0.10775375661478392,-14.323919224642395,-6.3497095473148875,-14.13524720202986,1.001071101406069,-19.24495504192396
0.524,-2.8561885792523753,-0.4047171917806054,-2.1055895952608807,-12.193078930877277,-9.047517047170459,-14.73686197608663,-2.5480354111195993,-18.53079760823232
0.528,-2.8087134165756424,0.3443152515916381,-2.9138254487702397,-8.542350073461193,-11.89816062782802,-14.214921522289615,-5.140743009851121,-17.119409001290137
0.532,-1.8361256149981955,2.1794559481851365,-2.592296599714473,-4.668305249191235,-14.199419020035975,-12.813550424298455,-6.319781976925469,-15.365233331196123
0.536,-0.6123746353572983,4.004472223602193,-1.7281636396555768,-2.221318932908389,-15.804948802765807,-11.127603224574159,-6.214184340265092,-13.599514140414612
0.54,0.28265636793969406,4.6164229054996895,-1.1898484427422318,-2.473671984394059,-17.129523700796085,-9.795361444256514,-5.4891440938790765,-12.028633294802262
0.544,0.5514208118518695,3.183695525768485,-1.715811453687138,-5.705494694763388,-18.84434637121069,-9.176262824278638,-5.01454991274727,-10.728405304550847
0.548,0.18761418982916211,-0.4351878418466413,-3.5517298339123045,-11.036473765097526,-21.42943538100883,-9.18128481266399,-5.425653870684528,-9.710607476191967
0.552,-0.6682275880485236,-5.672264805298141,-6.331404047519982,-16.81250806982746,-24.840690755845344,-9.347313054360939,-6.821667045032655,-9.003846879375828
0.556,-1.8915555704643907,-11.50588156554079,-9.267516949179935,-21.35754442294342,-28.47127756521479,-9.121073522749612,-8.754408139144743,-8.696421823079959
0.56,-3.415738394282755,-16.83454824530895,-11.521924307011204,-23.6849510807931,-31.41344809501595,-8.170660370959922,-10.479242740143718,-8.90567212802489
0.5640000000000001,-5.12160565868453,-20.790098888772718,-12.551592979234101,-23.79746441931684,-32.87445525924545,-6.558876737331957,-11.318453384657687,-9.693126286991514
0.5680000000000001,-6.688756082666316,-22.899713693954823,-12.268076335540854,-22.451071118159916,-32.49983636527895,-4.683438457644797,-10.951311109051858,-10.973869752310407
0.5720000000000001,-7.558407890285139,-23.089311238769255,-10.954995763537454,-20.563889766229067,-30.425910379157017,-3.025858512711011,-9.50330601777614,-12.471516567759522
0.5760000000000001,-7.089047700319725,-21.596208739325107,-9.036203854476753,-18.648386664879922,-27.086656682229545,-1.8804832103912759,-7.4151694575070906,-13.765324338018786
0.58,-4.843988961531295,-18.852499238961286,-6.828404963321418,-16.586724061428527,-22.932153608348926,-1.2034735025688406,-5.185005338928477,-14.425109377946455
0.584,-0.8658101900275028,-15.387050767631422,-4.4323045032215305,-13.867375016327514,-18.2693901061416,-0.6774055257785676,-3.13871380049045,-14.178727588916217
0.588,4.220559454370743,-11.749646494628678,-1.8139958137381882,-10.096920134724655,-13.30178549293339,0.05904688014561543,-1.3475072360160993,-13.024778943265574
0.592,9.349640713996394,-8.444514277923986,0.9990458400515081,-5.4397300443456515,-8.295472082473452,1.1636512776879044,0.29060819210747013,-11.224759705350834
0.596,13.36673979646605,-5.8526462192726285,3.7526937188318925,-0.6987185291890228,-3.7141761615882842,2.4722020228821293,1.8909292881168085,-9.176530118022583
0.6,15.452858428028264,-4.1488489426453725,5.98155694984564,3.0273800163868145,-0.1831170830849942,3.592087954835506,3.459116481787305,-7.2369024798648525
0.604,15.429805752392497,-3.270264141074449,7.212827988437311,4.896637763510057,1.729556599109742,4.134613102641424,4.88290667382546,-5.5911460088328795
0.608,13.799241376123973,-2.978456910385262,7.230767901236618,4.75844822458248,1.8081616151164326,3.951038842129037,6.0119233145841235,-4.224107456957768
0.612,11.46566312582786,-3.0209818063802913,6.219585171453559,3.194272052738711,0.3708279460433914,3.2270921933327372,6.7402656371712055,-2.995620958033271
0.616,9.296568646991545,-3.314221083616303,4.677103891183833,1.1500402688375289,-1.8260610534173338,2.372192538889749,7.031334856088847,-1.7711712247939886
0.62,7.748808164856996,-4.029875715834351,3.150013274467483,-0.6036652394620887,-3.9392840026097247,1.7948966341227788,6.885153814796126,-0.5330674049154709
0.624,6.748726653713959,-5.5047150570319445,1.941607745559054,-1.8588675742275882,-5.470347224621378,1.6918643971623624,6.294380647867229,0.5869037922030884
0.628,5.8700582176276725,-7.988395783248222,0.9767275957233323,-2.9686415315130716,-6.509604742004058,1.9811768939930516,5.245954425781292,1.3813239951546734
0.632,4.667466894275094,-11.377560478964938,-0.09897017871423941,-4.481850347727345,-7.620115172535748,2.404589432126386,3.7827724878479785,1.7009249030001001
0.636,2.978101932857726,-15.10548034517035,-1.6459437144386584,-6.660923705260757,-9.412392095050222,2.7069991499372463,2.076639427878831,1.5585804581810976
0.64,1.054632397236503,-18.26735167755737,-3.7145723473878434,-9.174302392294294,-12.045803410946519,2.7985403353472975,0.4648617606001153,1.1465640885033963
0.644,-0.5192722579810152,-19.947786442278698,-5.87011019166448,-11.16046733776625,-14.95707072917412,2.798821312219843,-0.5930106057427338,0.7477153929821156
0.648,-1.0943658841779325,-19.612776233670274,-7.289925111521256,-11.642942581829857,-16.99275792711967,2.9420614630612363,-0.6532115868909614,0.582944938413732
0.652,-0.2770288865114594,-17.372187465619845,-7.110572740931161,-10.060211724564056,-16.900200974783615,3.4100810441677822,0.5286234456655166,0.689831307349209
0.656,1.8516966022927477,-13.968994378722243,-4.867817467699183,-6.613905685942996,-13.936294991950831,4.190839358788708,2.8607430848493323,0.894025799873134
0.66,4.7511176399042085,-10.460735420698711,-0.7807641524021847,-2.2251926940680278,-8.273240698126415,5.062940422148131,5.916216705024908,0.8938190024979349
0.664,7.646966952938527,-7.749961828137259,4.26011183694493,1.8593392573091023,-1.0096765336684257,5.700114823580179,9.075803107358865,0.41232562498981906
0.668,9.840176729070038,-6.205492893844848,8.996615085576764,4.59745496356345,6.229482730160498,5.835356930542957,11.740903354936677,-0.6545354955243852
0.672,10.952277446181597,-5.563383402183263,12.259894021886339,5.551355357297837,11.912214337655655,5.4061778656459865,13.51444343823232,-2.153478389270674
0.676,10.988134878993122,-5.153482022510502,13.37114115461111,4.959663094311281,15.133751052975185,4.5943099817243365,14.278864247558772,-3.6996930656636096
0.68,10.217429825698076,-4.312984386508333,12.331684085470329,3.487591805095178,15.842409277284787,3.7564464555503037,14.168515086101479,-4.804189010746597
0.684,8.972145167467119,-2.759007899405674,9.739353680424188,1.82647362352634,14.68603107493152,3.2731511405395395,13.477214770838941,-5.0527495591297225
0.6880000000000001,7.46440916948535,-0.7384230848779225,6.489890191062614,0.3614284130001124,12.612379494768902,3.3835020769282664,12.546825922781863,-4.262559498383439
0.6920000000000001,5.717537692582852,1.1015293973113671,3.4026356557920963,-0.9321007356650739,10.44560630559306,4.078986226215875,11.659499949367842,-2.5471725007051873
0.6960000000000001,3.642264225598268,2.0321975137529193,0.9314266123416246,-2.3403005874555447,8.619610263772927,5.089953866152541,10.95939259294778,-0.26611297381924715
0.7000000000000001,1.2129888570579794,1.5872121033531243,-0.9027539767179178,-4.109336721811189,7.145482286841286,5.996718124043014,10.430635434674286,2.125989028795914
0.704,-1.3659074279020444,-0.2331012815306508,-2.356589884883647,-6.177403338094734,5.764545323383345,6.422316340346242,9.926617862991748,4.26119104588463
0.708,-3.6242264433053037,-2.9787782932888263,-3.6962100299408576,-8.089724652061022,4.182323052151617,6.228926891847891,9.243434587317438,5.991782780152505
0.712,-4.985997557555862,-5.963476419872563,-4.972816728818202,-9.151444742699482,2.279052842231124,5.621350179955584,8.21710667976106,7.4107485349694
0.716,-5.067147168781503,-8.552496292357262,-5.969605860586967,-8.752887837929222,0.2143119318210438,5.072315109659371,6.809255110350364,8.736402036908885
0.72,-3.9217741746286094,-10.37171662991625,-6.319305240130916,-6.69268936474316,-1.5916811688274493,5.096630265582917,5.159885120794229,10.115705220535006
0.724,-2.065045439507685,-11.356566129025111,-5.711105790065972,-3.3375634067746205,-2.5880901479900444,5.963001659556653,3.5790567213211943,11.450051689633426
0.728,-0.23757704160095727,-11.659686621196329,-4.063832182609531,0.4706397349696658,-2.2903048820386402,7.500583382463333,2.457573769246892,12.355365492924022
0.732,0.9726626969818142,-11.501095016610066,-1.57217069283206,3.7225289564984223,-0.4757405638489445,9.123868738609985,2.117002261252196,12.313051516144583
0.736,1.4494377323572394,-11.047808798583446,1.389978331497673,5.630312998455793,2.689869361090018,10.084139754382136,2.6616179499693544,10.95607821087782
0.74,1.6222623968996288,-10.3585321943101,4.455087140117769,5.9332284336753105,6.659386373944528,9.85816675655883,3.906561438649419,8.340900019533194
0.744,2.222741987351384,-9.399343066681752,7.403658036015372,4.974882693392772,10.648152940854231,8.453112034011497,5.41660546116259,5.032864192296188
0.748,3.8172105026548593,-8.116482073009877,10.171881038947106,3.5122440307873717,13.880509102820554,6.44334900643139,6.641663795202703,1.9257024306645576
0.752,6.384338911244015,-6.51607706784813,12.730945044063219,2.3635544263375436,15.85703013807597,4.704930628722877,7.096742156009498,-0.13377317992421922
0.756,9.20953572157984,-4.717192625124028,14.923937490604033,2.060855055328716,16.509436448046642,3.963508520196683,6.5123967044337405,-0.736822419662019
0.76,11.206633966036549,-2.939653575540376,16.41298490125922,2.676526064232803,16.17139469109202,4.4170714721225295,4.927820219559578,-0.1008668701937836
0.764,11.523046097169157,-1.419091245038942,16.806639989249902,3.887533747626378,15.366310358691806,5.646269029587415,2.6993268513531916,1.0669637444627256
0.768,10.080331418432309,-0.2982358370932161,15.902863150816643,5.215663698154572,14.521143498746426,6.873713694252956,0.4144178406795618,1.977102506511244
0.772,7.706407358772651,0.4435786942949562,13.889430931160064,6.297407636879484,13.769077731860591,7.427987119389513,-1.2679583754518262,2.2225013955971917
0.776,5.732566534447557,0.9739977571899772,11.333878013249546,7.0213667445754595,12.94060265555703,7.1281974260548395,-1.8297230722659492,2.0348032127067768
0.78,5.254045603572678,1.5037406399648603,8.93343756085369,7.478880435127053,11.73344848866077,6.370828961743086,-1.0938768768959903,2.1626629766501253
0.784,6.468631168077337,2.1409793492065887,7.147023187827642,7.784105785724648,9.935607941089017,5.856646471950512,0.6806218244316256,3.4204257867895365
0.788,8.499153250029906,2.789132689820576,5.931693202630527,7.90837576080304,7.569519746459321,6.136602896224872,2.8632898142233785,6.1628852772204255
0.792,9.842815800292414,3.1652156289531206,4.770353995982077,7.651787118067375,4.88426238302975,7.265780114276481,4.676771773764415,9.98820533517727
0.796,9.211785382635526,2.9410246181630555,2.9911601709403044,6.763986734264506,2.2021553951184387,8.762577982688185,5.503609752673071,13.848338106715829
0.8,6.301138933750281,1.95633280191538,0.2330958158919998,5.143238996612183,-0.25420561794953755,9.909011012180486,5.151829444970815,16.527520154415186
0.804,2.0456536155683693,0.3863741966505927,-3.2220910486952334,2.9789063618484306,-2.44309370184277,10.194071890102009,3.937207794183564,17.22784671029015
0.808,-1.8117670990450563,-1.2553900901324653,-6.474091911149799,0.7325938926427966,-4.430376074640606,9.614359622559732,2.517516297553982,15.945476208526458
0.812,-3.6258521402314443,-2.3173797845213926,-8.401794570038874,-1.0394291545377996,-6.206490703203258,8.64896320004084,1.54847969722357,13.440933213399774
0.8160000000000001,-2.7191216333165755,-2.3289912404727318,-8.23317982887346,-1.925860608569053,-7.528020977814833,7.926445449152425,1.3297596654605854,10.830250375868218
0.8200000000000001,0.28506230403368704,-1.2524052616572305,-5.9512356729501334,-1.815686791664632,-7.9094474977845834,7.81675264873104,1.6505911559517017,9.035621806253317
0.8240000000000001,3.8591176071585664,0.4918487721601821,-2.2994982320278154,-0.8928660509247379,-6.8120609404756465,8.199093158110713,1.9449905282594955,8.386096114997088
0.8280000000000001,6.450332682331663,2.2545508576725695,1.6169843915603792,0.5114707244920282,-3.9354618319518977,8.56426814528686,1.6862204404091017,8.570192217492831
0.8320000000000001,7.3228658606278145,3.52368263749122,4.894861729735908,2.1017871255729688,0.5488455095328959,8.377365774699456,0.7837259086550716,8.9356899358377
0.836,6.862546329856286,4.203550140814372,7.214235924895149,3.7012317709701392,5.948848068160714,7.449897096321706,-0.27876592582322246,8.921251237805393
0.84,6.2034535085497,4.628733453480464,8.834318507638727,5.2063339202071575,11.22842719519275,6.09258924588346,-0.6721077502598973,8.354295479990924
0.844,6.410598700029311,5.281113090856024,10.223597422369664,6.456165364156504,15.307832175443195,4.928254808266615,0.27282280978477047,7.450482748008795
0.848,7.734389071838436,6.389139901328747,11.590006492620603,7.148077754136352,17.368579694167238,4.502576665421316,2.563896335175059,6.562848371651654
0.852,9.39655473537536,7.665459652576658,12.629092521294695,6.900318228571109,17.0578485677878,4.9529515045297785,5.3657577456573335,5.880248088417886
0.856,10.027446351304974,8.364408993557902,12.655309550818345,5.444059110920449,14.532418591202998,5.933513018163012,7.2768971437669165,5.284751145580145
0.86,8.494695061739705,7.672713626122828,11.051485558979778,2.8443947141317665,10.37473213614021,6.860002148192507,6.976562907139623,4.470121438363748
0.864,4.625085030617171,5.216622791212217,7.7449282214834625,-0.40829106209966426,5.417842950107456,7.290698293937339,3.9203478721832994,3.2291090808355136
0.868,-0.6048335334670014,1.3805361639243756,3.38906155881989,-3.5186695883480184,0.5376359586755939,7.195897934065499,-1.2960350233296936,1.70813930630149
0.872,-5.519702512301791,-2.780539561609629,-0.8885655287775762,-5.681756973320773,-3.54101601425441,6.9414172166720505,-7.114032544521763,0.44300887850090476
0.876,-8.595475807706222,-6.033592411008328,-4.055063236696924,-6.426916132627184,-6.411291398265121,6.980144985003676,-11.679261457003577,0.11620920082569342
0.88,-9.214391477323858,-7.598088875211431,-5.706804320647393,-5.821434550966586,-8.075083912793502,7.476890788295577,-13.664583517074504,1.163276850669206
0.884,-7.901699133053,-7.546678187086684,-6.247238047970711,-4.4255767483005855,-8.91548879504586,8.11592454542955,-12.829237369619932,3.450984151040416
0.888,-5.945630223797636,-6.739034739862632,-6.601966254866284,-3.02091237986167,-9.519785719412255,8.240264836515848,-10.049536787614215,6.234196717083734
0.892,-4.658521957749059,-6.320010106495175,-7.634644081187105,-2.2557669323107916,-10.386603411299632,7.257239150421299,-6.834064664800337,8.441284147894123
0.896,-4.713022237903232,-7.0768340670983605,-9.620447301844308,-2.397204027197887,-11.655344837288169,5.045263851356594,-4.613731262197177,9.140343341136315
0.9,-5.893146062951487,-9.00325997714799,-12.070920287395381,-3.2793483469962155,-12.977392733758279,2.1231348438673194,-4.1531216926755405,7.959134601980139
0.904,-7.35338497542989,-11.31828118833036,-14.007004792966086,-4.461101292124567,-13.640704462060796,-0.559142011529957,-5.355205276719175,5.232885649863675
0.908,-8.18316265681213,-12.91725054089494,-14.500211362748075,-5.475561005804707,-12.913726682635797,-2.0993664127540796,-7.486801227457136,1.8150745501650647
0.912,-7.921466522920241,-12.974564747967463,-13.153863337085113,-6.018481691157376,-10.423245205326111,-2.1037631727519965,-9.62717749025876,-1.3270177332671267
0.916,-6.750318214068443,-11.355664451928078,-10.268824256655307,-6.008432890352651,-6.377467354952046,-0.8841439560089839,-11.084333841351054,-3.5240934295723036
0.92,-5.306228829873135,-8.617439967574626,-6.620772869211805,-5.518093918236104,-1.505353390422158,0.7312242621726455,-11.571445257308994,-4.622783741830574
0.924,-4.254070654137422,-5.626414407721427,-3.0166957807307426,-4.656215427334075,3.2493399263957485,1.8512909597636735,-11.123537863767979,-4.9407878736785165
0.928,-3.906728386355354,-3.056225041698383,0.08366171599936933,-3.502060446722055,7.1075593622665565,1.971813768069751,-9.9000381341516,-5.026758367190951
0.932,-4.11955307828498,-1.0893749422606334,2.657733374720465,-2.1383705380666242,9.697345137938726,1.166498516691263,-8.054318082802979,-5.374418678503389
0.936,-4.489772955943295,0.5141339970472245,4.8988600676161695,-0.7354231091122756,11.043409705013914,-0.07264827357028025,-5.75491152092809,-6.224555553847608
0.9400000000000001,-4.7020264256991595,2.066262216596101,6.880579127579949,0.4098530290043527,11.359198819820563,-1.1990371025112836,-3.2917778505072874,-7.509027484130456
0.9440000000000001,-4.758488288093844,3.5865209539160787,8.357459969267552,0.9487985018511722,10.806060486175511,-1.9334946123694863,-1.1187284866646223,-8.906104077948214
0.9480000000000001,-4.95011908574071,4.693312655384773,8.849831178527893,0.6625451040349049,9.402120389535867,-2.337595535050241,0.26828134917764146,-9.935260490049018
0.9520000000000001,-5.607109061408494,4.822790407216303,7.944085235335024,-0.35971687383698736,7.1309406853350765,-2.6104996157259848,0.580405918963379,-10.053810878415447
0.9560000000000001,-6.825258218866907,3.6139920919284805,5.5804613432966335,-1.6916441809765956,4.133054332367692,-2.7935370817792773,-0.055796311655626596,-8.770436664466558
0.96,-8.353843848319912,1.1979438548971757,2.123292890590619,-2.7432053473621636,0.7927853924816191,-2.6119097715718453,-1.1103288603067085,-5.797577958011061
0.964,-9.730787330701276,-1.8042225859753103,-1.8499924437277286,-3.0799242037819567,-2.406881515127452,-1.6099287245376672,-1.9268758773362151,-1.2357000484609557
0.968,-10.575377865731127,-4.59100712183681,-5.895928910006319,-2.7059215393672957,-5.186993552511467,0.48695438847698824,-2.120542931794944,4.299883327756902
0.972,-10.844937757603361,-6.597326483315555,-9.927140721970773,-2.119363146253818,-7.700615234602992,3.427636052521393,-1.8374681695704567,9.739137902106279
0.976,-10.858299167325981,-7.73314529931622,-14.135936965038695,-2.0523251620659266,-10.461649052636858,6.363717948820522,-1.667873984079506,13.86258954939808
0.98,-11.043373278002093,-8.292561609598124,-18.631318997640847,-2.992061443196235,-13.92809088451304,8.187087008369645,-2.219170946860231,15.776910603056535
0.984,-11.556115640358144,-8.600477689774607,-23.022455736510324,-4.760773646942653,-17.970219900978464,8.1244668001425,-3.5923624598451624,15.338510470572942
0.988,-12.04495170031521,-8.669716747815755,-26.286222173431042,-6.44759608816139,-21.602271258657083,6.237967581436806,-5.132976742214396,13.263483402140537
0.992,-11.769410220638804,-8.138664053723232,-27.104781349492896,-6.810141956010966,-23.24861351854338,3.5033858385713756,-5.707051886895215,10.79497388013101
0.996,-10.08243449989044,-6.584372564723253,-24.58678885383665,-5.003263469803187,-21.53703597060462,1.3255460156856316,-4.4428838281955905,9.024719120374698
1.0,-7.020635481005684,-4.0214177073428345,-18.98056304314855,-1.2451936186330386,-16.229412740751513,0.7268372936823653,-1.5277260076836683,8.209948771296126
1.004,-3.6075872041299135,-1.222418781246347,-11.923448883834226,2.9955524714492867,-8.730341793977232,1.651865412863117,1.4720138220554873,7.483696431255453
1.008,-1.5976869684020016,0.42862141331033854,-5.974700790443194,5.4970818164193815,-1.7758853943680606,2.821361564245535,2.0945696735866477,5.195236845725958
1.012,-2.691373724993923,-0.4221017516193797,-3.5472063903364415,4.309665470001391,1.6876900754161852,2.3149000687533317,-1.8349731280136439,-0.20663433683876065
1.016,-7.596678593822617,-4.280024639561361,-5.747651717099416,-1.1895055170123214,-0.07128430005786868,-1.3867933765502585,-10.890577451096988,-9.171755054392634
1.02,-15.431983227385956,-10.277690597814626,-11.709509064945223,-9.764392689802776,-6.567450319676254,-8.432340144797308,-23.316981257946736,-20.458168910299605
1.024,-23.85688071596269,-16.311724366537078,-18.81382606745592,-18.649292857506452,-15.109409695890463,-17.246897438770247,-35.38589764896733,-31.329527887195127
1.028,-29.954337169596272,-19.863593864477707,-23.757858060292165,-24.64869268544726,-21.903788203550448,-25.04367297734916,-42.79269162520677,-38.52320792296746
1.032,-31.487121568804753,-19.143596636121288,-23.99321728238465,-25.504068941768537,-23.748527504598314,-28.989577303481383,-42.48192271493281,-39.56704307985888
1.036,-27.926596905953716,-13.98465595355458,-18.874462080179228,-20.872037191970094,-19.499923806378092,-27.463924254389894,-34.031347324077615,-33.822130227873004
1.04,-20.722929166254517,-6.013189786177918,-9.96727068255177,-12.436704349973525,-10.585185901353725,-20.780335341159116,-19.891629674670412,-22.750120319410257
1.044,-12.672588881820275,2.011077686522299,-0.38361296448329085,-3.130527127970481,-0.33821765659581615,-11.027311378803915,-4.3559226103095625,-9.298238729107538
1.048,-6.6802812054156675,7.372573875986745,6.523571685951538,4.137416483027437,7.482375925572114,-1.1278084890227547,8.242130090179216,3.279045483201344
1.052,-4.530302974565075,8.519673056406646,8.495001680969835,7.620027723440671,10.263748398891948,6.394203309761906,15.225707461295087,12.593357046783467
1.056,-6.254815297359869,5.60557188989992,5.136057107319402,7.224578126221331,7.46930299518317,10.321185402682204,16.36918040036244,17.768493384024055
1.06,-10.356365486823393,0.2379298989558265,-2.148644836498079,4.222045406878578,0.5773264514803031,10.943946482064348,13.506544112578467,19.358287792580313
1.064,-14.67885766234076,-5.369527115871733,-10.924485929476532,0.4357003736399747,-7.813427226160229,9.56244611773991,9.285995198469436,18.703232144197955
1.068,-17.435516867060414,-9.37225852759002,-18.76593008447071,-2.6143516537163123,-15.174725303591913,7.643924435697045,5.793778456396467,17.134146341423957
1.072,-17.87273975910466,-10.923510905706507,-24.071961264077345,-4.193990524360515,-19.94194731311154,6.127936171013516,3.752127924101842,15.443290990901232
1.076,-16.314459723839946,-10.242926396065286,-26.371027282731802,-4.335895114510777,-21.77403742545016,5.192036478083082,2.601626262953687,13.814069131113001
1.08,-13.693513279836338,-8.20942145848926,-26.10029438171,-3.4743501974148785,-21.20889704349065,4.5011864193661495,1.2739951803191616,12.110766899738337
1.084,-10.927860312359257,-5.785558427498927,-24.091224061158073,-2.046508154773619,-19.05529137683834,3.6719251436998093,-0.8884142066726781,10.251198491892183
1.088,-8.498648187331241,-3.5944475614860494,-21.069796029516965,-0.2938972649956213,-15.900490265561075,2.6216707921853413,-3.6106268268117674,8.408574639191556
1.092,-6.413878439436758,-1.8079126388333862,-17.404723065890266,1.688898286251515,-11.960229621519602,1.6087467196812213,-5.819987254927128,6.942235619799703
1.096,-4.490085714962333,-0.317502370524835,-13.175772401255472,3.771290721005471,-7.261387323951112,0.9782601019587673,-6.3045523214154855,6.148255613622041
1.1,-2.689098695708367,1.0125791176158145,-8.426475485809988,5.672112128525896,-1.931100872938032,0.855210779915069,-4.450665939070859,6.0450609614133555
1.104,-1.2485701933743485,2.1982195990162836,-3.4060205174923794,7.018971860032707,3.628375268745458,1.0157462040401697,-0.6345736789044167,6.338329380227606
1.108,-0.5377434465981423,3.157569922371067,1.3510265371169226,7.532678222366258,8.782086185175558,1.0285297380646625,3.9212094297754447,6.585800265557737
1.112,-0.7871491864084419,3.8197336926723438,5.148023401087357,7.18565520227412,12.87908153084254,0.5599795761818314,7.710516595537683,6.449252467728911
1.116,-1.9035171652269582,4.187462066528269,7.372738641679462,6.203826661629137,15.48521697775459,-0.3886706434291227,9.580323969942583,5.873759656746415
1.12,-3.5137283077840493,4.293687298851864,7.741200826939803,4.914560026294339,16.49829756195777,-1.4692305338317055,9.132652367905848,5.106176291557631
1.124,-5.205644874921973,4.084644064898157,6.403805010149881,3.5461059663709875,16.08326983291363,-2.2246019614212855,6.74301504590494,4.543223852150049
1.1280000000000001,-6.780805030732836,3.349521951760835,3.8693136598221827,2.132353014407954,14.494839826642874,-2.413028882785511,3.2695014771670685,4.511217817268516
1.1320000000000001,-8.332542575749812,1.797483219552305,0.7911720048982716,0.5871896944049695,11.92141220689382,-2.18695422613564,-0.3320466220702656,5.109266284878686
1.1360000000000001,-10.095012881896537,-0.7407384635243943,-2.300065274619101,-1.130165276909338,8.437407019247075,-2.0194946468145645,-3.309663912459655,6.163816972257337
1.1400000000000001,-12.146412860000623,-4.091385914083958,-5.179146504079654,-2.87559644986095,4.101614473425798,-2.4025098941147007,-5.241116999177848,7.305002648432719
1.1440000000000001,-14.172079081906077,-7.655072606932208,-7.932773587287556,-4.330578936349866,-0.8799210867227885,-3.5155301395025162,-6.012070586178197,8.10828024269017
1.1480000000000001,-15.475641611395076,-10.560131316780144,-10.786084431452764,-5.164678460547293,-6.040272222979183,-5.081595569247838,-5.744325932542324,8.234326442265228
1.1520000000000001,-15.254107054261112,-11.993333257326867,-13.832903697923484,-5.224572485782119,-10.660956161621016,-6.495668758851934,-4.734330899425004,7.533461805406432
1.156,-13.017793673374172,-11.555891762612418,-16.8323378510363,-4.630408333398009,-13.935213453005417,-7.176436144012769,-3.4136158974920363,6.092341939615835
1.16,-8.918793836435043,-9.44274125648144,-19.183465818248806,-3.6916765843789108,-15.205324255967298,-6.9185237569499805,-2.27778294049358,4.228272888123911
1.164,-3.7808523994501684,-6.3354554924351305,-20.11674516658286,-2.691006708517307,-14.175326991137354,-6.0345279427829155,-1.7490603085461771,2.4174744732567888
1.168,1.2071640465239852,-3.057660725309688,-19.016934975631557,-1.6843747397365405,-11.003841574613034,-5.194768828435372,-1.9954724827298378,1.164275650819718
1.172,4.991244709743796,-0.17850795257959362,-15.710952673598513,-0.4560908037392437,-6.234903493358615,-5.038295124543765,-2.8020513371875495,0.8443127428088246
1.176,7.08876508450021,2.2161992525352616,-10.584004579998236,1.327374201380735,-0.6072214692926536,-5.787004595546023,-3.5966922767152028,1.5754512991973115
1.18,7.733302412756984,4.464148002912225,-4.452569281025262,3.854337964986371,5.172314964430825,-7.075721581139987,-3.656975576948753,3.1795108247081316
1.184,7.682836811404286,7.027527799827112,1.7435820881437394,6.966769160437252,10.583985234783995,-8.109212357084289,-2.4331544095343816,5.255216572992822
1.188,7.795991489796961,10.129360715839994,7.266509765922365,10.153663265975865,15.317789964612984,-8.072209817280964,0.1553389711998534,7.32597578339778
1.192,8.591277408572523,13.530148884214213,11.75641700810047,12.74914653211681,19.17804135745064,-6.570427617832138,3.613103053161012,8.994657513717357
1.196,9.99457059067413,16.559080952995828,15.17637170342141,14.21251973385688,21.95052765063565,-3.888730729299823,7.018016912442818,10.02881616877221
1.2,11.388238489411151,18.383778244379755,17.596873533910184,14.339910820948717,23.340234432326724,-0.9150352516062412,9.375321614789755,10.354353210906993
1.204,11.930176205513362,18.38174316754248,18.98213207082381,13.294111089093349,23.028542201735945,1.233760565850389,10.019100642461126,9.982912045202738
1.208,10.96771070316936,16.426308491119016,19.125527164242158,11.450637639585693,20.823911248571676,1.702529287096695,8.872153897676071,8.944187959170904
1.212,8.353984812733188,12.95866095610927,17.791527963638146,9.179588896627592,16.82709955317887,0.287498876364225,6.4445831692164575,7.298154308714857
1.216,4.523251699659113,8.815007822479402,14.953263217710628,6.687895772314732,11.48981662719325,-2.4704499048775688,3.5632369787263087,5.202546498636366
1.22,0.3072993665218746,4.905984371354407,10.953594520477054,4.007070020950323,5.51940417825881,-5.511145816049975,0.9677255404494645,2.97765585484467
1.224,-3.3983698614854347,1.8972175726935347,6.458927116672385,1.0981900572719496,-0.35058311916554885,-7.701350945086233,-1.0257441354724506,1.0753229377151001
1.228,-5.966423373878342,0.010740336040726106,2.2011014737354344,-2.0181089229445206,-5.620587822379093,-8.303405887252666,-2.627753358974587,-0.08682911740743293
1.232,-7.220282395843242,-0.9770715190661576,-1.3392143356613815,-5.189909421362245,-10.168743880555212,-7.253600339350669,-4.393943620491882,-0.3539168008164779
1.236,-7.408967631552059,-1.5616510653094338,-4.120455336257692,-8.160409818617609,-14.196966921525927,-5.152531885669305,-6.864865328785527,0.010564487264673517
1.24,-7.0250410546709645,-2.2554519811851605,-6.473004238755493,-10.657248691572022,-17.995264614529788,-2.9690769598282714,-10.21742713360436,0.3686232820773512
1.244,-6.574697276139204,-3.357361258056244,-8.803388998981973,-12.481323987848555,-21.66187554659382,-1.6117657895792945,-14.111890014158234,-0.02971223444365023
1.248,-6.394753091953135,-4.8214187471880905,-11.240059103556632,-13.537487934952424,-24.93718746089735,-1.5469949117168653,-17.81132100124978,-1.6691999306822254
1.252,-6.579454343795533,-6.272246644608003,-13.443268659931164,-13.806080097939684,-27.253847628362564,-2.6218038398974386,-20.510533122756897,-4.470945239753746
1.256,-7.035458712863601,-7.173030441716946,-14.721133101500527,-13.31529453843359,-27.994344863097012,-4.175818743473428,-21.708532217288848,-7.755962754784832
1.26,-7.590274655720805,-7.070635843414948,-14.385537574115915,-12.14090441181861,-26.807180050225725,-5.354198171891767,-21.429289311826324,-10.515490084260819
1.264,-8.074454237005511,-5.810645752766959,-12.15271698367087,-10.438079488725634,-23.81884772522517,-5.488339771826759,-20.183237696059223,-11.875882324668055
1.268,-8.346587277784693,-3.6272187047270563,-8.35244057554155,-8.468147434218736,-19.623748972755493,-4.381548484878294,-18.697597421413775,-11.5303057197807
1.272,-8.284850437857358,-1.0644387819870644,-3.8102283587086276,-6.56771213958973,-15.047201727564243,-2.366926247419542,-17.55757863537565,-9.904997606042343
1.276,-7.774129331055974,1.2509443554758946,0.5297373128260006,-5.037242863007577,-10.800402249455146,-0.13284815465704014,-16.941307215010966,-7.957114194556198
1.28,-6.73785701545944,2.8747580523804572,4.025294537001173,-3.995593694044146,-7.19837054760319,1.6103206923835387,-16.579595282821174,-6.694889459295155
1.284,-5.199231518019133,3.7156707131375697,6.562371732366046,-3.294448048240156,-4.097475126973222,2.4536784179490496,-15.948730225445615,-6.674751968739201
1.288,-3.337021013235244,4.008959643038452,8.465259306921325,-2.5742034204404263,-1.0962610654860327,2.44938338223983,-14.582534205443153,-7.745090859814809
1.292,-1.495855745787594,4.1096684360200015,10.164167328617623,-1.460138745095719,2.1147177615348483,2.0536210042519087,-12.340297698785434,-9.162572475048819
1.296,-0.11607904763422994,4.218705934092213,11.81712897478701,0.18868333432328654,5.440351017023204,1.8756882556917844,-9.512879498723123,-10.02372940247642
1.3,0.3896281402769546,4.207385118346792,13.127551286688686,2.122977286778223,8.298085462713061,2.3710161072849587,-6.717727348301196,-9.770495449104146
1.304,-0.2158871134799938,3.6742905620767488,13.474486585060731,3.752715393712606,9.827967318226001,3.626497188817666,-4.639557450287612,-8.494939840851657
1.308,-1.8862526624925522,2.216874328751601,12.281742357002258,4.3999193221379755,9.30103119834257,5.3362245760254154,-3.737269514635045,-6.884398110775237
1.312,-4.26712205783133,-0.23132918870715002,9.412603761757964,3.644459414170342,6.5250891659125045,6.976065001985262,-4.051745590229984,-5.838819927256736
1.316,-6.777220392435538,-3.2288503289355504,5.326820045711429,1.5676570678442658,2.0181224470125017,8.060807133162598,-5.2005774363342425,-5.9711861899322685
1.32,-8.78227054436229,-5.9737985630795265,0.9000906816272618,-1.2568731689289052,-3.161859378857116,8.360737467268336,-6.560717350429513,-7.2590381908371455
1.324,-9.804599512255663,-7.725474145388489,-2.99655655981951,-4.037131178100935,-7.872097082060463,7.969246263517562,-7.556303383084014,-9.043550952402711
1.328,-9.689265696373695,-8.273125399819492,-5.926250221570626,-6.15767895602221,-11.409863196994593,7.205690474351286,-7.913380510182833,-10.373151202850295
1.332,-8.661088735184876,-8.148585431305492,-8.061101891611543,-7.467784496857348,-13.81705553654956,6.431247418995554,-7.76386380225631,-10.499527914805185
1.336,-7.244134136176854,-8.402553881719996,-9.996048107541355,-8.291352708095474,-15.77719802226784,5.876896475456306,-7.546431977486463,-9.256067706593967
1.34,-6.066547840398016,-10.011254964455475,-12.290246676329843,-9.135877836949476,-18.12515063002411,5.5837124301506265,-7.753625098113844,-7.124090459722083
1.344,-5.60731082368693,-13.216434883307556,-14.996933253726638,-10.26950228881924,-21.22073132985315,5.45822973778013,-8.640086846690792,-4.967855074728959
1.348,-5.971360614207242,-17.174384369617655,-17.455234660522365,-11.422913329315634,-24.529120921865797,5.38543676968402,-10.041443549902397,-3.594034446301521
1.352,-6.811089972232367,-20.188173806664054,-18.492414314273447,-11.831273371989482,-26.687602846152913,5.318964431917266,-11.413841188183142,-3.3802635762772297
1.356,-7.442988296606018,-20.466451278123714,-16.969125900172912,-10.631358150604683,-26.077499770330178,5.283372326864992,-12.091550144461507,-4.155558326260234
1.36,-7.147075224376749,-17.04914985243977,-12.40085693425408,-7.414079067965758,-21.64082681351465,5.3131130921974545,-11.632703596218562,-5.360144392357142
1.364,-5.517766388496966,-10.40220486416365,-5.329384703874894,-2.6118542222247925,-13.539092041058211,5.3781385851725645,-10.072374976833999,-6.365757976674104
1.368,-2.690913402364913,-2.3259209941234076,2.7682684444926053,2.5446885445944645,-3.286956063368052,5.367094377985268,-7.923268087026372,-6.762720826358873
1.372,0.6820158888517653,4.817890873171564,10.027093608654468,6.535502592167177,6.758462795231026,5.1611526647375285,-5.895481267356445,-6.459014347827633
1.3760000000000001,3.699223957316917,9.166609530604546,14.919276619692027,8.26504899833526,14.3236924035009,4.7261314889656205,-4.501138773271123,-5.586530376669543
1.3800000000000001,5.589045227932729,10.15652260596471,16.813934804068595,7.6120479982619145,18.121729842659988,4.163497839866977,-3.7698885018189685,-4.3144153792
1.3840000000000001,6.022549961751793,8.6462044435184,16.115304706246206,5.495369603075233,18.275255546534027,3.663910856579605,-3.2582229329291295,-2.724561894096041
1.3880000000000001,5.204714682371105,6.316382634635374,13.925845420777478,3.3890604447988153,16.059392230566118,3.38134267399073,-2.366532126522543,-0.8368705943767054
1.3920000000000001,3.7049832049715405,4.707045072313122,11.446151274374643,2.536702234454424,13.13200437998512,3.325858310543481,-0.7752991105271576,1.2583026655247522
1.3960000000000001,2.1201571502951992,4.417343905378402,9.407642270849465,3.268840445400201,10.665181266312175,3.338072662252671,1.2539516915785498,3.2842554667749937
1.4000000000000001,0.7661326947472844,4.895426487786608,7.824087465529374,4.808221089640028,8.857293786231821,3.1901002796021203,2.9320578899769316,4.806054807839246
1.4040000000000001,-0.4306287894914931,4.900204352988112,6.151596096200592,5.669071191025068,7.048679755591365,2.749505311156099,3.3609453123626736,5.420922683932076
1.408,-1.790633145051288,3.3416498907654386,3.730051279459076,4.4420569606791105,4.314970508990882,2.101410403929549,2.0819158000431344,5.005792832489533
1.412,-3.590272572981121,-0.0012174353878435795,0.24968345297656924,0.563261567968766,0.1735748381324811,1.5374932782360702,-0.56555688959088,3.856904182061953
1.416,-5.813966216369863,-4.306183732216596,-4.0291508139789585,-5.343488263596555,-5.0266343653474905,1.3819922297898302,-3.526424350204252,2.601800389413256
1.42,-8.115063170748726,-8.142438915921048,-8.399647364154589,-11.711711771983573,-10.237838692722107,1.7681410064033116,-5.5365468375839555,1.910961728292932
1.424,-9.992423030867485,-10.232128811737311,-12.070314967453669,-16.715692600699185,-14.264935516250262,2.5066523453260743,-5.789159296735306,2.1577782187696357
1.428,-11.058361009801047,-10.08547736132914,-14.530799225622104,-19.031237479466654,-16.386115490621705,3.1497392943092564,-4.374344982685216,3.2250204285119253
1.432,-11.215502865062263,-8.151499429697651,-15.705729399242045,-18.29514270097934,-16.66659056813296,3.2521802618721267,-2.207955815922105,4.582590938089197
1.436,-10.635120255620677,-5.445813566707329,-15.84078185749604,-15.090216899974621,-15.796089961402686,2.6741513554097764,-0.4871808788193448,5.595492065401231
1.44,-9.574109819093792,-2.921054715559876,-15.218451494014516,-10.52911295143167,-14.571257891800997,1.7441926075389347,0.02094092512925272,5.882869997212765
1.444,-8.177160991071105,-0.9734366450475136,-13.902482826935739,-5.7153646480574025,-13.37347625514667,1.140514520180659,-0.5569359074306703,5.5082540846215124
1.448,-6.409686494739162,0.6328952737985674,-11.68769423730555,-1.3696623769255893,-11.980233463282275,1.545785341735609,-1.2690907087344385,4.887354288853203
1.452,-4.178195766932731,2.421859016354574,-8.290512357816624,2.2393263298026795,-9.815347483293408,3.2292160292763583,-0.9040539678007917,4.471082190713787
1.456,-1.5574541478836181,4.706188024662879,-3.6607065434418473,5.106589574374084,-6.460713211263283,5.814572276776744,1.2698877466573322,4.418275068315779
1.46,1.04238745262046,7.271834085568116,1.7902278570254566,7.228981363541607,-2.0782847687223693,8.389843109620415,5.021535593314184,4.46920886539192
1.464,2.9428064948247084,9.451855807700667,7.200340121959016,8.462866665700858,2.5320748998001363,9.921588655590313,9.214836088503944,4.105253591044857
1.468,3.5028115152017563,10.535978081090434,11.534113390136554,8.578689346131796,6.287044095574856,9.77298889674421,12.375020550551199,2.900688322759379
1.472,2.5031944630309226,10.243463588912164,14.001500641887105,7.456037768992246,8.380520951099243,8.055130734461272,13.451274175087747,0.8477380241520223
1.476,0.3651578908461488,8.929557875573664,14.376715481996143,5.260352875992794,8.692537098286266,5.5906983456206945,12.325370449154434,-1.558890518307635
1.48,-1.984242897203785,7.3826240285234235,13.05541204767178,2.4748080892250073,7.807870549270774,3.5151240314462484,9.800701562617178,-3.5370064474263927
1.484,-3.558840264997343,6.3335882089213555,10.822907068959466,-0.2469753953464533,6.638479650113368,2.710248839275664,7.104037582716046,-4.4159177915544205
1.488,-3.818941618113058,5.987703160140882,8.473327241215884,-2.321065598725909,5.883392037127123,3.369630972489176,5.206026940639276,-3.987944620057533
1.492,-2.944411486575973,5.8832451050766394,6.491808755683451,-3.427762629523386,5.660627644296255,4.9462093480615295,4.365856772405095,-2.6001605005731108
1.496,-1.699878203805838,5.178140969685046,4.942877914792916,-3.57366651279699,5.520281146156776,6.489990723428491,4.133730482873943,-0.9351290811555373
1.5,-0.9670157527357333,3.195158346090466,3.5868935136313667,-3.0061396055261866,4.802689081818244,7.192282696280017,3.751489531907282,0.380867000656508
1.504,-1.1957219414930478,-0.09642356506719807,2.122682350773175,-2.036915558284818,3.089334384416361,6.836587398605843,2.6895534114191832,1.1144015643822058
1.508,-2.1066428138692572,-3.957736182062945,0.39581919229385676,-0.888839490202372,0.44835453527593927,5.8978611229867965,0.9816043018108758,1.5036190458422425
1.512,-2.832009629692948,-7.193540494202352,-1.5342566986655584,0.36763649345448357,-2.650696758439153,5.248105826172832,-0.8192854913322662,2.0431094467639923
1.516,-2.4189810747175216,-8.734935801703614,-3.476646606302893,1.7747717964521144,-5.660582439315476,5.617674315944896,-2.0088994641446334,3.1169498612343887
1.52,-0.41475288958190504,-8.167637072683647,-5.244311582830051,3.394219437161155,-8.260647928465914,7.126991162054765,-2.1777185229893803,4.714099736318531
1.524,2.8147263374153226,-5.910268067040306,-6.725809596948238,5.219322117636693,-10.432854493508785,9.154115556986653,-1.453065759375022,6.39041032318255
1.528,6.233095674485867,-2.956126677413522,-7.840596711379476,7.139780723369768,-12.26437572611394,10.617339160569827,-0.3976109029554209,7.498232632169675
1.532,8.673155305862565,-0.3366895141753048,-8.418449248574689,8.97917829105154,-13.632657060425117,10.541057087852096,0.3684712765025324,7.552145859369375
1.536,9.447704854155745,1.385930857160929,-8.138574922573753,10.566819683860558,-14.04857523325154,8.584807199964416,0.5636998489189864,6.50361562359285
1.54,8.670925831981549,2.3220957897683547,-6.618591058313541,11.792212906299028,-12.817629456136274,5.258368456423341,0.4187070333700831,4.7686376149176795
1.544,7.119820058453115,3.0727554058212263,-3.6395895710156765,12.607049927966727,-9.467135210408742,1.6905513168785546,0.5408943876773264,3.005647106251672
1.548,5.74576944128421,4.305883240605908,0.6203097247962432,12.985865263663072,-4.181074061518302,-0.9210828185387072,1.5598888030708622,1.775354756951856
1.552,5.135121699990123,6.347803790546095,5.5002226182914455,12.879364534070191,2.0572912071456813,-1.882793928954925,3.759017714923175,1.2814018439457868
1.556,5.2244972850157865,9.002833991178704,9.998998798379034,12.190799187637822,7.754587669218381,-1.310122321388917,6.898997264843274,1.338235079225342
1.56,5.432781018672358,11.678995022933123,13.119256494495858,10.81720620437045,11.527574943336731,0.010105777237185976,10.3161095243413,1.5699314004896223
1.564,5.1072540508012025,13.722620035791806,14.259197261544614,8.746067738924467,12.72130802382162,1.1107070126454346,13.229410361513146,1.7078671645704162
1.568,4.005230803785707,14.749886651727138,13.446212223485418,6.156437612356058,11.674289352882624,1.4064786868293595,15.087080657860497,1.7904577100562165
1.572,2.5079361171997334,14.783372774519194,11.289787690557205,3.460748202716786,9.47964519123343,1.0129888094415946,15.766555091011469,2.13504223522159
1.576,1.4272529154941367,14.132224256985864,8.668417280086942,1.2187276084914629,7.369062167386801,0.631217042933713,15.538195237255422,3.0972413059052997
1.58,1.514263463413954,13.119343745425795,6.324921069910488,-0.06076880281943886,6.081936300664893,1.077432071280782,14.846372615978908,4.7719941645764266
1.584,2.9816705366656606,11.839526540494262,4.579495662841509,-0.1477576113993564,5.563926013208402,2.731969216521975,14.047801458629692,6.827448571839341
1.588,5.326691985358593,10.101710255401485,3.295161871033997,0.764148593905702,5.134446432713958,5.228988423350529,13.243047625825056,8.59121057619086
1.592,7.577435415733817,7.606746169743019,2.1047890768095385,2.1161696199706057,4.009097549705984,7.600899547878726,12.288937385430472,9.379634177776097
1.596,8.827378095826816,4.251946623639469,0.7277063251840445,3.2451168890784174,1.8496374755200122,8.792341941521045,10.953664998737622,8.886098820025381
1.6,8.732454895570072,0.36290692311195016,-0.8239714717042261,3.726325038565392,-0.9774986037928102,8.267459299278016,9.108447084320687,7.411040653478722
1.604,7.700464506166554,-3.2950528342662437,-2.2555286397819145,3.6195917477634794,-3.5663954425144766,6.353630946521662,6.850622335150547,5.7854866252346255
1.608,6.663839513443236,-5.766536630728297,-3.1920831918650947,3.4658923747156223,-4.947540175890026,4.106735838682653,4.494975593532217,4.988186009554738
1.612,6.5684775002991955,-6.309810970071339,-3.419445969226217,4.011330746918247,-4.575451933298609,2.7757264471474627,2.4478962555131147,5.6438001747083035
1.616,7.860789955889231,-4.7553248739786795,-3.00997721677777,5.779567879624665,-2.558706842464744,3.1363573882335913,1.0350491914723534,7.666955895517276
1.62,10.257463329847269,-1.6159607089757628,-2.2420282836683327,8.729682067563772,0.4824291642580647,5.083924415055662,0.3785496378386597,10.261451762880824
1.624,12.910288401411435,2.1202830210704633,-1.3756320271349978,12.193012181200174,3.8030217716841435,7.700015154092398,0.3759817047393881,12.291586835382077
1.6280000000000001,14.862362502546148,5.423304133341844,-0.43815244070901826,15.142130297080257,6.9025477304548986,9.741159693381633,0.7839299177685461,12.829294033146653
1.6320000000000001,15.534285251789697,7.666136652675959,0.8304341468119674,16.66652760695979,9.671392955486226,10.284028470330668,1.3441924090839166,11.608792024735521
1.6360000000000001,14.961217560876321,8.856436761498117,2.801126234633557,16.389563221298886,12.251093301787478,9.1485901471533,1.8818002797925146,9.141385488848755
1.6400000000000001,13.68406871845491,9.544113683860814,5.664092568513297,14.618282459854527,14.756149987446406,6.90216200271243,2.3384370266758197,6.448773691738097
1.6440000000000001,12.399118636581989,10.4676427006234,9.211220145221887,12.155209103228117,17.063263244122936,4.473205099515326,2.7480011723000644,4.55936094999106
1.6480000000000001,11.608703981330109,12.147330580992275,12.860410426163071,9.899699343270186,18.827677782797764,2.635919041960733,3.201472964396089,4.047095960464503
1.6520000000000001,11.480595170869492,14.645488347663559,15.945183403055125,8.476391500007594,19.725779662643617,1.6881604801492358,3.837372309892089,4.851376015110873
1.6560000000000001,11.923901663256402,17.57133396257541,18.07209019003858,8.045468851761143,19.729581588575456,1.444796262188902,4.83255174426813,6.4257556958045825
1.6600000000000001,12.800117969758048,20.311055259007844,19.34219991109603,8.371952035968206,19.232962968102584,1.511424436343077,6.37101814874768,8.108168245064007
1.6640000000000001,14.075094667834946,22.312263981653814,20.266558340663323,9.050062074644302,18.89478954717015,1.6133971519957413,8.561936917010826,9.461273044959853
1.668,15.782420160253423,23.251874846577266,21.385689726434066,9.723799529234384,19.272591865892537,1.739025744034734,11.312634930423883,10.399445384392493
1.672,17.84185966678706,23.03108734073794,22.83183761820692,10.19364769762069,20.462328157444063,2.034353708382696,14.240602969399333,11.06394617602109
1.676,19.903981491194827,21.669518011952277,24.11375817653061,10.399122199271005,21.96800961313602,2.560944157768972,16.71724302011353,11.571936078443287
1.68,21.394312664388053,19.246835173898944,24.300433081494702,10.376513519053333,22.923067692432596,3.139698609149491,18.080772534663993,11.864927148164497
1.684,21.780741635992854,15.959219985426898,22.540573864820544,10.248694362290735,22.547285927710618,3.420985271659447,17.943100287699053,11.750559521327887
1.688,20.915898276905864,12.236126062914082,18.619285964394294,10.24339486800909,20.582535872179506,3.1338452900163247,16.437390397948548,11.106921587760553
1.692,19.23367022248749,8.789765459769114,13.237701095196826,10.69065187126398,17.453539987858676,2.347684648226277,14.238921307500277,10.076258926212176
1.696,17.6194318481339,6.459252979904704,7.810756975815821,11.920050508760141,14.043851155338416,1.5224100260384148,12.306163573330196,9.073575133423219
1.7,16.952883140381346,5.837840712514662,3.8434856076346477,14.053720482587778,11.220944053615312,1.2663183699478395,11.415742493252765,8.566998587970375
1.704,17.58365431505854,6.894395186149268,2.2497989375879115,16.83246476293789,9.410091593827019,1.9579986672324594,11.771631183570207,8.776223572519484
1.708,19.060601756830238,8.845009303756342,2.97992175271429,19.615835775607593,8.476127939826256,3.462423285771365,12.904988700067406,9.496295616762836
1.712,20.32522282876016,10.445018503242864,5.178635046833733,21.627087490820486,7.982160957537417,5.165738252399024,13.968696993284539,10.198815756384647
1.716,20.296463297496757,10.611225936903793,7.768198715264589,22.33856481913608,7.62844135866635,6.3241433570965455,14.271059451742985,10.371672959850002
1.72,18.502757748134172,9.02934375138284,10.067896351483796,21.764090573910835,7.558964701302102,6.505065067245596,13.713198185461806,9.87092808586749
1.724,15.368144634997407,6.365067628461475,12.063949067727663,20.449447873784266,8.288904040301531,5.833258316570209,12.834605217265562,9.020185237810438
1.728,11.945856908537735,3.8792154586235483,14.137229814659804,19.098705794753187,10.23218863285183,4.832530209014294,12.37257479193795,8.336567131483207
1.732,9.240924134901434,2.6218447776382163,16.453220834435342,18.040487793272405,13.116254272693368,3.9624675118648156,12.583896869240562,8.027290991088194
1.736,7.532850367437277,2.6696122121011285,18.44123979069991,16.873688560604023,15.691116172095462,3.1516641576363327,12.761687465803334,7.592381141969781
1.74,6.116716893380726,2.8904341874349484,18.753786978417338,14.554079095135421,16.031397044807818,1.6581214711950452,11.302964266737035,5.853238334962953
1.744,3.669494916345684,1.4712045464584662,15.860721573299088,9.963214624020111,12.409012873734355,-1.564357736515376,6.439499179423365,1.5180200116828928
1.748,-0.9265066992898028,-3.015302270907341,8.991708105762882,2.6758371112227906,4.3251120955928855,-7.16915874389997,-2.6927012444593856,-5.963404517329764
1.752,-7.7515891983357506,-10.58377108104014,-1.0939366302773124,-6.496802452095835,-6.8651851583872485,-14.76585628605062,-15.194421075424543,-15.732781428889211
1.756,-15.514339948585075,-19.470637831883323,-12.019325633835251,-15.551685581836864,-18.168357446779737,-22.743407578813276,-28.29962770426755,-25.489715065827113
1.76,-21.97357622171421,-26.724642645984204,-20.570770153190097,-21.98650277150591,-26.021704560345825,-28.760791963288284,-38.21815136175974,-32.226469065488345
1.764,-24.913856712502366,-29.50308350396972,-24.0213488469999,-23.817678184322176,-27.758746837368562,-30.698131115304932,-41.6133986757377,-33.439037016368275
1.768,-23.183884027434942,-26.415623158402013,-21.361544280209273,-20.429773532680883,-22.778627183284698,-27.62482961432761,-37.039160003690995,-28.240936734537172
1.772,-17.25832931358991,-18.210222480087396,-13.804492991423103,-12.844691484098803,-12.840967802036175,-20.27205343888636,-25.65032865547255,-17.82941753517116
1.776,-9.030928650901387,-7.436768319490511,-4.283331018652461,-3.288535105988558,-1.323487123355335,-10.774469756279359,-10.822151191674493,-5.045165783336415
1.78,-0.9827639383765927,2.70181277888787,3.8100492758130713,5.700316606546949,8.205824717608266,-1.8164525193642476,3.156857930105616,6.757228974533973
1.784,4.84642722066701,9.704193900381142,8.045602595488162,12.189748138822324,13.425510713666881,4.422694998305815,12.726480765451925,14.992107666635093
1.788,7.563865738869936,12.638479643867868,7.832441988245591,15.377156711619136,14.024796490897643,7.006886061883051,16.285866561311195,18.672524560702186
1.792,7.540827781062944,12.184109353951499,4.41597985223234,15.575667046950912,11.514637516298535,6.388103395596772,14.534870575407695,18.46439643071153
1.796,5.986256501585558,9.947798720668288,0.06966970787470927,13.780782925626227,8.258294078193103,3.9605089833912643,9.863508080425163,16.03551731602147
1.8,4.256779752124203,7.516181584621336,-3.054444545453407,11.104711623142066,6.285603640231784,1.3031615601030353,5.158164203929118,13.120624859661802
1.804,3.274798452890991,5.778633250701205,-3.816103561912314,8.357662226435423,6.480849581276743,-0.4935159235410538,2.6212402603077862,10.798778283116008
1.808,3.2858674572171367,4.792598806566275,-2.3576855186502144,5.89693399531734,8.460207910593454,-1.1568170039026882,3.0750029133714634,9.276724425899374
1.812,3.983039575502062,4.131697638550577,0.28466367790770164,3.718391736550984,11.085784699214855,-1.1313770480119274,5.963898735393741,8.175004344491754
1.816,4.833647082961306,3.3919814010450864,2.9167184791713225,1.6524265900534374,13.22829989810998,-1.1899034207162913,9.915372367589043,7.0360367481835056
1.82,5.3802865420029775,2.5000240414865402,4.8084470479079755,-0.4645156164197033,14.334639675244034,-1.9960461874943576,13.480576427658889,5.710078855915526
1.824,5.390259061328379,1.690823113517581,5.918785011722321,-2.683158673286016,14.544222189886568,-3.804027469112043,15.71261612192393,4.427352786201482
1.828,4.841449274824754,1.2527254644337518,6.6679483569341755,-4.897755094779313,14.372515517323336,-6.403253985172341,16.36726732677471,3.575373123089321
1.832,3.8339787127815725,1.2836581679002848,7.489297947934574,-6.8372488110480845,14.234420120188588,-9.259067058988876,15.756082323950068,3.3810248314680393
1.836,2.5213399677822963,1.636506274918247,8.466738530435578,-8.107302099666413,14.112839714675829,-11.755554590452448,14.418418936271337,3.723999783963336
1.84,1.0722268886902384,2.037369088136984,9.253467305848062,-8.318546054953913,13.563494613966213,-13.435211847856408,12.797424848797164,4.196220643917968
1.844,-0.33326341512292856,2.271493456794815,9.31483228714842,-7.270197369019115,12.036142402080259,-14.143154695577323,11.088055755373716,4.353332863854575
1.848,-1.519113566735541,2.2879609191159034,8.292073196676938,-5.123108214959757,9.284122092683901,-14.0604387600888,9.263744860618317,3.9832990953063927
1.852,-2.3262211803667014,2.1898602789378856,6.276407387625113,-2.426120084296599,5.626679426631199,-13.585707229516629,7.2317287435716935,3.2309994136371643
1.856,-2.6116640781547176,2.1657246174054308,3.823667150527399,0.062443174081636243,1.9058415952231371,-13.128706663515914,5.004090965524483,2.5067053123575533
1.86,-2.250411464598983,2.425987819713555,1.675639692387449,1.6960885651260469,-0.8498920167621691,-12.91036860971144,2.768419723277475,2.2457652918237727
1.864,-1.1441354200210299,3.1819535799786536,0.3601648745870989,2.249932386063847,-1.8871696413225436,-12.846661188079452,0.8412749821363832,2.6721534261660054
1.868,0.715973430053964,4.60349756790356,-0.13205824713077163,2.0089925197207776,-1.1042208061553538,-12.60932215296998,-0.48632167192499764,3.6882210902363113
1.872,3.1552072852950914,6.700411275269289,-0.38682050977604376,1.5723661935917335,0.8545585778692839,-11.832077236764235,-1.1133114234398818,4.947392020074858
1.8760000000000001,5.755416749568212,9.149777982348496,-1.2814178501230344,1.4615789409681383,2.8277691673420122,-10.372993676341139,-1.2045638909830814,6.039192690111577
1.8800000000000001,7.891300681299981,11.195908718696955,-3.5134232353511834,1.7663319276452967,3.612217678581146,-8.483631589318975,-1.1392734923629178,6.682158074483141
1.8840000000000001,8.90495374267175,11.782977302708332,-7.161294444334999,2.0678722816919617,2.4892466184282966,-6.751514610201411,-1.3434421055444545,6.819559534817927
1.8880000000000001,8.38090646123942,9.975526485876799,-11.521395637940259,1.7082722490040396,-0.4188558014029695,-5.833108976143194,-2.0867790792626693,6.582694969935801
1.8920000000000001,6.395171448855308,5.520557708463912,-15.315450880854769,0.2633726510712222,-4.128250633689277,-6.095302900663228,-3.3385599075527352,6.156109341933643
1.8960000000000001,3.5801491925674327,-0.7680807889373682,-17.193363312040674,-2.0682982519256257,-7.145433129274352,-7.367602735890614,-4.767562158001056,5.626969280559024
1.9000000000000001,0.9194229126501341,-7.105435781631968,-16.313639708955634,-4.415380701291724,-8.046892927107365,-8.96829938094561,-5.894565499868804,4.922207950301527
1.9040000000000001,-0.6720331113783686,-11.394407538643463,-12.718322789176455,-5.597630620857217,-6.057242274959208,-10.019148241659423,-6.318600074898313,3.8637749355170854
1.9080000000000001,-0.794297489524979,-12.19518857052708,-7.336412476655823,-4.7425817923599425,-1.3845808958058115,-9.905947366765758,-5.914821014805966,2.306754710266887
1.9120000000000001,0.22319097089075512,-9.500600592918545,-1.601224612313672,-1.8030427546395913,4.840067602912313,-8.614650809802697,-4.896364344283029,0.2866610422897793
1.9160000000000001,1.4729150480359294,-4.859561427975677,3.1356162019555995,2.3096937748346136,10.979428962144084,-6.76411012814242,-3.712412731058066,-1.9281655850331845
1.92,1.915944703801415,-0.7295440988418704,6.081469763335008,6.0627392326437075,15.478264510809822,-5.29613622945908,-2.8486574238704634,-3.918036839269007
1.924,0.9178741253704175,0.6691768214618605,7.180044941786946,7.958225419283281,17.388377403641243,-4.963593490814674,-2.6279539698889494,-5.290986863639773
1.928,-1.444671081229444,-1.6081800898200527,6.905687044288243,7.152033143343033,16.601823661910203,-5.9281647822235755,-3.128508694222546,-5.8837924323947846
1.932,-4.43894630583668,-6.823295805822909,5.857565062889989,3.7697686904580223,13.75084720178802,-7.655740438957764,-4.222207183681348,-5.8543347861759685
1.936,-7.054664352734335,-12.988931465129554,4.403512295659311,-1.2106962645884778,9.854389319205438,-9.197729141475975,-5.701267501215625,-5.625700383219737
1.94,-8.5113909779393,-17.89627742362336,2.5683901979800794,-6.402184967039375,5.913500927039422,-9.689003890446656,-7.406106029693547,-5.674537681033144
1.944,-8.62384314080532,-20.171548824342608,0.20352091735639988,-10.535346680147995,2.61704347344039,-8.77969535677039,-9.27266794291154,-6.269532628534307
1.948,-7.850198465843505,-19.82079402164254,-2.7329151674148306,-12.85022014791366,0.21852634333481546,-6.786489301563051,-11.301696109338081,-7.312784552820631
1.952,-7.0317055401339985,-18.028885738209283,-5.9980940544292025,-13.238538058259564,-1.4453491510412277,-4.480404686426482,-13.483223450980404,-8.378157281629683
1.956,-6.968348602966216,-16.394074566742802,-9.119113612681758,-12.151190500470875,-2.8518959809730404,-2.642459476502154,-15.71456938508436,-8.940432475365014
1.96,-8.074153807901212,-16.08486923293549,-11.671001755522411,-10.38510927918287,-4.649877087985715,-1.6587127789944134,-17.788988755246464,-8.672867566952391
1.964,-10.265451548476221,-17.36448232029852,-13.57182322564313,-8.834943437005222,-7.47779036877364,-1.3623810961325944,-19.448718295219805,-7.651713026951711
1.968,-13.092865656082495,-19.681290536689175,-15.192001487128437,-8.269819694937723,-11.746203599745058,-1.2150995419433457,-20.492674031718707,-6.351894318320319
1.972,-16.00169329223536,-22.162723593305145,-17.152222068320953,-9.140283872020518,-17.409587590512274,-0.687607849905362,-20.872341269215212,-5.424833994126857
1.976,-18.556390888352325,-24.14946735375497,-19.90565793819951,-11.433066932361726,-23.8245156816306,0.38310201706644875,-20.719767193771077,-5.3778400053479345
1.98,-20.53271755284527,-25.454554351639672,-23.362285179585797,-14.62470881057152,-29.811776864793956,1.6642451622365115,-20.29933256658569,-6.328979377146879
1.984,-21.863018036729272,-26.23525977084637,-26.77868011554574,-17.784162571268098,-33.965165763964706,2.5120082805933635,-19.883612774371613,-7.9634670958644165
1.988,-22.52601388949779,-26.655715852174126,-29.034473872043236,-19.86292814084436,-35.14320642850407,2.334752104375184,-19.614980576408016,-9.70909380547846
1.992,-22.44949524333333,-26.60109315457248,-29.133219444693623,-20.074380260290127,-32.92694995104239,0.9377271389821544,-19.394411580991346,-11.023541702264993
1.996,-21.49850432154153,-25.65155411947444,-26.65978073377073,-18.214564759550285,-27.82668494774498,-1.3452361556828691,-18.852538307573013,-11.629904590548449
2.0,-19.58042409804807,-23.35569755580309,-21.984523353246004,-14.781419095928413,-21.115733513406667,-3.830517571384007,-17.46892334447557,-11.597928315875379
2.004,-16.77336188432787,-19.596404493202044,-16.089040114291947,-10.786316026634267,-14.324910204796197,-5.820584045332907,-14.797324525055501,-11.230139657939162
2.008,-13.411448924496653,-14.81960935141069,-10.156849648993102,-7.3547931062812495,-8.661037453255176,-6.936662241692829,-10.73925131084252,-10.870229810621368
2.012,-10.051407456752031,-9.959311727852764,-5.146866717547255,-5.28607051711424,-4.623438489230011,-7.252244072919893,-5.718472348184605,-10.744683015570445
2.016,-7.307572153412593,-6.086287574381458,-1.558762259411651,-4.773916086607642,-2.0018429973097227,-7.164667473067311,-0.6376068873869372,-10.915657754674612
2.02,-5.63758471203937,-3.976614197118579,0.5292110116479307,-5.419454089150804,-0.2211390657589618,-7.117488082974887,3.3872098957117487,-11.345977735651104
2.024,-5.146634437687226,-3.792251523367213,1.2885041344593446,-6.471970174984563,1.2167946941876835,-7.309939289162685,5.46936712041952,-11.964512324386078
2.028,-5.526705455864203,-5.034220319850647,0.9659436995493706,-7.168782622665731,2.4388587471103165,-7.585760399058927,5.365589181043106,-12.674560291747412
2.032,-6.18761048372312,-6.7783347430377034,-0.17898134043525715,-7.0124002198313065,3.2021321324050405,-7.542319800943915,3.6416943798149077,-13.307912119817729
2.036,-6.50912707901557,-8.045461869757673,-1.813768644117772,-5.858458117944338,3.152382736467189,-6.7713742694868415,1.506628237165387,-13.569600461755954
2.04,-6.134204095946416,-8.160019391626065,-3.4999696190775467,-3.853946305043337,2.126702925772861,-5.1064928016985505,0.3144923366162402,-13.07485834663521
2.044,-5.15243988017437,-6.9661198234359745,-4.776233909318762,-1.310415450014716,0.29323614121767605,-2.719558053844594,0.9634977257128412,-11.503079791354821
2.048,-4.068976006339199,-4.841951872798745,-5.369866629108401,1.3758633319439468,-1.9711128127942175,-0.050084005186363356,3.4647379326856935,-8.804970642990838
2.052,-3.556062952155571,-2.5211326803566863,-5.394920370045838,3.7508126450434247,-4.345624293030141,2.38980654475381,6.916205653040379,-5.330044988200598
2.056,-4.090208658283586,-0.8041765234759168,-5.370291827347501,5.334007084240966,-6.771653442764546,4.213057975645825,9.897238656103582,-1.7713974337034415
2.06,-5.657785870861062,-0.25200750941598926,-5.97295726612856,5.727338960272391,-9.407936185710696,5.257630936657733,11.108428091307815,1.0978893809763122
2.064,-7.692790975079106,-0.9556261130476287,-7.605484613925,4.8091364079457435,-12.33597182815447,5.576612388918875,9.97007140063397,2.778026581838958
2.068,-9.303412253912256,-2.4706245301902072,-10.028200698203818,2.9100510417501937,-15.209293779183099,5.342254230308754,6.887813233358429,3.286102206651549
2.072,-9.671187333495027,-3.9454075241333157,-12.280058880903198,0.8435820594224879,-17.108280679819472,4.759659805696174,3.077066314770491,3.1558400026826803
2.076,-8.419215455095923,-4.42145834304506,-12.991537922111092,-0.3119189528874813,-16.78214750175357,4.029142062028313,0.03939402755486299,3.1622618357193915
2.08,-5.783013186481071,-3.2153332746308934,-11.00078393304375,0.3441911516788423,-13.216615373608875,3.338492393332217,-1.0670141132395656,3.9154803305809764
2.084,-2.479006121340035,-0.21926749705698967,-5.948071544200502,3.072526038103433,-6.24397393393815,2.865513447970443,0.1384573118748449,5.550448036605985
2.088,0.6370073249736379,4.006510913689908,1.44835744499278,7.239535765293567,3.1431638796104835,2.7324456718538386,3.1744170616893825,7.668549694844614
2.092,2.9474033917502993,8.414430994516351,9.601681747483326,11.467807706786743,13.002115717063361,2.9468415209316845,6.962849729495247,9.558501805414153
2.096,4.312527419732078,11.868003861663283,16.676276739877267,14.183762945311628,21.124620850375322,3.374704715633925,10.303251319850915,10.566428417630277
2.1,5.039283846641183,13.573379585537168,21.290799504630286,14.305176511429636,25.8764348594691,3.774334333191291,12.308831707664012,10.395723443618863
2.104,5.638401191941966,13.369652215950055,22.989397727731557,11.747515961556473,26.800966652936268,3.9214354973510126,12.649652457859702,9.199152644138167
2.108,6.5073973446035325,11.740144127977374,22.257609303295794,7.465730053279685,24.686726507415642,3.738872637246459,11.544705925082326,7.4266550164484215
2.112,7.724615883278943,9.563721792502747,20.136291604253074,3.0128896527373854,21.09054008706812,3.3715554788782356,9.571189660259279,5.551207490856086
2.116,9.037701902561253,7.722138685058326,17.661358959216614,-0.18318101224031125,17.561877806353323,3.1320812410972394,7.404335907977838,3.8399105207956836
2.12,10.01982202500119,6.750929342169911,15.417633377867332,-1.4641731239601086,14.97919989169759,3.3322731866296635,5.599070086692336,2.3008145705923653
2.124,10.298454058406946,6.689614713544415,13.41897751237957,-1.1691270657199766,13.309493421784282,4.1063944920229005,4.4757086704896665,0.805135835011697
2.128,9.712193919040828,7.147318803801454,11.289971268573481,-0.3648897383015992,11.835525924607737,5.308106216820761,4.092279696899823,-0.7297214990767316
2.132,8.355194465746536,7.531313871847715,8.615700540418175,-0.22475893739783714,9.69102537641902,6.567799259441017,4.295146080480436,-2.2138756127592387
2.136,6.52128473558264,7.310808218338025,5.239506036962666,-1.3967422225412065,6.371763144014039,7.481036279723412,4.79789443274467,-3.4102256633608476
2.14,4.585737097846504,6.194177563481162,1.3455283828814117,-3.694450700486186,1.9678406292925956,7.811761214395574,5.268593584466544,-4.079478836348926
2.144,2.8958343126270165,4.187657501004878,-2.6538242756139425,-6.23127748907973,-2.9390239329588894,7.613298896352717,5.436882074483947,-4.131336750162291
2.148,1.69490049872104,1.5552245107473937,-6.321719304678481,-7.901918975042236,-7.596880353087727,7.178823799847578,5.191363348369123,-3.6900836930142304
2.152,1.0751332148338406,-1.263485697912074,-9.33847423576367,-7.931911466495649,-11.382881298129632,6.862629992471739,4.643970707324115,-3.026077116146439
2.156,0.9681348271758452,-3.726127738246646,-11.508861609419,-6.199727256618871,-13.91876832520893,6.8741250339953694,4.11651983909087,-2.4099074128965867
2.16,1.1636347679607297,-5.260015560298825,-12.679662901627353,-3.208567967648378,-14.995930301506178,7.157462174154716,4.0247217517739955,-1.9840213346442397
2.164,1.3892338290579573,-5.3510589748233315,-12.64705969048714,0.24004936180608638,-14.430048750511105,7.443306744243273,4.695816747680055,-1.7262492576719524
2.168,1.420848925583698,-3.684302908243353,-11.180408830300166,3.432570275009766,-12.024735320435866,7.415068134908324,6.178544586271528,-1.524644995092217
2.172,1.2036497897053664,-0.2863314859387174,-8.156699089490303,5.99004250185817,-7.705126080199989,6.9057146399936755,8.152917959021579,-1.3016658982430727
2.176,0.923358402134113,4.394070215239708,-3.7278071207333596,7.879676304987697,-1.754654922769987,6.0064755327111925,10.008834968810788,-1.1079785383863054
2.18,0.9484018566414534,9.52311718342844,1.5886012909300007,9.237281515446512,5.034156898477704,5.018666215954681,11.078774466772757,-1.1224193454582974
2.184,1.655012760076147,14.072368293457203,6.996837097130992,10.168727675481932,11.458252046596272,4.30298237056104,10.937401880618381,-1.5648865993347272
2.188,3.2006840369984957,17.10504738767486,11.649636006787205,10.649959621335256,16.254197433464356,4.090293365443358,9.61901767954896,-2.5827568136650143
2.192,5.368725734069358,18.058742564030126,14.923549271875345,10.574585711529608,18.55363434675678,4.383219717140264,7.65148162833043,-4.161034294022102
2.196,7.600437437907772,16.91367993108088,16.605682173312744,9.885341282742502,18.191743909053002,4.993623331281924,5.862529420199735,-6.100481774933428
2.2,9.195531795904515,14.156905625840636,16.869409744679615,8.656290805428398,15.685461659091288,5.6620599074158235,5.021671577044799,-8.070877363312547
2.204,9.606922350484638,10.579162811123524,16.088536456441034,7.072610089579257,11.900051049305944,6.209928920824495,5.476574366598243,-9.702688620540812
2.208,8.675080396898124,6.992201005775769,14.585625993966687,5.327383145851172,7.595020975446687,6.612049367968211,6.9516944631413935,-10.682173199731892
2.212,6.6938867213993944,3.993548531900842,12.482428837507769,3.5357015784931036,3.124018250047129,6.972008197883042,8.626664990314566,-10.82652591784722
2.216,4.293844001524121,1.8749242779326778,9.749773748229131,1.7459442950098492,-1.540904697043402,7.428705479885593,9.486046367083077,-10.12311212144914
2.22,2.197816847373815,0.6785724286745562,6.39874812528592,0.03969441115873451,-6.493022296483332,8.043751577522926,8.770572093351802,-8.729758101618245
2.224,0.9833195355080306,0.343111287222996,2.708971433180409,-1.3440700977739652,-11.49071738152179,8.749443938218974,6.357557330526788,-6.925580662800257
2.228,0.9411567334651636,0.8269025890153898,-0.6910993932685869,-1.994347686515198,-15.759750400958751,9.369296145531735,2.8814282820974313,-5.017868374106342
2.232,2.062501243099234,2.146575266724483,-2.9727375172639086,-1.4665445375110266,-18.1665913486122,9.706486647339261,-0.4718968877283487,-3.2271770587125843
2.236,4.111886181243904,4.3188030833746325,-3.4325715025659065,0.4766251991838999,-17.715954295860456,9.636155352689002,-2.4252241997222654,-1.6086398159596342
2.24,6.712176852810899,7.250924335256741,-1.844815886153242,3.6593869370856282,-14.098846176832012,9.1459895162875,-2.1378552477964377,-0.05325851289842376
2.244,9.417805141578413,10.676480051412966,1.377894679073279,7.480562102384283,-7.953199613237075,8.332365074268637,0.4426355181019517,1.6185556201386362
2.248,11.769565967905095,14.179343390840813,5.308747018083409,11.11422135423976,-0.6730778595749598,7.351663599770291,4.5452066650326515,3.5050599949411776
2.2520000000000002,13.369879910147347,17.304767538868873,8.881801919869076,13.835785377078764,6.161625965960752,6.372008998720048,8.879362358838534,5.50057405338589
2.2560000000000002,14.000375127369182,19.716981286849602,11.351084210732552,15.302291419545725,11.447167700133946,5.553905432373767,12.171332590338466,7.289440996787334
2.2600000000000002,13.722223347899103,21.300867321405008,12.573335675561111,15.620066132113038,14.955323815888391,5.044608421931343,13.670847830670937,8.473450649955112
2.2640000000000002,12.8884016747989,22.158095883034548,12.987293732519447,15.182937362512462,17.261838726636938,4.9819736419214,13.41302963724172,8.778418272421902
2.2680000000000002,12.01459853192344,22.49791121262706,13.29899417254137,14.380438188668904,19.246246985558173,5.460753158689727,12.1239765503326,8.221644863980089
2.2720000000000002,11.531698698405478,22.477097795139457,14.045784089561323,13.35887914914042,21.45508524348486,6.476367195260536,10.821760310032687,7.134755356170217
2.2760000000000002,11.539084092969517,22.085854682543413,15.279696519345407,11.975724761960578,23.686255192533963,7.870627652511189,10.309328573380299,6.0089179398366355
2.2800000000000002,11.701972177790879,21.14541500890971,16.52760310087251,9.957628899690178,25.02886132562395,9.315907039159015,10.7978317111303,5.234931153464146
2.2840000000000003,11.396753646646687,19.423262477303638,17.05967270949509,7.15795767938414,24.347168677199534,10.390807668786351,11.851437308345226,4.883231741117669
2.2880000000000003,10.055097135108326,16.80499812769841,16.293678181458745,3.7264855955035046,20.936311838918755,10.714930711613647,12.66549596554961,4.655593978118617
2.2920000000000003,7.538368361383505,13.44007438025443,14.126405734597824,0.09721967953771582,15.00123212950416,10.100362427392042,12.52869949737999,4.05403768387842
2.2960000000000003,4.334221931780917,9.7830484433116,11.02362115126482,-3.1791043227807165,7.701550941599521,8.652417996138524,11.2354129093614,2.6831615164746268
2.3000000000000003,1.420943632870035,6.4810342831030425,7.808228941671587,-5.660296800671432,0.7268412865734035,6.7478803143927735,9.212329075614946,0.5186445484342244
2.3040000000000003,-0.16157486547935207,4.151885742597585,5.292754293526855,-7.148200575789957,-4.382708966235839,4.901966657407229,7.295310053492244,-2.01087854953704
2.308,0.16787210873310698,3.1423236056275243,3.934584768165962,-7.674932057349963,-6.84116804609863,3.5593768877174625,6.269195522347104,-4.180419046824227
2.312,2.1966399074271408,3.3865475330888444,3.692953941961946,-7.381758849152504,-6.854983886269736,2.9152701754289865,6.4346029575140165,-5.275868549906733
2.316,4.971108860493018,4.440091630916953,4.1378639881858135,-6.399745486614961,-5.41149405196029,2.859320407801988,7.4413613027329575,-4.896918230874803
2.32,7.223871783717328,5.678901083841993,4.712057372612605,-4.833097113641202,-3.7461993186905147,3.0571689010475893,8.473157989200786,-3.1051296066891894
2.324,7.9694144041801,6.580313895938787,4.994880984814529,-2.845158308184409,-2.77589860961524,3.1391920697241176,8.689807461935231,-0.36707118941680505
2.328,6.947803547846604,6.9261990788492085,4.816270724584513,-0.7678594722244156,-2.783839327047474,2.8808846917457913,7.670282700494056,2.6472013731456627
2.332,4.687919266287253,6.828218421238034,4.198342653693658,0.8914834637326408,-3.4619433369688295,2.2982921852270692,5.620592077829372,5.301900004048434
2.336,2.1803386211418285,6.566150186991706,3.2112146490167106,1.5940906673548056,-4.240933578582258,1.6051308483240518,3.2389842352942537,7.147838838486706
2.34,0.3371533947689329,6.329540860824068,1.8635717021865617,1.0067502926647194,-4.683982570049011,1.0581425772152215,1.320295742418125,7.95766950588694
2.344,-0.43844985153216953,6.039592909653209,0.14137266730807596,-0.7808459532840857,-4.700300997834347,0.8044239324997307,0.3515082006609873,7.695467240802884
2.348,-0.36132661306055525,5.365455930571329,-1.8523589006863403,-3.2201479151505055,-4.495189212579135,0.7955810547957753,0.3130939065788425,6.480307053719912
2.352,-0.025148637391851025,3.951714452706085,-3.762590573714988,-5.499088609605337,-4.319435906916681,0.8233993752445485,0.7790928383351456,4.571635718754919
2.356,0.02395811076635823,1.7398991827491272,-4.979324723488162,-6.883198752631586,-4.20794103798363,0.6478322636384064,1.232067788837412,2.3578056482086254
2.36,-0.39576281073624386,-0.8395989923520801,-4.856375246943685,-7.039644442142105,-3.9066866566996623,0.1135083260171541,1.358230980584608,0.29659692639540935
2.364,-1.0644159196917826,-2.9533371658215515,-3.045658540129807,-6.164087660792916,-3.039614835016664,-0.7915767747075506,1.1604220928546738,-1.2153722110805916
2.368,-1.6051113850154195,-3.7300025566794943,0.22826079249887243,-4.846632136612641,-1.4050482901325836,-1.971856593510097,0.8349658257417332,-1.9963428803639545
2.372,-1.813160927524308,-2.7269407868537314,4.145816203319441,-3.7408216430274592,0.8043203482978356,-3.298688514942455,0.5329481102153295,-2.1609506717550175
2.376,-1.8184087478147717,-0.22623348230558804,7.587335815263259,-3.21123453037319,3.011097035447449,-4.656257609731256,0.20694707661914435,-2.061569220787817
2.38,-1.9565984121884696,2.8379790483427314,9.609563804959294,-3.148381233995849,4.517898464308644,-5.930463662004627,-0.35670108510635146,-2.0904680536035585
2.384,-2.4315835318788004,5.330193438622985,9.889723844463333,-3.033140998882118,4.896686632574301,-6.938969164089144,-1.330816071561685,-2.4316790035629765
2.388,-3.019391222831217,6.503830498821344,8.865286288111179,-2.2254102809733354,4.248947661652892,-7.397882361861775,-2.635928327861734,-2.921170750314843
2.392,-3.075765561247607,6.390192507485892,7.46469381265274,-0.33589812095607385,3.1591260382292603,-6.990398826308933,-3.900772303292797,-3.1219845005854836
2.396,-1.8956485979519186,5.755422191541868,6.571809501152188,2.514638156346848,2.3474106474716336,-5.539068278598393,-4.642447679108159,-2.591766196973026
2.4,0.7498689147365667,5.611186507058619,6.496880199093312,5.66894703838625,2.210173160408999,-3.1969294356233604,-4.574515422362538,-1.1907893684567625
2.404,4.26021589796656,6.570187969425433,6.785979937313527,8.180815332791099,2.5434389457698217,-0.5042687343582202,-3.805931938753133,0.7833700337052392
2.408,7.306237172545991,8.422742259878532,6.476127790675832,9.218280186573793,2.6209854474632266,1.7522654644010345,-2.7897589519437815,2.736975644813697
2.412,8.421926715424348,10.20565032956307,4.67981469388269,8.44221272564971,1.6100609771104928,2.8688988674493885,-2.040026356489193,4.133632153831229
2.416,6.800617455255718,10.746034289558622,1.1700670717507364,6.173592772876418,-0.9125712375131343,2.579948454356554,-1.8050571696587667,4.845787806407145
2.42,2.8266927862788975,9.35681063386835,-3.399342399244915,3.2500049703776313,-4.652056091146733,1.2187933922718912,-1.9420395980416743,5.265169698605689
2.424,-1.9842318881478036,6.283747288127813,-7.760663546503906,0.651534304937968,-8.678935335538881,-0.40935570965348234,-2.0883422742645052,6.066610832487925
2.428,-5.67679846188895,2.623894433848477,-10.663646573393294,-0.93894513174439,-11.87060233165164,-1.4240833992505486,-2.0354341029755005,7.730630598212144
2.432,-6.819777459897352,-0.23195878202324138,-11.49511091250099,-1.4059985343551489,-13.425819985478597,-1.3123758166311745,-2.018470610812983,10.120875914509156
2.436,-5.192234432165833,-1.2968631740056367,-10.508517688890038,-1.1543104446953976,-13.150352308899187,-0.16284837647322092,-2.6572774720951884,12.409325156929413
2.44,-1.8177330711368427,-0.4288183993331245,-8.551670069831403,-0.7806906844701871,-11.365753482347714,1.4317253546551,-4.529946546667134,13.44935327699352
2.444,1.6852030650013035,1.7393520538336134,-6.446591484578221,-0.6373025676932684,-8.52591458507527,2.767708125928266,-7.595112501487733,12.42382942688215
2.448,4.04441554335159,4.286827479434919,-4.441731104850419,-0.5666156649888308,-4.853829767654702,3.461298787862006,-10.897540059609469,9.383732231767453
2.452,4.984668974007832,6.554562917915973,-2.113501345154873,-0.0034731133115428747,-0.29037108439661097,3.637313049622662,-12.855235982915588,5.315392407770389
2.456,5.207040008380488,8.39358667607138,1.1879035480155835,1.578352133460271,5.161239181131577,3.7467862128285105,-12.092886805654302,1.6248391829141724
2.46,5.696386764404224,9.940562891102104,5.589582287704388,4.106925541529449,10.907008783737751,4.109589960500216,-8.421222308767824,-0.7108570529762233
2.464,6.813907929408515,11.126877382049088,10.166793146548798,6.615527993890737,15.470913859063216,4.510100954788413,-3.3506943264272877,-1.8337090086503167
2.468,7.792307546009056,11.317315635241926,13.03087577423912,7.464893286348001,16.760562150583155,4.12642583538468,0.26729471918974923,-3.0855796439290657
2.472,7.007705192310766,9.414842957562655,12.101328807908658,5.071577391896767,12.90541239364154,1.9196238022302623,-0.565125236563631,-6.340919333749696
2.476,2.942497943014132,4.480663693038309,6.2292179881113725,-1.1761719136967486,3.311059408101528,-2.692481871731161,-7.474709295552202,-12.88413687418307
2.48,-4.707968039696766,-3.467911454454679,-3.9523123130788917,-10.315660596399766,-10.645756581498176,-9.276523304567036,-19.66863735469326,-22.43503645432986
2.484,-14.462339078277296,-12.99263757994106,-15.953949409475399,-19.902188019961045,-25.74248782383927,-16.288824745563716,-33.94847962277072,-32.894835033417166
2.488,-23.447063960036644,-21.499893306961326,-26.287803589875807,-26.872321560253226,-37.935383681627286,-21.598800326054516,-45.88001218230488,-41.04068867645924
2.492,-28.613873399182978,-26.206174853953712,-31.870996267822193,-28.811258450036462,-43.87471183094044,-23.393523661118707,-51.58485939271168,-43.868326716067145
2.496,-28.16361979240645,-25.36326915824941,-31.30181279410533,-25.0285077408181,-42.22158444706429,-21.0106873444729,-49.30579289309799,-39.93636783564489
2.5,-22.439904460428238,-19.11166735327663,-25.396926341074845,-16.901213576985356,-34.12749579672334,-15.27017932350077,-40.022499764435224,-30.037571067498334
2.504,-13.771846888628204,-9.471222252167422,-16.722544192371174,-7.271115568624964,-22.64740717658981,-8.094814121961917,-26.85331670211849,-16.848559308670247
2.508,-5.359124652248681,0.5359292458716709,-8.409393394239373,0.8010780301143541,-11.400744304974296,-1.6439929050616229,-13.614470385723962,-3.7688521448185384
2.512,0.19271011831881424,8.18679621990725,-2.8601756332805053,5.3127117408109825,-3.130394453465101,2.5949063597252007,-3.2898236772380187,6.450300982804151
2.516,1.937586988263888,12.129029875886431,-0.9418532083855098,6.021243870829494,1.1680846711113873,4.312728877965128,2.884035857197432,12.618622610849798
2.52,0.7350896094368409,12.693892478701287,-1.9871830413919724,4.2658101752883795,2.214014015245766,4.256416696865472,5.381957397697079,15.170094778738303
2.524,-1.504682253266651,11.373508448076905,-4.449813061907889,2.0857957032766308,1.6691182273547156,3.6263973252205233,5.618656124197969,15.470541389261257
2.528,-2.9849890881995407,9.827541471232053,-6.785584326336448,1.1332499618067686,1.114726610350317,3.3560225804149013,4.976530404702544,14.850758115354665
2.532,-2.9333989613335802,9.012661882360817,-8.082001138162923,1.9489100850729528,1.344720296192122,3.681691233199899,4.18552996911103,13.923033861878935
2.536,-1.7838765207645224,8.902981908844026,-8.18009269840445,3.931797497387265,2.2723264133255725,4.192699627773436,3.301229168000873,12.503634619747459
2.54,-0.6471461583863629,8.858776904908268,-7.395567002677353,5.908389817939678,3.3591013931719544,4.230018836762838,2.1118419117592566,10.070705663410308
2.544,-0.4699679823966676,8.323033901772533,-6.10865201905267,6.918141282786223,4.200500309986182,3.3562299715879362,0.6033967807700265,6.383503474346185
2.548,-1.4237869861903505,7.343921938703261,-4.530611510203471,6.742653644819939,4.85815184908347,1.5960956588173758,-0.8707571688839835,1.8409816311178702
2.552,-2.860067978929294,6.5875835963562395,-2.7384942702226454,5.923682757078268,5.770350614597419,-0.6446771564528717,-1.8020277054267808,-2.6222828101151663
2.556,-3.7826247874210708,6.863620016805839,-0.8554076848981822,5.338655507373801,7.344578130082482,-2.866367046711048,-1.9032464563292706,-6.001541556642223
2.56,-3.493038481826602,8.501121781042343,0.8197306807335281,5.636145476483648,9.553519502920835,-4.747361526793156,-1.3481602625436153,-7.719442012099989
2.564,-1.9919959593526073,11.004706713729547,1.8878040574411443,6.878453465126654,11.820471408464073,-6.212507324625221,-0.6766023696138745,-7.8560190782104655
2.568,0.0795935349890442,13.23608652269695,2.0829533830521996,8.563904171845934,13.272556020652473,-7.313903152295552,-0.42916295964619167,-7.001652202449918
2.572,1.871030929714209,14.028061573526088,1.4946890869007348,9.974605219281102,13.204982655658114,-8.05191987526814,-0.7628123125771253,-5.863382489758237
2.576,2.8225144207009976,12.850017918579283,0.5958465407538824,10.601304422835142,11.452761081688777,-8.307279631299934,-1.3259445611986393,-4.901310417971445
2.58,2.912364061026267,10.113448672625054,0.00223265165027442,10.382650617212562,8.452093752045812,-7.964643358034664,-1.4991621521910474,-4.204506805329629
2.584,2.541325882105184,6.942289429897983,0.10895287437392653,9.655371327148941,4.977285687062476,-7.10936895879513,-0.8336941525842576,-3.6357459701774815
2.588,2.175716213746682,4.5497228518844395,0.8190927705391005,8.881183442559632,1.7312127855927884,-6.13520636025487,0.597257254667511,-3.0808854016751184
2.592,2.0277083081772957,3.5981908192709398,1.5525829288105797,8.35821646387285,-0.9456084675312013,-5.624036019226423,2.1803946989982705,-2.6019335018721677
2.596,1.980311898943853,3.914375564251486,1.552081051930145,8.086650915242899,-3.091042056142669,-6.037535786793342,3.1085436518601455,-2.3902077617092345
2.6,1.7542845451551443,4.69422201907355,0.29127199430195105,7.832878105863301,-4.895023426210855,-7.421057398643825,2.8583080390135365,-2.5792442670018545
2.604,1.1850736850042267,5.04549862973272,-2.229860259336192,7.337959343102966,-6.412752475421485,-9.310900430401944,1.4931747152929802,-3.0926583596833552
2.608,0.3834440085845472,4.509841698043601,-5.476507984312775,6.505328695979642,-7.428498073607443,-10.95453150164576,-0.3989310482043038,-3.6666596348860594
2.612,-0.3353610147124755,3.2546870691958247,-8.647950888641162,5.45604048918176,-7.556680052246293,-11.725164645853056,-2.0862444627730383,-4.037314443057767
2.616,-0.6890675609047321,1.85780274712738,-11.044981050909882,4.43666306834416,-6.510647557142875,-11.491206510622305,-3.1332891919898884,-4.167705883448093
2.62,-0.6531525798886832,0.856263529184389,-12.340576827894438,3.648864989709409,-4.35556731903057,-10.72282324055459,-3.6216313827887916,-4.350458802701951
2.624,-0.4919608313543904,0.38202903677597533,-12.600883004694197,3.1198607719004485,-1.5577647960603827,-10.233278612951835,-4.0057863711008395,-5.080965916825562
2.628,-0.5649276029158727,0.1250701352228134,-12.093991584769583,2.687269523808709,1.2136769035346333,-10.715664507872589,-4.716642578685423,-6.762155916730762
2.632,-1.0388264645749814,-0.3653802992424744,-11.036304467143509,2.110527491470748,3.423053761249321,-12.33727485250165,-5.775872069110164,-9.42515593523001
2.636,-1.7082103524113563,-1.263490420460812,-9.450895335158066,1.2285524997264474,4.926704749263081,-14.624781756171615,-6.692179898988343,-12.65822033063796
2.64,-2.0741257652410923,-2.242102714318662,-7.2350750847592735,0.06560883227416525,6.002014120290596,-16.712266552525307,-6.723273528672962,-15.778144431713372
2.644,-1.6349827628329194,-2.607571454234403,-4.348933550285892,-1.1544410003191388,7.1334765942979175,-17.780015174663276,-5.324958272282856,-18.14021458687705
2.648,-0.22003987060122654,-1.740654358850179,-1.0030117269050152,-2.1092401978630733,8.666779991996464,-17.445461365082338,-2.516779414014991,-19.415279862384978
2.652,1.841144682823142,0.4265007970118404,2.3012966645196684,-2.535053836845691,10.540305535148946,-15.886045780718632,1.0622252199132163,-19.67180096021525
2.656,3.8331361780618636,3.20458917108499,4.922210193174124,-2.3628526093120854,12.236397760781756,-13.657711011675929,4.441125431351793,-19.250758370532253
2.66,4.989393088391921,5.359476568159835,6.3092342828558685,-1.7818244418722315,12.968293593755334,-11.36688543443006,6.743867726172539,-18.5510666307091
2.664,4.863618986565257,5.673570577197097,6.208229749475095,-1.1840302955620245,12.013917191335622,-9.392372020681705,7.517326799856619,-17.8694012190183
2.668,3.5211522382330713,3.5502429085267977,4.715942185626318,-1.0231048926177664,9.031810448538181,-7.824827238035141,6.786041050537278,-17.376646699362027
2.672,1.4490948901997172,-0.6667427206348293,2.1708936383997752,-1.6460931525775777,4.223236675117505,-6.603563430365739,4.860913127713729,-17.187726340691825
2.676,-0.7364451481466858,-5.824767935526097,-1.0252230322860214,-3.1632015116156253,-1.7186820549775348,-5.706252699789275,2.094506633910214,-17.41725835608986
2.68,-2.6216065486451043,-10.495343376322126,-4.564251665466372,-5.419315047227883,-7.840335355675961,-5.247302672814385,-1.2570771481478005,-18.13671316012801
2.684,-4.169658452171234,-13.614785864302803,-8.261522566301437,-8.068112235295985,-13.222694754547547,-5.399872471125946,-4.977800698307419,-19.244502471775377
2.688,-5.667709729697435,-14.917292085706777,-11.983967891169641,-10.721401291787288,-17.239409359402316,-6.217842383801326,-8.73325702705688,-20.384894847957185
2.692,-7.5002812654123545,-14.956826573675926,-15.548566709763463,-13.092502538878307,-19.688942462548766,-7.490406852652086,-11.99447131565148,-21.02526463330105
2.696,-9.894602427191558,-14.738171543414182,-18.67128943646844,-15.071954402063966,-20.779471308173697,-8.765233461746902,-14.154485725060567,-20.710935496226284
2.7,-12.791156425577697,-15.17890518784725,-21.02163412051391,-16.713640852154185,-20.986378904062803,-9.560540080604369,-14.80545474789551,-19.3812086630694
2.704,-15.866812510938757,-16.661876771385778,-22.327930891060987,-18.1262549326525,-20.827525680121425,-9.617823288455384,-13.98064325201949,-17.527635361387638
2.708,-18.674022274405615,-18.891334511959485,-22.484864064166686,-19.348666007713746,-20.654942323751357,-9.057283826079129,-12.199892057386023,-16.05599088943609
2.712,-20.80635749308169,-21.074596692740442,-21.57625116282088,-20.273395320446753,-20.523055473545128,-8.309873832256471,-10.243703933599136,-15.868834851756674
2.716,-21.989303103283987,-22.304334721670784,-19.7999281986431,-20.661912415514962,-20.197700126473137,-7.855683585733459,-8.76830361497241,-17.375959330404612
2.72,-22.12217791283024,-21.96844462213062,-17.376176021029096,-20.273656927798584,-19.309323231709868,-7.9435425236856645,-8.01792272772218,-20.211408294574085
2.724,-21.27413678209564,-19.988333767291806,-14.478090795303615,-19.017112020112563,-17.578147337518658,-8.435719193403202,-7.797066960556549,-23.338348115988993
2.728,-19.666366921539748,-16.815573374678024,-11.241685307101761,-17.04489922831044,-15.013773565477777,-8.894378875607345,-7.7210883686821035,-25.516509860528686
2.732,-17.65266216054033,-13.227232130929451,-7.846006083100292,-14.738644983389122,-11.983245748577929,-8.848473657873456,-7.575040748774882,-25.883669471360236
2.736,-15.659475098300732,-10.019467877170655,-4.579265377760521,-12.576028944626614,-9.103914430625537,-8.07673355145971,-7.514279957406643,-24.331408705421268
2.74,-14.077287116063303,-7.7294161279523905,-1.834573744396721,-10.949519606812828,-7.002556191258009,-6.745357864150719,-7.9630786461661955,-21.48113587331011
2.744,-13.09864234680083,-6.4609023851552365,0.012281880153295788,-10.007744050458541,-6.04397373915026,-5.289294463671467,-9.256167733411075,-18.288668828141567
2.748,-12.608283244892391,-5.894523283731132,0.7601442661327837,-9.623040469865373,-6.187086852954508,-4.142948095062366,-11.287763384908885,-15.532575153279254
2.7520000000000002,-12.21051224808184,-5.466374226157882,0.4918830087042352,-9.494202790694771,-7.034957664881176,-3.4716054578611875,-13.422147692692079,-13.479787604874787
2.7560000000000002,-11.406657710959394,-4.632317536720279,-0.43281455899818866,-9.329693892345404,-8.052948908162989,-3.0649373384894716,-14.754257234043507,-11.895208069763726
2.7600000000000002,-9.87753023814389,-3.1278988153594582,-1.5387339237777269,-9.029701571551414,-8.849039853021395,-2.48004757985791,-14.611561849525287,-10.353812245941185
2.7640000000000002,-7.702169449475264,-1.0943902434523807,-2.445832745878988,-8.738273501778622,-9.348999861583252,-1.3174893564300874,-12.965286385349373,-8.604393610390503
2.7680000000000002,-5.385080156627623,0.9856852029031415,-3.033919395631301,-8.748976722464931,-9.785022228908929,0.5098961303851866,-10.491591897580975,-6.7477294501775305
2.7720000000000002,-3.664605643376376,2.5043366245788548,-3.468640192555995,-9.315932879733964,-10.513014820209037,2.6791376048313396,-8.232014748711208,-5.135287214554637
2.7760000000000002,-3.1674000606997197,3.016768180618101,-4.05843004390772,-10.455035731949465,-11.750424852496963,4.59966375430804,-7.0212937229116505,-4.0718793425343165
2.7800000000000002,-4.0862366910065475,2.4538082963388206,-5.0422241533212855,-11.861665692838187,-13.386008425362661,5.711601580986098,-7.037029042161066,-3.5486342329245417
2.7840000000000003,-6.043747375015187,1.157379998370061,-6.400897576178977,-12.993220530782764,-14.962044498209025,5.790927322341304,-7.727670335091261,-3.205844288712683
2.7880000000000003,-8.236850341506965,-0.28839770394529296,-7.814662947740999,-13.296730422135624,-15.842274204145951,5.074359038926104,-8.162900104773826,-2.559157461323366
2.7920000000000003,-9.78571359210514,-1.3417791778658739,-8.788664907848897,-12.46553401068877,-15.474334968290577,4.146112445051131,-7.595349703268312,-1.330592138873044
2.7960000000000003,-10.096708393263157,-1.745037460084177,-8.86951672858163,-10.589712819751185,-13.62252886437227,3.6511067995720623,-5.894222564298843,0.32944754747950356
2.8000000000000003,-9.081583385908061,-1.6083870936822677,-7.854599313366862,-8.12845919630945,-10.467341730056432,3.972723683730692,-3.6045557770905816,1.885706086730579
2.8040000000000003,-7.128211660319266,-1.293940974193447,-5.870290377135916,-5.696307107216398,-6.5315132378361795,5.068273942994438,-1.6087714193486136,2.713751076853555
2.8080000000000003,-4.864905663711852,-1.1881345783724555,-3.316597117606534,-3.787367458043491,-2.5002976438254336,6.518609895173995,-0.6333576817651192,2.4458681132816764
2.8120000000000003,-2.8803195182094896,-1.494648816763629,-0.7048715268749675,-2.5776945132645324,0.993674694910851,7.762298240025302,-0.8835299475019838,1.149554684333566
2.816,-1.5214948607098222,-2.149277666090029,1.5376910783065796,-1.8975493788525455,3.5449887469369514,8.394014058366793,-1.9980159426256705,-0.7592844450957728
2.82,-0.8436928743386716,-2.9006027530817846,3.189840004642292,-1.3854669486559033,5.052909563797357,8.351563949775027,-3.3196566816636732,-2.804798892296617
2.824,-0.6881653766735099,-3.4723368832432016,4.261047700571908,-0.7221166634255951,5.695923766415262,7.912126782206542,-4.272459110932914,-4.737288499678016
2.828,-0.80337617646137,-3.7020927092353304,4.914834362838974,0.1832409870430638,5.818008302368753,7.495880208644849,-4.626272427674621,-6.623971468282093
2.832,-0.9329634310861366,-3.5800676946416843,5.343696646639728,1.1603225885166921,5.780014532145287,7.402093217138372,-4.511950809396467,-8.691270593058903
2.836,-0.8515895750596769,-3.1927512675333674,5.648709304060503,1.892120889250009,5.805583353227348,7.622566834684221,-4.226194789440797,-11.03509607844353
2.84,-0.3971671745822505,-2.6404933079859347,5.755310293079447,2.082134364628473,5.871770769878594,7.823954144610525,-4.006169043973614,-13.404811377080591
2.844,0.4879257047254555,-2.004545955480978,5.4188563785874635,1.583531806740723,5.698524095202572,7.532325070972433,-3.9195818552519768,-15.227122331004693
2.848,1.685319222246278,-1.3956029580923541,4.3049280916405905,0.40707611275297495,4.853018876346425,6.404642952868244,-3.9116483264149338,-15.86229265582665
2.852,2.849005834632692,-1.0324384812765857,2.124726678790921,-1.363430801976051,2.9524278316880554,4.4373648035521,-3.9344898517285856,-14.941742883847951
2.856,3.463305137927705,-1.2540712582018614,-1.1972110238550613,-3.65191255722425,-0.11738191698077571,2.0037043351153443,-4.0272704173810325,-12.577392037711661
2.86,3.017465794902648,-2.4198647276663223,-5.420182988129909,-6.405019692058318,-4.08115577503122,-0.320409821461908,-4.290280941024548,-9.31695254661895
2.864,1.2488791938506552,-4.717099267177559,-9.996383677409995,-9.514260693053757,-8.323731803460078,-2.029585500070425,-4.7833609740659995,-5.877393562334646
2.868,-1.666270545701252,-7.98940447151972,-14.220336351148035,-12.715966267025351,-12.121977273542143,-2.926280588943655,-5.448807790906585,-2.8217584906786897
2.872,-5.11827013394776,-11.715927277482137,-17.477489311158024,-15.579145894527073,-14.954824842326389,-3.2186287095612442,-6.132981089049736,-0.36953458946948103
2.876,-8.274530885429328,-15.166439333554422,-19.45502991920307,-17.62111395255181,-16.714100988924883,-3.3622784213541763,-6.680811675411405,1.5809337207383578
2.88,-10.435317036745403,-17.69571626437505,-20.234793780309246,-18.538918450248957,-17.70356151872386,-3.772378218168342,-7.0357263116347895,3.2487693856397755
2.884,-11.346570622344245,-19.015052487823937,-20.18840166852783,-18.40707405682474,-18.400405980272126,-4.5801321855799415,-7.226474792367753,4.745526454105516
2.888,-11.299404100606921,-19.286385706218198,-19.721852843162424,-17.702884990037887,-19.100866048628745,-5.55491528088919,-7.243847698560103,5.9784694145095045
2.892,-10.951191180670378,-18.97481679801831,-18.998583592777777,-17.09895986167885,-19.6477600648725,-6.2371838859560285,-6.907617241546177,6.723857143601663
2.896,-10.948003278902945,-18.538446906577065,-17.801042499863797,-17.10661882464342,-19.42383160422014,-6.216239060846874,-5.866343114944129,6.7906093736201
2.9,-11.55644835727918,-18.1345879636433,-15.643622426822617,-17.763336631592324,-17.640899475072956,-5.40018975684734,-3.792632526327907,6.154962727666657
2.904,-12.486913116490939,-17.514054463939146,-12.074481165055886,-18.53864579283845,-13.784036549715665,-4.094646116901231,-0.6831109855206705,4.981988619086792
2.908,-13.026440985012925,-16.185951184282203,-7.0224647469758565,-18.549211053424415,-7.984342274195228,-2.8523873236722466,2.934585429171875,3.527925319348469
2.912,-12.406409678182797,-13.747401838161409,-0.9830241339884651,-16.9824702631297,-1.0954945787412953,-2.165294896361047,6.086124026346852,2.0214196885077627
2.916,-10.201335404090173,-10.190198830035001,5.084255161744181,-13.50793255669771,5.580242577051649,-2.1704441333376963,7.746495645787832,0.6146906471589091
2.92,-6.5729723480911275,-6.01683595392285,10.09336563849763,-8.476640485341818,10.773039924823024,-2.554033818306152,7.357039377094338,-0.5703288865915397
2.924,-2.210284846643333,-2.0684165849975216,13.263267198805693,-2.787676197101632,13.701760384223007,-2.6948551031148327,5.19488427584065,-1.3475942021999003
2.928,1.976839856386789,0.8260047192978845,14.396423914960451,2.480671956753781,14.266116215376087,-1.9990666108049027,2.312753338490211,-1.4418234329136794
2.932,5.222830846037539,2.1762395446201594,13.849811124287498,6.474562370702074,12.905288742779135,-0.24048905205950177,0.035627685248186935,-0.5941345176559025
2.936,7.1457562602131475,1.9570554286566448,12.233052149240734,8.802976185479451,10.22817650913521,2.27716606949798,-0.7204977946628333,1.2427476083591955
2.94,7.748856957718317,0.47076726425262905,9.998745186092947,9.505464823784337,6.649091418258649,4.8076481434973175,0.04876769537122527,3.7492321037792067
2.944,7.229326895099234,-1.930141142010143,7.19338526470608,8.836020775298152,2.253714051065913,6.484772598214704,1.44733359510019,6.2611660216943505
2.948,5.755220824228104,-5.059299439142819,3.5192097463525442,7.042660717895615,-3.0396235843388695,6.706672644032551,2.2197022315444883,8.018354521673416
2.952,3.3814611785978457,-8.903697557409146,-1.3281637028264868,4.299719591571943,-9.141752880469312,5.407953595797835,1.5198203824174925,8.536472847126902
2.956,0.15880973965582257,-13.409643760925007,-7.2435846808951965,0.8120599609767396,-15.517175953260221,3.0951769908613187,-0.5335285715358395,7.886112107228996
2.96,-3.6539914295097446,-18.204923075254612,-13.486362184776908,-3.0183682482315817,-21.165019916116876,0.633015197268378,-2.8475393106234606,6.706814346827571
2.964,-7.429085242237619,-22.46048726856867,-18.779677586252433,-6.506717593220969,-24.890955650368596,-1.0829772159988806,-3.891589848346939,5.922111936586134
2.968,-10.2447046156515,-25.061175209004887,-21.752907489748623,-8.820303728774718,-25.765447760592565,-1.4582655056229896,-2.525105885592893,6.251751891227343
2.972,-11.213984297918557,-25.047450580093255,-21.509038088672696,-9.294384750635857,-23.518473043415042,-0.4029205439424004,1.3488879608934212,7.7838593661521145
2.976,-9.89799368586651,-22.089109026211247,-18.004384782373222,-7.744286534724324,-18.652535397785698,1.677611432852018,6.692695210135412,9.856665886347116
2.98,-6.588829230544263,-16.73590603280269,-12.078519587774508,-4.596267895464223,-12.228654595748026,4.063480212045306,11.806861262318876,11.323354977778422
2.984,-2.2573147028038534,-10.257924119688937,-5.100846031512901,-0.7207128072516866,-5.436913892651546,6.014199360585508,15.112376822876968,11.096716746963807
2.988,1.8396827834647524,-4.137246146302232,1.5569230851552902,2.939901488692385,0.8042208455552213,7.036836278349256,15.826132992228281,8.690335896241777
2.992,4.701269936992247,0.5340641974433993,6.959628796512561,5.747145916073862,6.038751297348654,7.036640051532004,14.180858632821582,4.483981136966406
2.996,5.991410865151352,3.4360381995095963,10.779445725091477,7.546031838681529,10.1879386092603,6.303999492407684,11.136014575229524,-0.4250700488757957
3.0,6.088532043831464,4.976812697594255,13.148233451881083,8.546384468356166,13.280681852749694,5.323610019757325,7.784916650996479,-4.718096633507912
3.004,5.763578783262915,5.878141065972727,14.354345566684287,9.016597044759635,15.212923374061006,4.51994549682388,4.827358942233218,-7.435580214953063
3.008,5.67347093090774,6.64230257464186,14.57854850341198,8.990834397513652,15.690307841928416,4.046760213748939,2.3637784614319344,-8.35839912544651
3.012,5.968452874521319,7.221302260739094,13.82701056142946,8.199941214543742,14.398737815178663,3.741194555853099,0.07051770484974895,-8.007706615187146
3.016,6.245666248400681,7.07214986767417,12.053718889832112,6.269686879704864,11.266936549370996,3.268348699260855,-2.41869019703347,-7.304455602808133
