Timestamp,O1,Oz,O2,PO3,PO4,TP7,TP8,Fz
0.0,-3.9479530755670567e-13,-1.0471623568264476e-12,-1.6231460620019789e-12,-7.434053372890048e-13,-3.3573144264664734e-13,-1.0199396882626388e-11,9.237055564881302e-14,4.405364961712621e-13
0.004,7.985463301958414,9.971462433658512,9.798007557797094,7.803649406105379,9.09819631641361,-4.58169729539101,10.293546991264861,9.108753762413128
0.008,14.033480061281688,17.65273626844961,17.60759981280404,14.160994690972409,17.549611193075414,-6.792239831982226,19.995788793644117,18.0342381078921
0.012,17.076403603954777,21.737407113933745,22.171242885796932,18.17238820274506,24.69897170669382,-5.520895190535066,28.45694867663505,26.30143577459957
0.016,17.31618465841227,22.380742906070488,23.33913845711213,19.772207132253676,29.919339056395938,-1.4715470086359836,34.99072016306907,33.086536404326694
0.02,15.969553204315407,20.959433442920222,21.93102229304732,19.638897193435703,32.702150244077075,3.2660172377694785,38.98844530366262,37.46113854413769
0.024,14.552205683955657,19.280878197626627,19.221529100475912,18.81169389267133,32.79262057305523,6.388874983280454,40.121616256758415,38.819082794359126
0.028,14.122506805890097,18.68047405386998,16.34230298875603,18.20688357741856,30.33095069563978,6.603763419467112,38.53669667303735,37.22755401540266
0.032,14.885853151328996,19.468422111390176,13.91074598408721,18.274217754386612,25.9313044796753,4.215507155897429,34.9169407871904,33.49069628733545
0.036000000000000004,16.30622553407989,20.962079763311937,12.016182542258152,18.923287003112986,20.63167813270438,0.7980380265098255,30.34315071438207,28.86518503023036
0.04,17.57744161520543,22.01942583822452,10.478878218064676,19.697557103941225,15.677589764371245,-1.81736236635306,25.97456694110475,24.559120880283892
0.044,18.16344417732804,21.75957541491395,9.179442622597467,20.092347640301917,12.193328233598962,-2.5830477063943373,22.692323561136977,21.27736089102555
0.048,18.08958323404177,20.068401615659617,8.230689161005799,19.832976895732735,10.84440460339571,-1.7315641836731128,20.84859651463843,19.03296040790486
0.052000000000000005,17.817730691208684,17.6275880525784,7.90195777821594,18.97462470717814,11.624757995089254,-0.4962346640171944,20.22884644406932,17.3030664305889
0.056,17.815936219443493,15.49465018520269,8.377986264626568,17.807339144092587,13.880577306544467,-0.2833618308138579,20.241319533534323,15.422042065332054
0.06,18.154557762924966,14.523743826280297,9.54294150383607,16.65881885536467,16.577750469787304,-1.8277570242949466,20.23622109373506,12.978449066311297
0.064,18.40762642290447,14.97198708913824,10.96834333323907,15.721530772479255,18.70669768322613,-4.7939166811217255,19.813175107317704,10.014358636132979
0.068,17.916221137159184,16.483210701812133,12.10282980317659,14.991110538807828,19.649112889922037,-8.033125810938332,18.958619543498546,6.9445445962161205
0.07200000000000001,16.248545186507556,18.402240082535748,12.553642157892456,14.335296144505044,19.366928643528773,-10.273365594339909,17.973378064539748,4.291496530289269
0.076,13.522203120736663,20.160165113433536,12.276589248498746,13.622596769993788,18.330398024569895,-10.808347855941108,17.239796544677226,2.4102446805424247
0.08,10.375192876602727,21.484958215015034,11.551615717289042,12.819994456724412,17.223446599999647,-9.824054146122014,16.968979351285988,1.3468992859737519
0.084,7.630606872225713,22.359643402865547,10.79308477261061,12.018296975419783,16.57693571492706,-8.196836156938891,17.09310629433369,0.8806636873377318
0.088,5.85929919279542,22.813191164626854,10.311409193848622,11.367874416514557,16.50855985206347,-6.965515865620876,17.34941244200084,0.673198020154496
0.092,5.071189204142436,22.714590418661835,10.157528279827321,10.954371402299442,16.690128209805202,-6.807139793880719,17.469699399813898,0.42056468613670894
0.096,4.70784829745632,21.729843847268782,10.118952058446176,10.67980270557267,16.541945288617264,-7.7896458336859915,17.340501406895505,-0.06322201000268102
0.1,3.9479242430791563,19.489459977821685,9.837134974344137,10.222927494385518,15.537839259730395,-9.498946139398257,17.01337194755441,-0.8562422428208345
0.10400000000000001,2.169085812529076,15.88136145079191,8.990319803932664,9.136211441919444,13.476593701767989,-11.359872040034222,16.59226462681659,-1.9707980310562387
0.108,-0.6951087529368776,11.25727665622411,7.430620246350703,7.033526586894993,10.58151461716054,-12.960917498603056,16.08002679998924,-3.388918274544186
0.112,-4.073468273617316,6.407485714959047,5.2284107969832725,3.8013960055686713,7.398931997452156,-14.20620526315492,15.30058202647479,-5.056174618932118
0.116,-7.025595397462697,2.270073651634452,2.6308321593870136,-0.2798174264863622,4.5625127940084536,-15.258793751746627,13.972792176049163,-6.842501008465412
0.12,-8.727783155293977,-0.48491849523587405,-0.03342288501095858,-4.599376355840461,2.5338558725162077,-16.384494649854076,11.896139996399663,-8.53808328835282
0.124,-8.86709753737497,-1.744126622851887,-2.4338049257261876,-8.431890715130377,1.441017499953153,-17.773337306105923,9.14687852290214,-9.910155164490604
0.128,-7.754749934855036,-1.957529116440842,-4.298819286013947,-11.227602317048019,1.0626348711082851,-19.458698890473954,6.134503456056649,-10.812179027545632
0.132,-6.158060886897937,-1.8867925291585568,-5.483052583908282,-12.853779740683013,0.9359638902182255,-21.345297867663376,3.4383657204445157,-11.2954016656427
0.136,-4.9382281509019785,-2.2358353407717075,-6.0230999627268815,-13.64356138167834,0.5463379515768594,-23.274686100348585,1.5089009982911463,-11.63284946025616
0.14,-4.682752899120925,-3.360320950819432,-6.157739185699381,-14.212262779632768,-0.4864631671362325,-25.084653084042206,0.400158525930312,-12.232373738614747
0.14400000000000002,-5.479302071018097,-5.162963234582868,-6.247748533875573,-15.101213981984314,-2.2844212507865436,-26.5974478679377,-0.2727066869285224,-13.453514897115365
0.148,-6.9030093602742095,-7.1925021741126045,-6.613361276703657,-16.437049642295214,-4.689360130443472,-27.60346827938724,-1.1065770861085795,-15.424192663501056
0.152,-8.233054670738753,-8.883798536665726,-7.364150328181228,-17.808144559133087,-7.336684556399465,-27.888078079250015,-2.544794732528537,-17.94790025343457
0.156,-8.793952835652616,-9.807312930920398,-8.313543812604582,-18.454675482803836,-9.781433316252524,-27.292338017758382,-4.583640520045506,-20.53895403009559
0.16,-8.254800939112751,-9.810805806083803,-9.053337197317173,-17.69210141584692,-11.634397896657699,-25.79772662751233,-6.743824941927528,-22.589434860347804
0.164,-6.754134284732144,-9.006621337643306,-9.140807657994038,-15.341281926730947,-12.665992642563406,-23.561652895277135,-8.315248767142624,-23.60978005632227
0.168,-4.814806750992529,-7.659077191217419,-8.331621631991823,-11.940601639264106,-12.857375762686345,-20.90471692394931,-8.764307334095022,-23.459067090639117
0.17200000000000001,-3.1229778972663675,-6.064308835309056,-6.73650618490289,-8.60075500429199,-12.397335491347615,-18.254804912553794,-8.076995048404882,-22.461621207349115
0.176,-2.2947967186499527,-4.490491938828685,-4.814319139825013,-6.556931311288729,-11.628894045495112,-16.06466993232268,-6.833236335119302,-21.349402602805572
0.18,-2.686417391692286,-3.1589723439330886,-3.182413086380258,-6.610953673415459,-10.945413353288895,-14.71534668775498,-5.939363047439709,-21.017191303213377
0.184,-4.282837745057362,-2.219132111364031,-2.32370553388807,-8.72648846821048,-10.670481983698007,-14.393381758242114,-6.139735778502505,-22.16189937220252
0.188,-6.689640601474174,-1.7191496501279353,-2.3659613457647772,-12.004957690639738,-10.973965036271657,-15.009552149735718,-7.591346849221644,-24.9677233626126
0.192,-9.229659265783493,-1.5943541199001103,-3.055145194857115,-15.06055349447329,-11.84174529929031,-16.19769706513648,-9.749583240739103,-28.974738130127506
0.196,-11.142301532427066,-1.7101354355414689,-3.9405700887465507,-16.62399458917209,-13.09930396351712,-17.417419979185425,-11.643595596077521,-33.21997381436586
0.2,-11.827945659091498,-1.9498406724601907,-4.654006922870849,-16.084920093276338,-14.463255980988563,-18.14352062579168,-12.406337770640512,-36.612988822058014
0.20400000000000001,-11.062388336290159,-2.2903579027984033,-5.106959178364942,-13.714523493084148,-15.61729342218171,-18.051848862698158,-11.765022957007567,-38.39770431757918
0.20800000000000002,-9.103418147980435,-2.8098282485604837,-5.503819174687827,-10.487766249587178,-16.298377162715056,-17.147159081089818,-10.221499195655824,-38.495201634882825
0.212,-6.638955941283186,-3.603041483869575,-6.170625454633562,-7.610963640356005,-16.37011797190877,-15.76951365462179,-8.819823917268241,-37.54160543470697
0.216,-4.589462432009235,-4.6550027994619185,-7.316731828274197,-5.996260012684694,-15.873746434131231,-14.44668335316203,-8.613489334581747,-36.574278165285016
0.22,-3.800513672750297,-5.747159961833773,-8.87571555930495,-5.933548860729207,-15.029742281349407,-13.64733602412226,-10.098038736591668,-36.49722365503164
0.224,-4.689707787035532,-6.465920299474856,-10.499443229421736,-7.060171644226994,-14.166856834141647,-13.527843133586423,-12.884347644707866,-37.58436287923588
0.228,-7.00867314011076,-6.3667647129713565,-11.726702327406485,-8.627548275511963,-13.616105266943102,-13.85258426358834,-15.815674908187436,-39.31679975495116
0.232,-9.864926804858278,-5.240727989474543,-12.226608270780709,-9.913148879779893,-13.598861245474765,-14.144287406125429,-17.484392200174184,-40.65707347345919
0.23600000000000002,-12.037658447093852,-3.328493107143787,-11.966740886000949,-10.55024793267565,-14.129962117338259,-13.950351105307732,-16.8953190842418,-40.60696863862484
0.24,-12.474398084295247,-1.3362417093290748,-11.223005779460586,-10.634124299325773,-14.981738499351685,-13.100902499747875,-13.958451257710774,-38.76424785566652
0.244,-10.729771555593377,-0.1686049715979916,-10.397226679275875,-10.55910088658786,-15.727015391008564,-11.802312970505959,-9.5528348511418,-35.573205897079916
0.248,-7.144656929151946,-0.4840622318238399,-9.772394151449767,-10.704557858928148,-15.866125578534728,-10.517241167945855,-5.146590241759739,-32.12405567602737
0.252,-2.656352466257081,-2.2818364499844144,-9.338904927002723,-11.138581693656548,-14.977115141785582,-9.671805129643566,-2.1334561837381756,-29.583373006988538
0.256,1.6477989601064778,-4.779403598752488,-8.79872918290323,-11.513679269919425,-12.849876463431098,-9.352898518801851,-1.2062781742277977,-28.568599755676793
0.26,4.993211829359845,-6.708375823746604,-7.7687451913933785,-11.235538883489262,-9.577352106790748,-9.221459760726148,-2.085460980689618,-28.82489476265014
0.264,7.194387798393937,-6.897482324967864,-6.039064508112858,-9.804480918041449,-5.560998402557129,-8.70170507792129,-3.6982430457894893,-29.39496943891333
0.268,8.605869171405056,-4.86587120935819,-3.756601839943933,-7.164566080589978,-1.4473951255573105,-7.3608262989463356,-4.72411765557387,-29.206071926864418
0.272,9.793836134690187,-1.104770019339135,-1.4096538443272806,-3.858734367395037,2.0144831868954896,-5.22816663746967,-4.223883999864356,-27.72063671737935
0.276,11.120638543449322,3.1064307354349268,0.386507457386692,-0.8827398107457753,4.179938684141469,-2.851837177780993,-2.0536696516224424,-25.27826816072266
0.28,12.48117871264781,6.2685751212539,1.1821089441240105,0.7118172977878636,4.7150718975645205,-1.0647468917765934,1.110351823527239,-22.935312631675835
0.28400000000000003,13.364775785475482,7.344825562931014,0.9355385211663219,0.2970598135004181,3.729539992537923,-0.5560022824033268,4.142580291917135,-21.897636468976714
0.28800000000000003,13.217022900513836,6.203774806073774,0.05506300866198899,-2.013534059542202,1.757403476261949,-1.4878426851260542,6.020154754858382,-22.87430390085006
0.292,11.8831238183233,3.613162268936893,-0.7921895988325929,-5.373279104355085,-0.4206797695280642,-3.363827251197975,6.276744096124446,-25.701112294736525
0.296,9.854739287848856,0.8123523118515124,-1.0101251735588974,-8.544627235367702,-2.0553713638347944,-5.227370612220071,5.145352679360187,-29.43508914863761
0.3,8.146867159308018,-1.0980397265144006,-0.3878607562251233,-10.426130565493814,-2.7127508966701868,-6.123932044578893,3.3353827764455204,-32.85758056179667
0.304,7.862669465602252,-1.5971430886608573,0.7991562832427306,-10.49002875709374,-2.4221836143111517,-5.571968185002206,1.611598214885774,-35.08717342645869
0.308,9.652654763513574,-0.8057822023355357,1.9440329821299756,-8.944424908535169,-1.6245425257171746,-3.808179391325808,0.4127301011191946,-35.97356904983026
0.312,13.336541402160906,0.7957095500945854,2.4350725634221035,-6.560756358555253,-0.9474880452528041,-1.6737426604279761,-0.29502145468507024,-36.07985429143851
0.316,17.878664452149863,2.7679181611018535,1.9879554145783942,-4.276198727840672,-0.9090816053691526,-0.19645574028628232,-0.8737349560366638,-36.29278987811004
0.32,21.720582831616415,4.935499550574896,0.770801458825261,-2.80926380050569,-1.70537376943782,-0.11108276514987381,-1.7244384158520418,-37.31413027421662
0.324,23.358377341959617,7.316433730015611,-0.7102674361090919,-2.438941226453146,-3.1697737688287617,-1.5435183904326806,-3.011676418389989,-39.32602740213659
0.328,21.924389962013223,9.843391568686435,-1.9014714776932564,-3.019490800866855,-4.922241397614734,-4.002107966960679,-4.562413071181965,-41.98660827111717
0.332,17.548304296274736,12.12838874226895,-2.4940169744239427,-4.152056493361421,-6.593530211534251,-6.629631084156486,-5.980481175803682,-44.700685576827354
0.336,11.354108905657338,13.49170996085521,-2.5450214322124793,-5.380677664708649,-7.973913032358979,-8.568812118153545,-6.881439185284364,-46.964311217033966
0.34,5.051990042909287,13.27188609021199,-2.394389952359248,-6.341752823304958,-9.029445843393226,-9.300830736818781,-7.123780609214208,-48.58911446090352
0.34400000000000003,0.3108474055528383,11.263484188383863,-2.4074102260278423,-6.809986408962452,-9.794842720468111,-8.80023193857572,-6.88773779949539,-49.70365964024013
0.34800000000000003,-1.8389292546665104,7.997229865147588,-2.7115155339547883,-6.687709753014637,-10.252790284204366,-7.481596252805744,-6.568144252542112,-50.58790492208173
0.352,-1.3487184815160163,4.639931549142055,-3.0874905929665672,-5.994912670822046,-10.294931671039173,-5.980794780575806,-6.549874190341562,-51.47610424594315
0.356,0.8970199622469011,2.50106665340601,-3.0916114871560865,-4.879662933328476,-9.803879533168399,-4.887973976961234,-7.013609145370403,-52.45633097745814
0.36,3.4829974764097607,2.367461196564083,-2.3686234597849563,-3.6367229875949363,-8.799422515446494,-4.5671506351175,-7.89911462871617,-53.502809977586395
0.364,5.048280156296427,4.042429336757827,-0.9440676805314396,-2.666873613025423,-7.531562139131239,-5.09636124126645,-9.01058485507096,-54.586626523829466
0.368,4.833805972501127,6.383906559724373,0.6914400218544614,-2.348303228223152,-6.424912324453665,-6.321988168322122,-10.170550673835479,-55.761875518757876
0.372,2.9751334081969,7.853650877130356,1.7812064852960816,-2.861114541292082,-5.877837013294197,-7.955791779801729,-11.308644225451275,-57.154369683065056
0.376,0.3585369606661146,7.265841343707862,1.6703456693885386,-4.1024003681644245,-6.059252674570516,-9.688018386516177,-12.446890191295857,-58.877326171186155
0.38,-1.8898682876157196,4.330583693011022,0.12484458985291269,-5.762462377770653,-6.8400435573480465,-11.292713085125257,-13.620681678610424,-60.93765503994838
0.384,-2.9853484163065254,-0.26579091801128385,-2.5337261223998695,-7.493816200719692,-7.890405478965519,-12.663900526683364,-14.784965933254497,-63.19913709388014
0.388,-2.817593117496294,-5.233430376825716,-5.538824194642345,-9.06433948275685,-8.88802947646321,-13.797952785357793,-15.76875447094681,-65.42780760631149
0.392,-1.9002079824209197,-9.290349784052815,-8.004779392844227,-10.408497741842275,-9.722246346305397,-14.738679515797074,-16.332903476504555,-67.38919371347492
0.396,-0.9890139786133076,-11.684820515614085,-9.306087674789552,-11.551794320830744,-10.547381127034413,-15.51961977508148,-16.305966013590776,-68.92996328919446
0.4,-0.6184734192420187,-12.391343426453027,-9.35104606458799,-12.49105491802046,-11.659842973325674,-16.15730320382829,-15.7367030509686,-70.00846846399429
0.404,-0.8235107827610992,-11.925337800403149,-8.598251673875403,-13.122334427635955,-13.268812599955929,-16.66634756622196,-14.941183753099928,-70.66743752996774
0.40800000000000003,-1.2233772876299973,-10.955737062851973,-7.83191496710954,-13.318826505011913,-15.328693602941676,-17.094708347174418,-14.41298938376341,-70.99406511087082
0.41200000000000003,-1.361250628235707,-9.947758533537133,-7.789139919765219,-13.094213470348137,-17.528337225714772,-17.518131306253665,-14.612746589963422,-71.09028046173117
0.41600000000000004,-1.0439146227158567,-9.016931642524575,-8.823387683319325,-12.70139112895881,-19.45277134284509,-17.97675943659557,-15.748877192067908,-71.06928596073124
0.42,-0.5108043787065135,-8.060779340528612,-10.785868709796503,-12.599936118237238,-20.821464871851532,-18.428316296762873,-17.689294926868484,-71.06303319552413
0.424,-0.27291559432464396,-7.0067694530828035,-13.125384194624658,-13.223660381670086,-21.62622335893817,-18.733362678024946,-20.023407352688622,-71.19909777947063
0.428,-0.7070631595162595,-5.969422281073946,-15.144308915663899,-14.65716175351838,-22.081074104873544,-18.716585722243337,-22.240457332623564,-71.54169128553045
0.432,-1.6957702106855805,-5.224624240751133,-16.29307181127723,-16.450173986767332,-22.430637043268753,-18.280181823776047,-23.936018696870605,-72.02728919033268
0.436,-2.584495702255378,-5.038376755904643,-16.371245927903175,-17.743927274377093,-22.75765914166704,-17.505699029246173,-24.942637069062783,-72.44217653931223
0.44,-2.5488587789281,-5.508027695149288,-15.590182828641375,-17.710724999961798,-22.936500370317546,-16.69700008805242,-25.356548316480414,-72.46337241962301
0.444,-1.152657197487187,-6.5094283378358,-14.433717744666453,-16.058306859209928,-22.751438446474133,-16.276829795617687,-25.424709707532728,-71.74625513972656
0.448,1.2516985070186593,-7.773014527913666,-13.401780396888725,-13.29966343029772,-22.10566218903766,-16.567450095103197,-25.36478698618592,-70.03375676299575
0.452,3.5682786840448344,-9.018279703342742,-12.760012053001489,-10.580908291591847,-21.16853010859861,-17.56045458384952,-25.225063419984338,-67.23806974166561
0.456,4.440887236222647,-10.065611252900787,-12.439307683517313,-9.14765026136184,-20.36295641429477,-18.835639247723236,-24.876137126438593,-63.47873014145538
0.46,2.90505490064713,-10.882145978765507,-12.166245943070493,-9.751543045967502,-20.18584750646459,-19.736394670607865,-24.153020052754883,-59.06959944740356
0.464,-1.1225567981756477,-11.525851798358964,-11.717181056362108,-12.301130426794565,-20.95820520499943,-19.706959553212926,-23.046770248066082,-54.46118923611006
0.468,-6.777397791004635,-12.041146093469969,-11.14540998785138,-15.957328819487053,-22.662587133438294,-18.62768689939739,-21.817462541291818,-50.16472683455969
0.47200000000000003,-12.625122511986412,-12.373940265365619,-10.8242710562415,-19.604249938384534,-24.951657977988376,-16.93623195643559,-20.923894795567648,-46.65755709767044
0.47600000000000003,-17.274706432549962,-12.375073598765965,-11.260740006977656,-22.41141352167744,-27.32928239024998,-15.435983864889579,-20.795322307516898,-44.27705198253963
0.48,-19.940912189790723,-11.915729813542875,-12.798199071006195,-24.17935617861427,-29.396983341961963,-14.893575678962918,-21.585429972996295,-43.119396442565204
0.484,-20.672536229380082,-11.021954672995392,-15.340425289707795,-25.26803970812751,-30.997399860920417,-15.612486163201481,-23.01883824945571,-42.9723495223261
0.488,-20.162298735053128,-9.931607756063684,-18.274882624645656,-26.19320871030194,-32.190687412655954,-17.23956032209003,-24.4395878325045,-43.33941567980064
0.492,-19.275107391014185,-9.017396086628338,-20.666565284065328,-27.172008772253747,-33.09196513661568,-18.915452610868613,-25.051146671091672,-43.57224418744302
0.496,-18.57943783145617,-8.609203987120203,-21.65558784034424,-27.935761548516,-33.701960534369675,-19.704239649259137,-24.250233743980885,-43.079665320504304
0.5,-18.158106059593337,-8.831674656321276,-20.890807974817704,-27.94756213204665,-33.85497350477471,-19.097349871087744,-21.907131062726933,-41.537351271523356
0.504,-17.71720896463443,-9.51962889749381,-18.716065211816215,-26.845272504514675,-33.29702517708356,-17.278389441445796,-18.41994136415606,-38.98801544966276
0.508,-16.86959004924259,-10.267510987435358,-16.00470448564947,-24.802178821309028,-31.854576984510963,-15.012517670998989,-14.520306636912395,-35.788604636984886
0.512,-15.421807759840156,-10.603772416496867,-13.733025466233101,-22.550876319803642,-29.58775505888282,-13.227721483704812,-10.943158096007636,-32.43105169980662
0.516,-13.492269263952753,-10.2031680531217,-12.513619290447252,-21.0130666910338,-26.817569839335633,-12.517756853000066,-8.13031038707716,-29.3150643766703
0.52,-11.46562495732524,-9.07503264959945,-12.374384385404227,-20.7780231717313,-24.025624957129253,-12.86625109062345,-6.136247788188811,-26.582750178947812
0.524,-9.82151918846018,-7.598908191003574,-12.854594150440477,-21.731494547080665,-21.670893335005545,-13.710232519258,-4.733703332027261,-24.083832903722524
0.528,-8.918841828948093,-6.363690913668449,-13.343125186759735,-23.07650054768532,-20.026029858390316,-14.295948625876349,-3.626762594262331,-21.480299275437126
0.532,-8.8374723505604,-5.87553189071788,-13.439572529490249,-23.756528590138416,-19.11093177413214,-14.098804428629649,-2.6181873314174453,-18.428610513298125
0.536,-9.347264211032822,-6.2770504441262815,-13.12384850677931,-23.043315200342015,-18.73521560687408,-13.066357184873908,-1.6473225588413243,-14.743554407477433
0.54,-10.03766073309119,-7.257137219100549,-12.681819632132814,-20.97210783908689,-18.620873975301834,-11.58480118768793,-0.7274597025059393,-10.467595757488425
0.544,-10.502230070366355,-8.176443452663435,-12.421387959321763,-18.333397333502162,-18.51093878724228,-10.186006896503585,0.15922703213507816,-5.822978076427816
0.548,-10.490481344470641,-8.34632364840256,-12.382136091502545,-16.22561386653401,-18.220367341685773,-9.210030194742274,1.1119744235568731,-1.0916355456170699
0.552,-9.967292236010824,-7.32476947834801,-12.240989255420786,-15.428311748527769,-17.62924641604414,-8.614307857565336,2.2616131701735753,3.511650934956055
0.556,-9.046918543833733,-5.073408812208875,-11.477783392092789,-15.949087507252571,-16.651816084182073,-8.027649978545384,3.6602058892976004,7.908428933044444
0.56,-7.886505838738273,-1.9274962767961696,-9.727248869830774,-17.021771839873843,-15.235729982611716,-7.020385184835135,5.181067143089834,12.14656162041942
0.5640000000000001,-6.606364155189265,1.587668237612199,-7.064814460600445,-17.53757735422488,-13.380436692712593,-5.3840146142702,6.540461767899217,16.33347413932789
0.5680000000000001,-5.243135044987596,4.984432982973395,-4.051060331407172,-16.649124090198782,-11.158554622940358,-3.2663594180161226,7.429039088188858,20.53722611316282
0.5720000000000001,-3.7613143000749467,7.969675808253896,-1.475361627602112,-14.200727649870437,-8.705121026386337,-1.0886804024552816,7.689913569703336,24.707402105117907
0.5760000000000001,-2.125833090376414,10.464401249556367,0.05978086841562913,-10.755129025322603,-6.157652361176716,0.701470553221867,7.4258897420713765,28.658501306084815
0.58,-0.39685658903210097,12.494115428305705,0.44725904557664364,-7.240993296748584,-3.5848521899419836,1.8659514494353573,6.950721245384841,32.13579792307538
0.584,1.2335126176994997,14.077174307079318,0.1385075612396065,-4.4228594381195165,-0.9401013340524713,2.4920495888278538,6.637427411063825,34.9477938094497
0.588,2.5174199457648534,15.209444082558633,-0.0831350340435506,-2.5146306194938077,1.908335814173384,2.9203855068023756,6.7532657971811005,37.101538039952445
0.592,3.30895440555911,15.953668551504563,0.49487287340134856,-1.1483612580112421,5.062021521538156,3.5415287306955463,7.373795522626054,38.8588441134607
0.596,3.691293412091202,16.520786382200058,2.138664519101951,0.29787390839426564,8.434616314345789,4.5807884337669975,8.398808216419056,40.650490548357396
0.6,3.9435429438267704,17.211525220525154,4.4828233167930875,2.2071542037272707,11.646452583087495,5.963582941103311,9.61062806207633,42.869617267324294
0.604,4.366991965445077,18.224696292857068,6.677129023419738,4.411756055313859,14.088087741467788,7.3578373996325865,10.754762743361411,45.65120955609077
0.608,5.070084324638369,19.44238892778978,7.792609482166725,6.2596376581574305,15.15146544074058,8.34505745593242,11.601252675316815,48.742469523892964
0.612,5.840394807113903,20.3522050304311,7.295966239417027,7.01426988021305,14.541690190866476,8.632441101871677,11.99562523098281,51.560276968425526
0.616,6.218165550041068,20.222234858829815,5.359737387708378,6.346726877322638,12.506745069395464,8.201274112308766,11.920533245539929,53.45182622330793
0.62,5.7238162475347565,18.469459387631773,2.8229657505666097,4.59167372531487,9.830207798214303,7.301370388768305,11.542156923398935,54.04018305116527
0.624,4.1453824882885115,15.051706309969504,0.8441361937533287,2.6203269856443825,7.568318534525488,6.334653004950951,11.22352162083861,53.46953602563393
0.628,1.7381929667760474,10.65538044720708,0.3970097419857126,1.3995112504694873,6.620954873950126,5.682592244831142,11.445878970068833,52.39139349326728
0.632,-0.7872330480827934,6.521414549514979,1.8377258247422503,1.4934383189444915,7.338345789618742,5.5621276374752995,12.607565051026256,51.68249568262659
0.636,-2.5203134386463155,3.94443930167116,4.7489286051976904,2.8023057736756627,9.373112732103536,5.983084343367921,14.774981474375153,52.024143857159835
0.64,-2.758318828626564,3.6717369932874604,8.115081064942544,4.674888036030175,11.861776934902437,6.800145330939216,17.505632242168844,53.58179170160737
0.644,-1.3256434774285957,5.550866822751452,10.803946904205475,6.356650809598122,13.88838248820889,7.857357443449899,19.928976551903475,55.984265788395845
0.648,1.3552720538602863,8.621684396941774,12.113160954481273,7.486762888156392,14.97276527605375,9.115624184811509,21.101993219279095,58.60255487539124
0.652,4.485383052091709,11.608990777945635,12.110473214631298,8.34300608029973,15.31093556548791,10.692212870456132,20.488188193062797,60.95399398815534
0.656,7.276596933574577,13.545016685099057,11.585670250993374,9.670913685804393,15.62136831522588,12.774480224689086,18.306402622323475,62.968346894958735
0.66,9.2784460314296,14.16773927985323,11.588473658103112,12.182080996964721,16.671627153784883,15.429062088095634,15.50289604256723,64.9490426632026
0.664,10.490819220390176,13.90033857492206,12.81648544369196,16.037677098096665,18.776112974917055,18.445987900527854,13.342081126846793,67.26019955457319
0.668,11.259220658943434,13.473309857379583,15.189679916557807,20.636141176424402,21.566940073413065,21.31841859488742,12.816633946451915,69.95395643359237
0.672,12.05085515002775,13.445447263549163,17.865939904012095,24.85413746553307,24.19612388558062,23.411748315196064,14.205410679469708,72.60609888107237
0.676,13.231711007534155,13.90732329284429,19.706182499791367,27.601135150441834,25.85278008329783,24.251741784109498,17.023313032224053,74.49353951658739
0.68,14.925812384226226,14.511231695222065,19.92793548795953,28.363676101224534,26.29145168539482,23.77229806064497,20.360956532645858,75.03063558153727
0.684,16.997225904371,14.765005825485808,18.594670737049213,27.442101969914262,26.041690516064577,22.395979846500154,23.40249224126046,74.17767864159167
0.6880000000000001,19.146742416952492,14.392968373196126,16.649343085369992,25.760413711536152,26.147558582730753,20.864777543157203,25.794556153054813,72.53170208113045
0.6920000000000001,21.042856435341392,13.530370305175147,15.440513349579604,24.360527100583433,27.56205941992765,19.888398705380325,27.63070027805611,70.98856208319184
0.6960000000000001,22.448512811351076,12.668293064625658,16.010952639175358,23.899152161282743,30.5671913576368,19.80959655300154,29.12197482416468,70.17707237683175
0.7000000000000001,23.287330207978727,12.39127458474983,18.51725587385407,24.402583316673265,34.562550076960406,20.451680236412614,30.210166275747852,70.0259708526047
0.704,23.662471042271093,13.094586912853863,22.1455716727656,25.409466383038712,38.38311111072148,21.27230463073343,30.462906967703702,69.7857108075319
0.708,23.836166783546155,14.839534062633767,25.580215996467714,26.369086320918832,40.96161492181937,21.72694799038615,29.38098615719494,68.53342271956699
0.712,24.140028083689764,17.371199691705236,27.731233878001305,27.003516109636855,41.9086843257482,21.620916569574803,26.90922355624599,65.84870906759448
0.716,24.821426652048505,20.21390484774558,28.27474518686556,27.39056045071718,41.62835727196569,21.219450967476178,23.75351303595056,62.207981101286265
0.72,25.84731791177949,22.736976298045825,27.659135495660635,27.705421137288162,40.88688990003017,21.006806795227675,21.161736647631443,58.79234011905645
0.724,26.771128443528543,24.176585125196297,26.608687628511134,27.83695819008898,40.11941437897409,21.247231895287754,20.19756210348565,56.77562106880502
0.728,26.7909013663757,23.70157286597513,25.462112116780204,27.178532647154512,38.94205289459107,21.622301191774937,20.91212758611603,56.492112395718024
0.732,25.06208426070454,20.613966760209728,23.807851126274628,24.809678086732852,36.24544909676994,21.22206944897951,21.975637942980583,57.02660145233178
0.736,21.137018853208286,14.66618202756657,20.68996650128595,20.012273405797778,30.880866595977253,18.956692797369172,21.12815340908265,56.5526050377001
0.74,15.290578537935858,6.348125628648695,15.281193240920587,12.82657517208267,22.565248043967728,14.185118544725455,16.332700519428073,53.3093470032384
0.744,8.559457164541513,-3.044205168568972,7.649856256891553,4.3382039852609395,12.470044145817631,7.254856091938137,7.074761046254579,46.70997630077234
0.748,2.419459469486368,-11.6880100306125,-0.8744537273852728,-3.5248993023275688,3.0787170309848833,-0.3899918589050202,-4.937263670275783,37.94670791575467
0.752,-1.7521057935773197,-17.789958499616258,-8.006296418545524,-8.6358240360899,-2.694719271760441,-6.644516497530802,-16.15170619767713,29.693344186633865
0.756,-3.1705313571535303,-20.18582249593146,-11.373715796413002,-9.45726556305548,-2.7247453747254085,-9.547912558007965,-22.55711000700738,24.994276948299124
0.76,-1.862331826274504,-18.70361193519277,-9.53800197102538,-5.610760012998242,3.3833752748108097,-8.090282919447205,-21.4395416469778,25.896515131890258
0.764,1.4815181803593802,-14.112056069558804,-2.6274717644105863,2.0381363766612495,14.114325079853408,-2.608821475799715,-12.62644180799984,32.52863707455343
0.768,5.897328410164764,-7.703813496586164,7.706326222950835,11.773804407269047,26.68168282078655,5.391302545236499,1.4141350911961865,43.06978573860895
0.772,10.547083152131034,-0.7667573920402013,18.948422452061784,21.673392576780458,38.11369154637026,13.87300375192892,16.656123637486054,54.576232315754304
0.776,14.92988068738939,5.780674885098943,28.64389123182709,30.198756134076316,46.249389181556104,21.042480828682542,29.21678184181632,64.20944744755883
0.78,18.812897414823,11.415776376282206,35.11507522120325,36.47426554120345,50.21031413889567,25.86511201793988,36.804830773982886,70.23996233991537
0.784,21.990117495671157,15.783380308583173,37.73657670062817,40.224496551742675,50.26876295868391,28.15400590624619,39.27260427855396,72.39644770073772
0.788,24.117339456162867,18.475867139405118,36.78304911937666,41.53188757565033,47.34889537268812,28.29942128087992,38.128523260261694,71.51666279849383
0.792,24.78939655674602,19.055782328430325,33.09103534015429,40.63368324859377,42.53415677370308,26.88535107662222,35.430077920010454,68.81892679163676
0.796,23.843652077960872,17.36597450654972,27.785924506239883,37.896828832459036,36.8287968645018,24.445043170390683,32.729777468793955,65.24049098242557
0.8,21.63799366079735,13.893899843224784,22.108619373043407,33.90129441541063,31.16294588130553,21.417960180585233,30.570931172241757,61.15696151319531
0.804,19.074181840741755,9.874078156830794,17.275647145390636,29.503056557184458,26.46186885051094,18.25422227566135,28.665967407461515,56.527196077766746
0.808,17.250907721946852,6.935018542821954,14.261832400705575,25.730607950181863,23.568635182778323,15.483906331515804,26.48295253575308,51.25763436870529
0.812,16.906493907026164,6.394797216130744,13.511215141001072,23.49731731257009,22.99025510687556,13.630701966205883,23.803174171077792,45.50125839243601
0.8160000000000001,18.029434741764305,8.588100774298558,14.74280878473062,23.281306340502205,24.63720993213969,13.009848258080432,20.925574751269153,39.7329785298153
0.8200000000000001,19.855174756926115,12.60378297466702,16.994120046481378,24.90762936768457,27.749355585064265,13.508988594020554,18.444205468631846,34.5851628779817
0.8240000000000001,21.257236549728063,16.627966219624554,18.973931007319177,27.558344937122968,31.117314760627238,14.539681084218664,16.833221263610618,30.584336853483457
0.8280000000000001,21.372458393999086,18.78601364783463,19.61208085992458,30.0585702686204,33.53918341155936,15.25591150989907,16.161484224230186,27.972335757285634
0.8320000000000001,20.10229031346755,18.067936385567513,18.541924896104682,31.324460679632978,34.28232060099573,14.959465608465246,16.12917368130341,26.684873835599106
0.836,18.157344165197955,14.834978004375385,16.235844175462475,30.762368606098896,33.28853516142283,13.469000502184969,16.368116213661185,26.443324617824768
0.84,16.589544037019795,10.605183425542325,13.668339016471934,28.4246207058561,31.027128638800306,11.213221939189447,16.729962897799858,26.873184918704744
0.844,16.13242883786564,7.2556537055828,11.731672430351137,24.916294266444304,28.153789922134536,9.012464338937612,17.35924660577723,27.608392198148806
0.848,16.752296032593826,6.0840726255311735,10.748668318292376,21.128612575410664,25.20025470464994,7.66429360610193,18.487699637604546,28.364887036554215
0.852,17.674610484999832,7.2274571718553045,10.396868267544708,17.91779104756272,22.47610445634809,7.556867764656129,20.10598264286407,28.9854788257278
0.856,17.917456741300004,9.761538185337853,10.099512750414906,15.88712540561672,20.205420231246784,8.526166629404276,21.792448687457288,29.471160667891038
0.86,16.97579682713632,12.351681678721944,9.564953428371457,15.291340840931088,18.694013085373804,9.988184704635458,22.82561351394787,29.957143900149013
0.864,15.197500658542516,14.046740801957757,9.104636545926212,16.035501142124147,18.342372862180152,11.26214602681695,22.558478035115495,30.607346254108645
0.868,13.616404214016017,14.75901994560289,9.484211719489572,17.736830286678977,19.45043164936259,11.88296570853722,20.852301415459493,31.466610117273788
0.872,13.355709378257078,15.20833223785581,11.40155016022534,19.852199136160348,21.953831399380118,11.758788492275869,18.30617448588801,32.35506164209309
0.876,14.984703274461939,16.42484388461003,14.954034846378931,21.86243453258771,25.3025832835742,11.12436553358512,16.110707345371452,32.87881453629079
0.88,18.205171531151596,19.10804812983087,19.42204110175208,23.449627677969143,28.606209032363587,10.34168826329038,15.521383515012424,32.58405820661733
0.884,22.04898249123778,23.211332345106083,23.55845095936678,24.626909252459285,31.026809446211708,9.717369919567972,17.214239266472397,31.226638399508357
0.888,25.446893560961286,27.954676903363566,26.22757664687449,25.744482716166168,32.19458439483562,9.429782100605635,20.862748605401343,29.009011159956135
0.892,27.79263359178171,32.2080988793029,27.00206057181746,27.326818240384426,32.369701674298504,9.583577961958198,25.186350011968443,26.622070137697733
0.896,29.18032595329658,35.014328867171,26.372913320376973,29.81095287674154,32.247003195404474,10.33067497771981,28.509427092385536,25.04760529675614
0.9,30.164144459626122,35.945512341878796,25.41169270569597,33.25639055944212,32.49170935692684,11.896734679105435,29.547762820557523,25.170916531957047
0.904,31.219542994848425,35.14833368556603,25.10580126369541,37.18980721602556,33.30119184203741,14.476568284293734,28.057280108860127,27.40212532139113
0.908,32.296879142398865,33.12456160416968,25.774929376093638,40.69673785823461,34.26475467124111,18.049614316695255,24.988263579485988,31.496336912178773
0.912,32.807187577201105,30.46156900730582,26.96276683471845,42.78079369948033,34.64349024347695,22.247269217197726,22.086328415276142,36.6679310651524
0.916,32.07171052087829,27.683329112957672,27.856351596993477,42.832510438744144,33.886429238622256,26.39215819994388,21.099674526404996,41.910425967329914
0.92,29.918213534533535,25.237403098527558,27.912929604171055,40.94923439554749,32.03970370357166,29.69920813318842,22.947006901788512,46.35161540815426
0.924,26.996677064712824,23.519524966551593,27.279052684943593,37.93100121134607,29.792840548886957,31.576389619984127,27.255965360300948,49.4932507820062
0.928,24.56360472383582,22.83474008983176,26.720566375987516,34.92572466312832,28.13334912435731,31.873893579942234,32.51299046131312,51.265654818880535
0.932,23.828638917914475,23.278132752919724,27.11463557144532,32.904602709734604,27.81590841167474,30.953528224323207,36.757346717393474,51.93406930680566
0.936,25.26041031316107,24.61179128170079,28.84749794744573,32.24156230362827,28.952179858956356,29.537453233607295,38.49234870190551,51.934961445605424
0.9400000000000001,28.250343137522414,26.22364110035467,31.468751151931485,32.58563296340337,30.932806869513698,28.380235255318553,37.348030138309866,51.720039642334775
0.9440000000000001,31.35015844731476,27.25303862594845,33.833348719532154,33.086333399424646,32.708702420324315,27.934932021077174,34.171455801900606,51.641982420172184
0.9480000000000001,32.9687185125219,26.87952812825425,34.653232867506716,32.84987665328768,33.24815795933554,28.17052895101355,30.51839356478476,51.868733715997514
0.9520000000000001,32.164167889461915,24.665709763253034,33.16012842462848,31.397284311369077,31.93108420320972,28.64105529853066,27.849622376672926,52.33062425035581
0.9560000000000001,29.124571095090197,20.804944515357832,29.524602190119964,28.912918298058244,28.727529480016557,28.77425219919519,26.872427851777815,52.72704634875417
0.96,25.076281446954063,16.127320635963287,24.793752912897844,26.154037951159566,24.133058892237585,28.196794211756355,27.331632238253803,52.609932742372905
0.964,21.678503033114644,11.832175448458088,20.40100554511656,24.082481182452327,18.967178325738786,26.937453091703617,28.319056623647867,51.56007746466025
0.968,20.237644583223563,9.061589690554172,17.528205892826577,23.41182256940138,14.162573013518312,25.39289299348502,28.87770834862488,49.394435172436545
0.972,21.153084718781862,8.501310248699951,16.649257679118847,24.293424569090917,10.599684659761323,24.08596756530676,28.544088268259458,46.2990767560725
0.976,23.8464152044072,10.179509505425983,17.45949428220328,26.27752575211221,8.954677350768321,23.36245548471868,27.54871572489614,42.781018487092275
0.98,27.132256157449277,13.517697873905504,19.14261882132888,28.530437307463757,9.527669585261776,23.178080272856448,26.58118164417894,39.432355750191306
0.984,29.783034729746454,17.581309969510258,20.78774574589383,30.18295626762503,12.08976084259993,23.11984124580931,26.298243419394737,36.632516134682426
0.988,30.993371234331192,21.40626965936758,21.737943780124596,30.646604625358123,15.853450740751612,22.650219753861734,26.894712985430345,34.37740033647227
0.992,30.570280587585465,24.280205856489204,21.749729901366834,29.78503641437061,19.6682552505917,21.437278616568392,27.993763614459226,32.35488608856342
0.996,28.85633038632342,25.897117286846424,20.965748979260468,27.910471670597758,22.428529392963952,19.578488345319784,28.90044577693419,30.239812980651706
1.0,26.462356855936044,26.323733411830233,19.727597750944057,25.60257765661609,23.504202514894132,17.553530702577234,29.00081169608154,28.026713221617385
1.004,23.974010804134046,25.830344345588827,18.353983288199714,23.447574766566134,22.967831323955863,15.938330638781053,28.06556478895328,26.174746861519736
1.008,21.761734407672776,24.690010919757725,16.982639945010476,21.814608623984356,21.476362451751015,15.049089045371602,26.287908177563565,25.443791096698774
1.012,19.941832077501985,23.05516996131186,15.533693630473806,20.752655097595124,19.850364429501496,14.740851005098307,24.085387218286712,26.480476703007426
1.016,18.47117128927816,20.98120828994368,13.815883714627034,20.048277507141222,18.583293182967395,14.504646209422049,21.84108852756009,29.37451787413579
1.02,17.28077676439557,18.56611493163203,11.696246406385626,19.382231004109713,17.578191916316086,13.801620314768797,19.74494719515269,33.45538755441903
1.024,16.37657991455552,16.10766706878516,9.258694837207429,18.518234503658107,16.290509812195864,12.455216960743769,17.821766698196996,37.48745165742537
1.028,15.835336901704821,14.136825910665806,6.852538270964999,17.418281247801417,14.186461713460744,10.834612506595363,16.063486702342743,40.18970294790431
1.032,15.735043740806603,13.293035284320865,5.01240121212021,16.25360332611615,11.240375266821616,9.70349134255423,14.552766938839397,40.81598265229209
1.036,16.091696605584005,14.091919497442802,4.289851767356424,15.341775598788786,8.147601962088345,9.811467266539353,13.486636613227745,39.48594964182264
1.04,16.81239094660802,16.66677597227357,5.026363905227356,15.016966694435524,6.053351597466531,11.43257524398416,13.065931970398537,37.067221156440795
1.044,17.68522974420118,20.610111271413643,7.172328231385336,15.484104980053644,5.92323082944813,14.138362523139222,13.345229810632418,34.687577335059075
1.048,18.426746304732234,25.022972482720974,10.252571801662668,16.719744891448755,7.91791490176314,16.949630518269146,14.155665830719045,33.15016404746834
1.052,18.769109334519243,28.77437168568096,13.50734307365434,18.453254170929824,11.152539190493997,18.803803078160172,15.159403846888267,32.558532033586104
1.056,18.540443599999563,30.867397857911357,16.145969494949156,20.221595664989366,14.000971719952076,19.083791651035312,15.995980275593126,32.33857454209419
1.06,17.70397798133631,30.755072222528014,17.57894558691123,21.465146237059173,14.807304457377995,17.887279474751494,16.41075364012204,31.629901823820035
1.064,16.327848301767418,28.46703191483232,17.51782862998209,21.651690232652868,12.642527107904982,15.914576333839705,16.28485595323167,29.82554703465783
1.068,14.509688006392963,24.51448816511163,15.9230281435743,20.412316715451652,7.709412382955293,14.050743626674262,15.576985299914952,26.958834209443125
1.072,12.318981145200723,19.65708637378208,12.893661288461885,17.67728177206226,1.1991665550095831,12.905771842182048,14.262201991208656,23.737111547772628
1.076,9.838865977097697,14.66483183717449,8.620332746706708,13.780018839524018,-5.291409574368572,12.585514324424366,12.360046622451364,21.221270198834503
1.08,7.273770183859767,10.170033869781491,3.432196714583938,9.454351712032235,-10.456551519389222,12.782368789409134,10.037079945678954,20.33386478200282
1.084,5.005963348756268,6.612389279839704,-2.119614588678701,5.672739394103871,-13.744580217524515,13.093051778603126,7.6857916158659805,21.439556995697814
1.088,3.550384527783393,4.2542575144901775,-7.231751828348081,3.3683104429629793,-15.358785086586181,13.339400229613034,5.8991405029190105,24.2180375171053
1.092,3.3964731886857464,3.213498638022429,-10.947101833598538,3.1420712225591387,-15.854833742395328,13.677867524782641,5.315073213749201,27.870156794408757
1.096,4.817346148395643,3.488109328232099,-12.374352785860935,5.094437246614291,-15.610052611011099,14.452807287636801,6.394474628220564,31.515812566296574
1.1,7.744360762141753,4.964533260775397,-10.971350832185408,8.835416204653654,-14.501568758658436,15.887186160235387,9.236048186792004,34.54551758454784
1.104,11.756466939390606,7.413373131934179,-6.769972201231894,13.648777340247307,-11.986143168669969,17.838451022254617,13.51897735248724,36.75255737957866
1.108,16.193359963964838,10.485718451006562,-0.44043763171725914,18.716933484586775,-7.537233607499218,19.777909470198324,18.58249615373404,38.20685559518827
1.112,20.34041078327681,13.72979081940349,6.859152980955287,23.30031117763724,-1.1762175482060684,21.023663661047408,23.60281302212286,38.98679736092666
1.116,23.610032699180266,16.637549226063584,13.802819497080122,26.823231725314997,6.229448233173116,21.108772871367364,27.789437095748212,38.978061436837976
1.12,25.612313254049155,18.69488922269005,19.225886347945902,28.850937113809948,13.088290065793672,20.036307102538444,30.51498462731695,37.886586033369724
1.124,26.116457143734976,19.446920521024367,22.360830392208186,29.05501942766648,17.62503577066053,18.286624547682436,31.396354300795565,35.49619409512394
1.1280000000000001,24.985017097631214,18.590825197616027,22.93694115237747,27.265798372836343,18.612041562629884,16.58468092299995,30.361884987513804,32.03610207528607
1.1320000000000001,22.183024044760998,16.089965771206494,21.177094734343314,23.62368448099454,15.945648661873292,15.565562192143489,27.73350953522379,28.40731339035591
1.1360000000000001,17.89661141927479,12.27222226010764,17.73283946619938,18.736288037214877,10.780512156136467,15.52105403790938,24.27280333108604,26.047363093107634
1.1400000000000001,12.669462356277961,7.830828079604714,13.54613970211949,13.677184256483201,5.1172285670022575,16.326826920035728,21.071439044955582,26.410524693883332
1.1440000000000001,7.401265043404521,3.668331091532764,9.6276933539325,9.7295026926829,1.0006052035327002,17.556313989254477,19.231683529161728,30.27954384107261
1.1480000000000001,3.1233497595189306,0.6038560061203384,6.767915210016213,7.9180044148558295,-0.3155946773791811,18.684981858730225,19.41178727137003,37.25275714073206
1.1520000000000001,0.6155776629756247,-0.9329256481740913,5.285297695741633,8.553862992437132,1.1517708422140913,19.284864279431076,21.459346568252613,45.716297256782354
1.156,0.07604890717976787,-1.045570770811139,4.958907304132481,11.071572041786965,4.22388003722142,19.150249522628883,24.395046705203413,53.39271725266201
1.16,1.0524997672812333,-0.26837572583008296,5.186802426303757,14.277526392494451,7.198356273471518,18.323650275835462,26.806951333391567,58.243980205678895
1.164,2.6686057333054407,0.7215330177772898,5.3158485378043,16.892391477228216,8.696712969051077,17.039589557551153,27.486305880924647,59.300309272762576
1.168,4.052216341498536,1.4343298443570802,4.998315766341193,18.12603551877737,8.308328264751708,15.622201764708052,25.990355543269516,57.01626063762936
1.172,4.748475640637565,1.765421515669118,4.385997168838685,17.985998986456252,6.723781882496269,14.375229788267234,22.819458630206896,52.973628565737556
1.176,4.898004689413966,1.9634954012267372,4.041942976930272,17.155087487436447,5.303584125788802,13.495313263474372,19.105037378914062,49.07976375659982
1.18,5.067901829816293,2.3810710641396895,4.57101341866462,16.501902429590018,5.296245197284065,13.006312336116025,15.955941158510313,46.67792901556106
1.184,5.830003076563344,3.1684627269439716,6.168596193947451,16.50319499099089,7.120358426750499,12.748365265399798,13.841147425026406,46.0282982660633
1.188,7.330754073388931,4.106080903865063,8.352759759994797,16.915532359670465,10.087387145197908,12.44356464593352,12.379948028483,46.40647691500345
1.192,9.121721612691147,4.692074644401771,10.076352384419465,16.90211291264427,12.721197371145422,11.861729096670615,10.682049259670862,46.73273004127731
1.196,10.382627465711465,4.4556060915646185,10.2159323201912,15.544079714468694,13.503611269169824,10.981981222467766,8.042926377455046,46.33978448284455
1.2,10.395408801480869,3.299230534829462,8.169231542894863,12.420427913081426,11.641167312799837,10.071501059861248,4.5358816507007305,45.422036542180024
1.204,8.99074325123371,1.6659394926003301,4.243865850372117,7.934505697623479,7.476085580722781,9.615340114648689,1.1370137944443286,44.93674101882556
1.208,6.695890863279772,0.39735516658021197,-0.3996918173979793,3.193459766664148,2.3408636225581176,10.100394762143651,-0.7242481046361036,46.03255350036571
1.212,4.48952827957487,0.3419613819349365,-4.230453378370839,-0.4803655353138083,-2.042180758720008,11.758311991812661,0.06450367012280367,49.35877714566038
1.216,3.326251294132419,1.944156908494108,-5.987281081088781,-2.1044991904535095,-4.286241123387981,14.416493190352867,3.683459962462507,54.661136127806344
1.22,3.688238608667376,5.009749637774462,-5.180307392004124,-1.3808468443398283,-3.8433139285081097,17.52859898304382,9.24938477597891,60.86709585072114
1.224,5.405469233071074,8.770854093710284,-2.2127534678548955,1.3216350560056753,-1.0587462617754682,20.391255558277408,15.249377954301508,66.6000444778717
1.228,7.784410139128511,12.192303296246337,1.8891036456320762,5.252561395127032,3.159860112733668,22.426264553126657,20.26908573066021,70.80250922328159
1.232,9.953571445415065,14.375174695013243,5.966295502199273,9.636373992231142,7.836227400156531,23.393257013513676,23.58959295384193,73.12162858316759
1.236,11.251214740049022,14.889156173613912,9.192358897276222,13.897874305515757,12.306266339107879,23.442023757753077,25.350533666940578,73.8791453864034
1.24,11.445725220176456,13.890903837421945,11.29233325083328,17.659270053668934,16.298146196352036,22.972924908645382,26.229666505198225,73.70097009606965
1.244,10.69407476433355,11.994151773914268,12.456121724420655,20.58776611048586,19.739904962469154,22.39256897437258,26.87825923940568,73.08077052000144
1.248,9.323132242103185,9.971384679697906,13.06014175560017,22.267371247734673,22.488849981924773,21.898059401426508,27.477661214514455,72.15001664283639
1.252,7.601842981716999,8.434036329159255,13.380773824041285,22.23539051067945,24.190050138900574,21.404699331908887,27.678954143188662,70.76694662806077
1.256,5.6506642280182575,7.626535520230107,13.456502899725933,20.194554776425605,24.367773338273878,20.64644871235464,26.926390393138377,68.81834405735665
1.26,3.5083343742493014,7.39217836258814,13.123298791077332,16.2523846925626,22.687303985106837,19.374590752847553,24.917374884518154,66.50706249478603
1.264,1.273884108850865,7.309505480183589,12.160957320360467,11.019748800955881,19.2193741899124,17.54659130432151,21.88516134239262,64.41606042109697
1.268,-0.8114278434483424,6.917256300943222,10.440552866807138,5.472322348524926,14.536092104160389,15.402378841117297,18.534238601050674,63.296395952899786
1.272,-2.4246118842771693,5.92623814494624,7.9984689746045206,0.6214927050220922,9.56371115623574,13.390284845907445,15.676431616244031,63.704178699611134
1.276,-3.281903541209516,4.372233301308995,5.06654479613951,-2.7993623721479253,5.278500974013809,12.003325519646069,13.831242326945812,65.71777696787902
1.28,-3.2668161034609113,2.6170273924845446,2.0379837376177647,-4.50567398221483,2.3809367700355324,11.577065878851727,13.019754914402142,68.87581546166953
1.284,-2.5277824571785743,1.1694612982441868,-0.6255045773084476,-4.656151676026866,1.089220222996687,12.131226041080481,12.844197575588623,72.34703508028974
1.288,-1.459435595191195,0.42216006494112435,-2.5225284331334024,-3.7027404862120648,1.140504666061588,13.325226010824736,12.77784176288344,75.23974166261544
1.292,-0.5679629015047283,0.4457863892615137,-3.437124636296744,-2.1986125752854377,1.9795719295728986,14.558474080503629,12.475346728966883,76.89572238611899
1.296,-0.2937714537621332,0.954249179015676,-3.3975077338063784,-0.6628318729099192,3.0248725722736935,15.182108626808485,11.934615363455464,77.02826508183023
1.3,-0.858473748390594,1.478019165054775,-2.644561020348192,0.48418981090742363,3.887914585880594,14.728209243880656,11.443468804608187,75.68848726965729
1.304,-2.208407943943712,1.6395648080977026,-1.5257132484192653,0.9520756962427868,4.449926145369091,13.066362357782964,11.356639993217186,73.1255658004851
1.308,-4.0734445294444015,1.3621618836129983,-0.3459858094707897,0.62338425281132,4.792979584743307,10.41716879902242,11.849302919874958,69.62247210234926
1.312,-6.092271133996206,0.8817086406575072,0.7525327163313023,-0.3829431807733954,5.052117509809818,7.223000626945122,12.796032512771035,65.38317654662234
1.316,-7.931411331902012,0.5465071973359272,1.8164344082099433,-1.6808064382134944,5.2695669674459396,3.9506404910925994,13.816081092141872,60.48983196073351
1.32,-9.36206655132645,0.5218531436997864,2.9871991104440667,-2.7158676396644523,5.311590361898766,0.9092009748414966,14.430905510444518,54.90473124024771
1.324,-10.279591996908096,0.5860819430512265,4.323340686225038,-3.0017800638196377,4.8709447654467795,-1.8187764464050815,14.232451842906585,48.51265404845884
1.328,-10.692503575367937,0.16501514508706805,5.642480687487932,-2.400400549171991,3.5551749447562315,-4.303025206089387,12.990187364847543,41.21337956243087
1.332,-10.700615340483125,-1.3749469893159585,6.512229464205689,-1.2865387694008632,1.0378744463886278,-6.606828362526812,10.687272992958242,33.06033219725265
1.336,-10.448893463609693,-4.315851508907031,6.423280963384741,-0.45314226024891013,-2.7936148036505983,-8.646510100237265,7.513707503123442,24.382692035524713
1.34,-10.1005657049285,-8.320684778728491,5.059306730684511,-0.7705153227499295,-7.747692380467811,-10.180852677602616,3.8426054319895684,15.820618056650005
1.344,-9.84152716803493,-12.497448248909109,2.513668545220071,-2.7499108712072484,-13.32407213341935,-10.945611668799756,0.17846160365456853,8.210801653745932
1.348,-9.893055653044485,-15.795794826383144,-0.6886469140479221,-6.250153969518919,-18.81183694642857,-10.866551429316814,-2.9386427322176587,2.3168870284779928
1.352,-10.501260421747986,-17.54194371723156,-3.8038467211797524,-10.503105470540277,-23.46193669327215,-10.208637837165043,-5.0725932002951595,-1.4910492156817554
1.356,-11.841547253603608,-17.78633674111086,-6.177932448742695,-14.425355363669155,-26.656439115271382,-9.52831938852546,-6.014255470614671,-3.4374296627830176
1.36,-13.858155634709647,-17.255698750842157,-7.498473534338018,-17.06179391789533,-28.02727787617937,-9.441103258629482,-5.847603561294363,-4.309752597417003
1.364,-16.13841119389639,-16.941630469089432,-7.87072236091376,-17.939845992564756,-27.50062214149807,-10.308982991116181,-4.928864001702777,-5.1740857782774015
1.368,-17.936566833313577,-17.555346574717646,-7.687555977635839,-17.16418955984807,-25.26414735295839,-12.037897882815741,-3.7714335247146664,-6.958844179090988
1.372,-18.414443602186452,-19.160030267805837,-7.381434651357949,-15.25530718449113,-21.683619822069772,-14.112638040584443,-2.8750603474463787,-10.10881771350779
1.3760000000000001,-17.017120241787723,-21.1678078429361,-7.191472695966695,-12.862899509604176,-17.214902226457866,-15.862403896691148,-2.565683690193282,-14.48126135947814
1.3800000000000001,-13.829671201414271,-22.692856238496233,-7.07538823085838,-10.54437188135546,-12.35779206929692,-16.836378359383843,-2.9190077436614956,-19.5272073863909
1.3840000000000001,-9.727846234657818,-23.06445288925147,-6.810288350991186,-8.725093325860257,-7.654318058113859,-17.078496423634988,-3.7979056506371762,-24.646459542132845
1.3880000000000001,-6.161274060979395,-22.200652030060837,-6.19601691219782,-7.793615287159696,-3.685528072264674,-17.13551218082921,-4.965681111548292,-29.505818597814425
1.3920000000000001,-4.605630796669402,-20.648414633450102,-5.234843464713549,-8.173777948486872,-1.025735444174984,-17.77712295750507,-6.223318233952341,-34.14936191730396
1.3960000000000001,-5.886741465479872,-19.269663479966994,-4.164087855496291,-10.22436691770406,-0.1359489739232913,-19.55721181976378,-7.48244773290412,-38.85136779799319
1.4000000000000001,-9.702314981025722,-18.773176408373615,-3.334317560071213,-13.982407468052429,-1.2224935704728068,-22.45812366623295,-8.745705885958841,-43.816764095622204
1.4040000000000001,-14.648925819604074,-19.374043421984084,-3.02464978329499,-18.926925457720813,-4.1270918254210756,-25.808776550757102,-10.043211619101612,-48.9280942278678
1.408,-18.809227615992768,-20.74649309750839,-3.3059343901136344,-23.973631443931367,-8.316866860042182,-28.5370799535699,-11.375297943167425,-53.68694178923835
1.412,-20.657968624664136,-22.268407790621723,-4.034194031973357,-27.80778889286762,-12.991718144030983,-29.643242434653075,-12.700578956706067,-57.39682422306299
1.416,-19.81408430530405,-23.376542004957287,-4.944264534880858,-29.42696290963886,-17.280714469466147,-28.659538484369477,-13.976411143421274,-59.480727373723255
1.42,-17.229148892693615,-23.82240361117772,-5.785710225074581,-28.623956865428113,-20.46463715281334,-25.88606904478729,-15.22345306279476,-59.75958329872816
1.424,-14.686071260432527,-23.705008773698637,-6.420156777480997,-26.111833411770817,-22.137726077339494,-22.292948625668032,-16.565602929319084,-58.558848388149386
1.428,-13.831638623797971,-23.294221897083276,-6.828652805277443,-23.171552986777783,-22.24898401723749,-19.140984526086413,-18.205359158456076,-56.601578460366
1.432,-15.251110729554227,-22.783013447946928,-7.041866316892083,-20.9826442965217,-21.022841244602887,-17.483000550347242,-20.308191185712985,-54.73383909497335
1.436,-18.076307842059236,-22.117745854578402,-7.030945636132856,-19.986137704949897,-18.815706223415646,-17.748684352483906,-22.810720050327518,-53.61606685355554
1.44,-20.36488016116482,-20.997894327494805,-6.63642293862722,-19.648401225852353,-15.98022804952302,-19.59168554946791,-25.265872551872462,-53.51138918085525
1.444,-20.102636658616746,-19.055737705761885,-5.60416225757217,-18.79667550190686,-12.80600255525087,-22.053192623692212,-26.84449851592899,-54.24291652192625
1.448,-16.306702795121907,-16.101135231090325,-3.717997776041557,-16.354737384435907,-9.551253972053246,-23.967960016756933,-26.570755805804083,-55.32121390669096
1.452,-9.668410467687067,-12.325483363732928,-0.9914897200928863,-12.090304141052457,-6.5353268871785986,-24.467730661547648,-23.77223414301693,-56.2018514730089
1.456,-2.3645321484279407,-8.349690101319993,2.18992286649177,-6.943070549358708,-4.221947136685458,-23.369208995136887,-18.556501315049445,-56.59099222160421
1.46,2.8604698424543926,-5.109510578908385,5.041494371229419,-2.7473495449908114,-3.2395624273331123,-21.308612614119284,-12.08397891902473,-56.68431309912262
1.464,3.878432584704001,-3.6213630565803214,6.514038087540257,-1.473619979079217,-4.282389216654565,-19.539360894138554,-6.429432758860912,-57.22491277506339
1.468,0.05747020043042994,-4.692332003750039,5.590079276157894,-4.361046308524919,-7.897070310886193,-19.460523520068364,-3.971228123481751,-59.3013718433931
1.472,-7.56275946775105,-8.659243971871774,1.6582891572229528,-11.357988685810824,-14.215053968993516,-22.03883170710469,-6.486690370133374,-63.90264640606847
1.476,-16.803897982179024,-15.212677350237868,-5.150275467785377,-21.113374471406132,-22.721371381082236,-27.34228006263993,-14.308955624055898,-71.37115649506723
1.48,-25.236605552843912,-23.348684966940823,-13.800964126712188,-31.45938709264874,-32.16682636437258,-34.390424314846314,-25.939710913061845,-80.98104662143788
1.484,-30.995577347593837,-31.503070815198157,-22.489632077494434,-40.145133765756555,-40.731218656229885,-41.40661586036276,-38.380183420297726,-90.90175072952303
1.488,-33.18158084666686,-37.869872907220156,-29.08837862880796,-45.47968816637058,-46.44330908979782,-46.40316080404091,-48.11337609185648,-98.64233164124664
1.492,-31.81016959813627,-40.85688010218894,-31.780702866213005,-46.6726119240916,-47.75335803959865,-47.876708153729396,-52.36511565490014,-101.87162731149658
1.496,-27.464858027804155,-39.53221656267715,-29.642154280491923,-43.81369527543302,-44.05462605414846,-45.31549363884824,-50.088835556180584,-99.28555874028348
1.5,-20.949612441525517,-33.9235262963964,-22.953163787508174,-37.62373946998491,-35.943777910251356,-39.32921639531787,-42.24727119683348,-91.13319460086996
1.504,-13.129708096035529,-25.053540452262382,-13.117256562196417,-29.166087762335565,-25.081391071429152,-31.353162122763933,-31.282052156172313,-79.14007111708963
1.508,-4.929766235863212,-14.668696177379275,-2.2039667225060384,-19.62401831786292,-13.659183911811397,-23.081302704326845,-20.049907848298744,-65.84678831798192
1.512,2.621376402690373,-4.756272950747416,7.684477654851889,-10.181140368990555,-3.6872327625599155,-15.89184942072552,-10.761499352120381,-53.681074140743476
1.516,8.486172235063862,3.0216331617898504,15.005409758023916,-1.9184167940372845,3.619369987478649,-10.49248736080608,-4.375527258401007,-44.18454015915211
1.52,11.872642644356972,7.766924766641182,19.10710766168927,4.316867786820694,8.09150952371101,-6.90751712048268,-0.657479908500818,-37.73640705694345
1.524,12.522165667677541,9.518654256566379,20.22421999153744,8.06474980033795,10.414534154198464,-4.726610956128297,1.256206964681951,-33.81765515607515
1.528,10.831122602965877,9.116530442885505,19.197082497866177,9.36315357738954,11.6093966927981,-3.4456568534938015,2.174441459073023,-31.599698773701675
1.532,7.693283749975876,7.814882705964237,17.068036680867635,8.728371762536199,12.469945445105395,-2.7039891382942187,2.4396722517353737,-30.477467510004544
1.536,4.148376866946933,6.807475177936567,14.746748947153492,6.994554343383243,13.244458775629255,-2.3182695370037436,1.9862339977760257,-30.252919451395087
1.54,1.0047160103957253,6.830268013416571,12.827914712164329,5.047055643265821,13.675776194707396,-2.1791577069393497,0.7217163088341749,-30.949169720164377
1.544,-1.3725877844018441,7.9729093880804385,11.561981898517615,3.5433558782742693,13.32518863716382,-2.1326002673467883,-1.097671047105905,-32.46566859339703
1.548,-3.0244263140594967,9.745646845537749,10.914031179683889,2.7352020706107396,11.955800837296238,-1.973850259820665,-2.8011551990164207,-34.36522220004315
1.552,-4.193803541227794,11.347198861383276,10.646858371534108,2.4564872551120516,9.745081722502391,-1.5738666231372918,-3.622332961543634,-35.97374274895367
1.556,-5.0740388749574095,12.045092505598404,10.431299261716958,2.303271419579005,7.232600298320676,-1.0249358155983828,-3.170723462684691,-36.72189227638762
1.56,-5.6806246315723,11.50341098775175,9.967050018012515,1.9089468992260663,5.058023915536751,-0.6848311905837363,-1.7480335725995246,-36.493397402644064
1.564,-5.897992619279876,9.93028884130365,9.10585086676383,1.1889012679048392,3.6777762665490172,-1.031506669747614,-0.270310317852136,-35.715839699101366
1.568,-5.608960487794548,7.9895289815705155,7.9274770539695965,0.4355106719572177,3.230986638743161,-2.3862296617890024,0.1904709321684095,-35.1105998507071
1.572,-4.828897093750015,6.491324198240591,6.6994582295480996,0.19525649478009655,3.587241071035578,-4.673992391286902,-1.04009818015993,-35.25225805277614
1.576,-3.723900867740099,6.0206868328994005,5.73682315237852,0.9875327410388763,4.501169337141391,-7.364657549390358,-3.8986636268855364,-36.20932879410964
1.58,-2.5145530842173685,6.673084645740346,5.209403464117713,2.992643828609971,5.734313052794505,-9.678433973924257,-7.650832101683591,-37.513419818123225
1.584,-1.3496481924153159,8.021767920987713,4.999689530488013,5.871919952256121,7.0644340701912824,-10.956625175023873,-11.317691501708396,-38.47072626304305
1.588,-0.2441594866510286,9.340069216311576,4.7099330303076385,8.830522879238288,8.212448840906518,-11.00494657336867,-14.189628269217792,-38.59857464385516
1.592,0.8658965470278304,9.96298542041859,3.8526155989752624,10.91298254543301,8.805043008834218,-10.2095747588628,-16.10783064251609,-37.88285082414393
1.596,1.9960665311357957,9.607444930599911,2.1461987311834037,11.396946628196986,8.460859200752338,-9.34348670078532,-17.36360900778527,-36.696188881591155
1.6,3.022228801540848,8.479792642621021,-0.25641949043802015,10.100811320301489,6.99270761176399,-9.166051322633848,-18.32043232077058,-35.43557539001554
1.604,3.70095865247481,7.119950571699292,-2.748691074098133,7.449941733469814,4.61903818374617,-10.010025040765413,-19.024826442747326,-34.132402435056804
1.608,3.782200090994138,6.063044884587043,-4.518432235197906,4.244501958800811,2.0012879357987003,-11.602266129125837,-19.10026492816405,-32.3473679827531
1.612,3.133162215687207,5.507969549493055,-4.960624802370148,1.2580026828609334,0.013925974042876987,-13.218409207106106,-18.011307106252843,-29.4538051887788
1.616,1.8242794046234394,5.209276506016977,-4.005964134954411,-1.0955845301825775,-0.651840152285331,-14.063078563105591,-15.505235590742814,-25.15269562278445
1.62,0.1314890870586396,4.6640239655769165,-2.1748026900959303,-2.8507342096704633,0.1620447126522322,-13.67146437124029,-11.93191365841767,-19.88579250741816
1.624,-1.5476924323226626,3.4798238362899383,-0.32197830440532016,-4.296044760025552,1.9802730252827132,-12.117652802951852,-8.214761276333775,-14.84676845772401
1.6280000000000001,-2.8030392164521913,1.7045758035575318,0.7966309987211844,-5.623916761384407,3.929937150166552,-9.940775592816408,-5.453641509657928,-11.518434893513358
1.6320000000000001,-3.323873653029068,-0.11530082126796515,0.8793090754791137,-6.680362230322771,5.183333075062819,-7.858021070745963,-4.398945289693756,-10.965848682628575
1.6360000000000001,-2.9742101818320634,-1.2056403943811347,0.17400703670841722,-6.975174247185123,5.366516354946953,-6.430831460441368,-5.0842560942739965,-13.269070020564982
1.6400000000000001,-1.8015085097981682,-1.0163627843269296,-0.7268127447600818,-5.961367243382028,4.7100020265322655,-5.869275639273837,-6.842426812926533,-17.425651012176786
1.6440000000000001,-0.002244096423737574,0.4037383510142263,-1.2695146894664049,-3.417777374295383,3.8641342684693427,-6.045941248861709,-8.705196719704873,-21.795796206985187
1.6480000000000001,2.1396224253637115,2.3635982813045757,-1.2569995190760892,0.3112923957653493,3.504204644190395,-6.67118473185883,-9.950977343942895,-24.863593516927608
1.6520000000000001,4.316012541654516,3.853034604459367,-0.9344606928850681,4.365257539506729,3.95200081409439,-7.500212175097204,-10.493304112095984,-25.908919642098
1.6560000000000001,6.2566529915087585,4.072368133824398,-0.8034703995008385,7.7035638137406295,5.029316337353293,-8.426558723765993,-10.88641589585518,-25.242632261173412
1.6600000000000001,7.762841371919876,2.871521031375437,-1.2966767426898969,9.53333762761099,6.195007264401966,-9.433390912786763,-11.95437411116086,-23.916612737236846
1.6640000000000001,8.687790798697677,0.8229304099702404,-2.532595399695083,9.575265164563234,6.838871731325753,-10.475407241773155,-14.277342469726364,-23.099950107428413
1.668,8.898672179088862,-1.1213677823421904,-4.2922572641707575,8.043865290165968,6.549479424769515,-11.38529883215324,-17.815347730067288,-23.46976480318517
1.672,8.239274888466241,-2.2110476696940395,-6.217649095292018,5.384294157614477,5.209056461612363,-11.909978871464773,-21.873371454584003,-24.935735582850725
1.676,6.524554275529965,-2.3699892788396255,-8.066764721116897,1.9675230125023973,2.9164479983235196,-11.853145124677212,-25.40512149430174,-26.79674258799605
1.68,3.6222051217301896,-2.264461251134094,-9.859344035160575,-2.0422048655152594,-0.14567968049709634,-11.232946975674622,-27.48449623194324,-28.200394768794467
1.684,-0.3863724038989176,-2.9018152105029458,-11.802704352878209,-6.555884916217565,-3.765754722956217,-10.313804984720264,-27.679490136994673,-28.612934112831
1.688,-5.095176336800591,-5.012648789966875,-14.070764862633041,-11.30819778322325,-7.663094682593737,-9.486816637811444,-26.183152164124976,-28.065130833431567
1.692,-9.79385775659722,-8.574997330526458,-16.588450044933552,-15.699092965525324,-11.40199142410097,-9.054413804129581,-23.666540494097262,-27.06843839335471
1.696,-13.640502973958917,-12.767550162129623,-18.977517543084105,-18.88721220961247,-14.38864195569522,-9.04185341414086,-20.964672379111107,-26.317087162400014
1.7,-15.92121054196565,-16.371163842487476,-20.700221463175694,-20.12092721559702,-16.015827831055958,-9.159676703717196,-18.765170590959542,-26.35896501881564
1.704,-16.280527313881294,-18.39179122349219,-21.311483414203394,-19.117628695330495,-15.905440780925574,-8.94865027897049,-17.4192890575996,-27.397137685410087
1.708,-14.836850156265598,-18.565747549012826,-20.695308112168732,-16.282417444504972,-14.13778354058195,-8.05034464077471,-16.94220111242862,-29.314104367521736
1.712,-12.125960309267896,-17.457567677862244,-19.15250998288161,-12.613478544682721,-11.300631386980058,-6.449115291214184,-17.15785982537045,-31.833965318259345
1.716,-8.906901859617733,-16.11074512526011,-17.29917836416098,-9.324576861840455,-8.307974983345503,-4.5302863438105305,-17.86648587539935,-34.6979913591843
1.72,-5.927849835946233,-15.469396474748578,-15.843647356604833,-7.387318035835847,-6.0799032017309855,-2.9252800928798024,-18.95285134033793,-37.745658694948816
1.724,-3.7261260195615478,-15.887562726293595,-15.325703401850205,-7.198544106743725,-5.210464089725974,-2.189435101743584,-20.35858578096395,-40.84624216731521
1.728,-2.544200139948373,-17.01413641646593,-15.952358411007026,-8.537248722493814,-5.809795293095021,-2.499314988132028,-21.972841196293757,-43.78632906077712
1.732,-2.3447711781227554,-18.08184827209186,-17.568353725040424,-10.777700204347866,-7.5723563289648155,-3.5437955479883385,-23.520899357593635,-46.20286986287937
1.736,-2.855858072959961,-18.390993933348,-19.72027719485868,-13.185973435757319,-9.980747864663044,-4.662661765787107,-24.524558446634956,-47.623053568839964
1.74,-3.6463556868194473,-17.71533164552727,-21.787273995176747,-15.166025018063579,-12.530551605483652,-5.177960012519179,-24.392138468278517,-47.62852047706002
1.744,-4.237301491650555,-16.40721362719148,-23.145422331484042,-16.37140462162722,-14.865959274221268,-4.740510259482107,-22.643206359112583,-46.059561842445646
1.748,-4.2595274962378085,-15.177528350262037,-23.350455375114507,-16.705080822517857,-16.80530458875546,-3.5079014036627996,-19.169801196291246,-43.14661806748984
1.752,-3.641925779169128,-14.723983490663386,-22.31297852054604,-16.296034258830673,-18.300575352821852,-2.070744204413586,-14.424504097209365,-39.50200886366707
1.756,-2.7214156841941417,-15.403265940240544,-20.373921843781545,-15.468653116183418,-19.37584055946286,-1.1516320125365382,-9.388653527789302,-35.938231191989075
1.76,-2.1682436357158394,-17.09903033828016,-18.21994140232573,-14.674720663140874,-20.080619849978575,-1.2265994243794012,-5.277978388799738,-33.18057471775916
1.764,-2.7070159158751608,-19.322387301041317,-16.629774149965215,-14.359897049753272,-20.455486304820624,-2.2750555024954338,-3.078945459908482,-31.61334145515815
1.768,-4.723606428736446,-21.43482856082437,-16.12909655494127,-14.756583635169477,-20.48608026191164,-3.780967501291343,-3.1034097732078862,-31.15915477974943
1.772,-7.98468249491583,-22.88755934401138,-16.74149204589844,-15.718338746294876,-20.070641128880652,-5.00435415840866,-4.806660381895881,-31.362013830059993
1.776,-11.63676614175347,-23.3746088504937,-17.966684214800125,-16.704736446009633,-19.035659857540168,-5.371557477560145,-6.992766677777354,-31.63534283254978
1.78,-14.528128392314443,-22.869724125796438,-19.016230896957268,-16.978108619263367,-17.22465331334888,-4.784070862447152,-8.337442766982122,-31.55679668520952
1.784,-15.720502876380522,-21.590871104231383,-19.20715781941726,-15.954789446179802,-14.644101364299331,-3.6786676362830804,-7.982731554171551,-31.072981423835017
1.788,-14.930486148730154,-19.92729191214346,-18.30510551270163,-13.542761311709341,-11.578547597741817,-2.802161454088491,-5.921060120959737,-30.501318139942896
1.792,-12.655429734786651,-18.3400747887639,-16.622885249811134,-10.275885818256143,-8.576952548155532,-2.8197845450467867,-2.9658777040262976,-30.33002536355974
1.796,-9.92187053253167,-17.249431172727327,-14.829043511032978,-7.155547155849263,-6.288347118186721,-3.971375723224355,-0.30750045137779125,-30.92935930552352
1.8,-7.798098335656789,-16.901942217301098,-13.57235949472215,-5.254743010404468,-5.191448791640141,-5.950190443654719,1.1119625636363253,-32.305199086771495
1.804,-6.948694262320714,-17.267780920869427,-13.151324030422074,-5.283814073604276,-5.371136427906777,-8.071603419457006,1.0678037144064092,-34.03702427217115
1.808,-7.465375599960225,-18.035213690874457,-13.429743723295132,-7.339085177211359,-6.492578624963585,-9.644530338093318,0.11814129127151318,-35.43682009612394
1.812,-9.033755824335799,-18.741302758005077,-14.039698222117522,-10.931941641342519,-8.008832898835635,-10.330733600846088,-0.7846709887442103,-35.84395484705681
1.816,-11.25247176270608,-18.9847142967609,-14.706853188798505,-15.233959270978062,-9.482389997490372,-10.291973142863753,-0.8813907429153005,-34.915385782489125
1.82,-13.853941543678786,-18.618145085458764,-15.469411350735754,-19.378278656231487,-10.83276484904286,-10.033946614602428,-0.07916109858069831,-32.767529707132724
1.824,-16.68230994721182,-17.80675335850208,-16.618577980031205,-22.654897289186692,-12.32739762132519,-10.035286465039235,0.9859409611053707,-29.901588520709197
1.828,-19.49851218350915,-16.91910629113147,-18.411207249772133,-24.570990201225413,-14.329291674597016,-10.396949915923187,1.3223718002652731,-26.9766420305138
1.832,-21.82168886150083,-16.305303070728428,-20.758967445680128,-24.851079314913136,-16.947793214715944,-10.735505330138494,0.16112774695875487,-24.56339914993424
1.836,-22.99913946518268,-16.0750044698259,-23.115566696924816,-23.4483667092602,-19.80700484951649,-10.4052603087448,-2.580285072539482,-22.992606703747015
1.84,-22.541834453611727,-16.003507814915224,-24.66978343880419,-20.61076414448712,-22.107309872148107,-8.938478521445859,-6.198782315181916,-22.3521954515914
1.844,-20.5027344629886,-15.618572021579553,-24.74950950949824,-16.9201882199377,-22.966848197014315,-6.439864793527931,-9.525739061834201,-22.595623310532346
1.848,-17.61266588843074,-14.427144868429309,-23.196859626598098,-13.208860044596804,-21.860494568812328,-3.6897523116331286,-11.484530143267648,-23.660912449556633
1.852,-15.034032008852535,-12.18365361335293,-20.490130377680998,-10.333399189352235,-18.917369721618343,-1.8696592623105062,-11.608266377560767,-25.521692985264792
1.856,-13.795439312817678,-9.052199828194261,-17.51249357247184,-8.85815808412326,-14.90252704422744,-2.0117204700056845,-10.237594688633862,-28.144688867600394
1.86,-14.215342505647527,-5.587352571651422,-15.101142883985858,-8.809815180599458,-10.891363676609444,-4.4524610951684735,-8.322938766755215,-31.391315540050016
1.864,-15.683839219096626,-2.549432297073622,-13.642337568942025,-9.675500098655107,-7.821732443413566,-8.587493895669695,-6.963450927729582,-34.95116231126491
1.868,-16.98114513777722,-0.6352369526081247,-12.950473788146837,-10.672190591821277,-6.165455654451421,-13.080014556243214,-6.9234836490418274,-38.3565385662842
1.872,-16.998040036921452,-0.254308736771236,-12.506548041340807,-11.167723147254492,-5.879643469550047,-16.446381719352985,-8.369774586822587,-41.0935806590806
1.8760000000000001,-15.417020736394562,-1.4092021365281653,-11.866912373166087,-11.001212934605633,-6.59599728498813,-17.711674724905834,-10.890112712365408,-42.730632983586474
1.8800000000000001,-12.953719676917785,-3.7281529411781094,-10.996727619634498,-10.544725826839226,-7.916497762999029,-16.819791183404504,-13.742184624305082,-43.02274723570412
1.8840000000000001,-10.9815454000329,-6.608416080609686,-10.308181241063608,-10.462847326971087,-9.614476588901539,-14.590490871079282,-16.1810592506871,-41.941911627101774
1.8880000000000001,-10.752175019552169,-9.42060583122759,-10.390699360970643,-11.324298481377355,-11.644964477226495,-12.268772333066636,-17.716478631777363,-39.637601183923266
1.8920000000000001,-12.675532636428272,-11.70053434528677,-11.609650574386478,-13.305241587056457,-13.999473777232197,-10.915331881879865,-18.21885872057362,-36.3686251231544
1.8960000000000001,-16.08154213716665,-13.263381288759206,-13.831841169805102,-16.13060571402582,-16.539343743929066,-10.940730059442558,-17.884666821576616,-32.446183319394834
1.9000000000000001,-19.599760262773913,-14.200524446223028,-16.439626616052465,-19.258943439594532,-18.936587902390897,-12.007320319710743,-17.103317735566634,-28.20444873853444
1.9040000000000001,-21.90838382823199,-14.74928175818917,-18.606734435228418,-22.151441163936397,-20.750296447784194,-13.297515071689531,-16.275128494908017,-23.973408062884516
1.9080000000000001,-22.416110613441504,-15.11056433618677,-19.683403609330185,-24.45871634382229,-21.598763930345058,-13.980593928964481,-15.655521316437898,-20.043997249863992
1.9120000000000001,-21.494562015314443,-15.312109843903897,-19.4778215906299,-26.04092971038301,-21.321776015848513,-13.624325415056319,-15.28450813236293,-16.635891057252365
1.9160000000000001,-20.146362164867583,-15.185314301513813,-18.265669084616434,-26.849670309100247,-20.02144642037024,-12.353651026049192,-15.004538249067082,-13.877260434961954
1.92,-19.339047873204237,-14.477589058821138,-16.55590119794465,-26.796540074689233,-17.962686718337864,-10.690058162198056,-14.562847949702586,-11.814031698116992
1.924,-19.41468123116354,-13.042684821324144,-14.776888394600746,-25.737684867826033,-15.418323884858978,-9.206630568537776,-13.78030004152697,-10.469320876634868
1.928,-19.911622484467216,-10.988177073965062,-13.07341436079264,-23.5850933586961,-12.566328711259303,-8.211590804771504,-12.705300671796863,-9.892002419722246
1.932,-19.897476373754813,-8.694087882440215,-11.32740718607829,-20.45857037252938,-9.499743814915291,-7.6258071812671915,-11.673356315018964,-10.151135942481744
1.936,-18.55522224537026,-6.65992448512884,-9.360201423943295,-16.747378912165914,-6.332041415986168,-7.096288568928912,-11.202801357814337,-11.260451177952717
1.94,-15.653095137914136,-5.2476713545143525,-7.1625190795261915,-13.008433381682266,-3.3072373442500975,-6.244878678830901,-11.736068206449886,-13.047113372708651
1.944,-11.657386662265509,-4.478124019815141,-5.00149904125476,-9.769409500407505,-0.8252393912761136,-4.9139986898869665,-13.354316758591153,-15.077065978239233
1.948,-7.445420547697836,-4.0016771225659795,-3.329123565901682,-7.345919383547425,0.6725724605040568,-3.262261257154705,-15.605812188394339,-16.69931327966262
1.952,-3.832275362403351,-3.2795584981057004,-2.552590425680364,-5.777382850244578,0.9161410340987004,-1.6740660393008966,-17.585198639916825,-17.223723355505825
1.956,-1.2045113448954794,-1.8774539094570173,-2.7955993113880595,-4.909098992534666,0.00048802853495999443,-0.5329537672141669,-18.26768352896613,-16.181550376278807
1.96,0.5435544737305236,0.29938909959594184,-3.7794000885256764,-4.535826332483111,-1.550343622088235,0.0051755236167991825,-16.96477969096793,-13.518677507201147
1.964,1.7903741028420939,2.9557970911056373,-4.910111757100708,-4.499516802144569,-2.926677135285445,0.10676512309305508,-13.671614998221457,-9.629261160451904
1.968,2.852161414570645,5.555564930780122,-5.542869342681229,-4.702031852673429,-3.3602043532154084,0.16793828585878146,-9.149461484416179,-5.20241438472749
1.972,3.7551734381408153,7.587468528200077,-5.280462871239706,-5.05007952647145,-2.4766052132163168,0.5955190476038297,-4.667665986746897,-0.9389943745876792
1.976,4.2448985680831015,8.783516713669087,-4.1609974993488095,-5.409146154592179,-0.5023658686119461,1.5763579102340373,-1.5179619285329409,2.698037584095971
1.98,4.005829429434414,9.16418858101531,-2.6483599360078642,-5.631902072632045,1.7934512946962968,2.942852521900022,-0.5282890816413328,5.569652023417632
1.984,2.9426518567748303,8.923045115949833,-1.4079236699009243,-5.6383328337653325,3.4283593771800724,4.235302706520542,-1.790743477713363,7.746010115546142
1.988,1.32596712105817,8.25017888873191,-0.9739201196088061,-5.478294097292974,3.661621231199547,4.908400444262725,-4.69703882820545,9.303067603064449
1.992,-0.3018356559613835,7.212559532837872,-1.4847280419675144,-5.325129425656996,2.3504987727046682,4.57756537998398,-8.255414386439838,10.173965463145692
1.996,-1.4096631271935962,5.773109482829284,-2.603963592732157,-5.378471445227149,0.026249769730668504,3.1932562789286294,-11.511554185107343,10.159660927390888
2.0,-1.7657735911095074,3.9229661046167053,-3.668053324566472,-5.733575625166395,-2.3649214183775484,1.0530651106087134,-13.866039552926622,9.097682093443211
2.004,-1.5995009691197026,1.7958696066586413,-4.014123670233516,-6.341474910421084,-3.951966087498647,-1.3494145118791039,-15.193739106199018,7.0586673908103705
2.008,-1.5284128565284334,-0.3259871912563881,-3.320677858330555,-7.088072038391715,-4.393881644287546,-3.5527238804328363,-15.742660214185548,4.415984130337648
2.012,-2.25954069734658,-2.1251282676342953,-1.7892951651074327,-7.92707709018066,-4.037387939223606,-5.30581923690022,-15.90566065199414,1.7252237345945503
2.016,-4.235497493396991,-3.416349094559507,-0.07817077371612413,-8.967040493306797,-3.7028033056441245,-6.6144920754252325,-16.010591132973786,-0.550495070846722
2.02,-7.394004457941037,-4.229587963029417,1.0097065063928312,-10.406674357249756,-4.190154410814671,-7.648367423545778,-16.187904119381187,-2.2885910640789007
2.024,-11.158986860829401,-4.746286996331321,0.9220882227833727,-12.3378637778074,-5.793511481513917,-8.584103072715266,-16.365123921719146,-3.77907219340824
2.028,-14.647797762943753,-5.1245151629779,-0.36717007725565054,-14.53920941253233,-8.105142134803828,-9.48542183701852,-16.360210921834096,-5.552691735705707
2.032,-17.019965572292932,-5.353065671813965,-2.3504904847663965,-16.44167930285181,-10.232195642418162,-10.291131398197194,-16.007852671231376,-8.053862872598842
2.036,-17.802589571215208,-5.245722336156803,-4.243912573290629,-17.329234064394598,-11.30438328840927,-10.88983989473138,-15.253447512080015,-11.319476251570364
2.04,-17.041411385658208,-4.6019931281394975,-5.378100751925217,-16.708125587142945,-10.988083231439475,-11.223642016884355,-14.188483971549772,-14.868087559348737
2.044,-15.20874933646951,-3.435459666443762,-5.518790537374002,-14.63338483220599,-9.69983847462612,-11.324803440836604,-13.015857550019462,-17.856668079931524
2.048,-12.92989708762481,-2.0904545088912414,-4.9371128881506365,-11.76585147671085,-8.375733701603906,-11.247838179330529,-11.939903306526901,-19.405293076433793
2.052,-10.707347871976225,-1.1614803723476257,-4.233567278999544,-9.11396551584653,-7.948915851317793,-10.961828414811976,-11.074307178954712,-18.946163223832656
2.056,-8.782453679535507,-1.2221900170628714,-4.019812776526692,-7.5667223288768355,-8.83313693061632,-10.30241940799749,-10.399900112103978,-16.43635698970843
2.06,-7.203228374206674,-2.5142177497778846,-4.648979516320821,-7.483305000805956,-10.723635531991647,-9.04939891394963,-9.805898301982836,-12.353460889706923
2.064,-6.012048107184697,-4.78168335247301,-6.1174696791834435,-8.557955608998498,-12.820968837292412,-7.1047076620941425,-9.195808154821805,-7.523608514817113
2.068,-5.40003170379849,-7.360724547866852,-8.150230724077687,-10.02269546615122,-14.317830374962227,-4.669312394069948,-8.587278551160523,-2.882087428127818
2.072,-5.69576374802179,-9.489026760505709,-10.376879536713886,-11.055569320635755,-14.833850935435635,-2.274027044725244,-8.13334212179467,0.7526459846046976
2.076,-7.140561389866079,-10.638072706230247,-12.436636408703919,-11.131703236709711,-14.516525085006322,-0.5805628433004131,-8.009602385896699,2.8591949798169765
2.08,-9.58836534588815,-10.682853635257345,-13.965357811071215,-10.139442918369298,-13.774857157978374,-0.0413011940480601,-8.220821296811948,3.3280120876263055
2.084,-12.337346145117905,-9.8175429703453,-14.523042109649452,-8.240577237948003,-12.847535318039206,-0.6113821054365189,-8.448644134465383,2.495871838187142
2.088,-14.265806878948084,-8.302871281677682,-13.609711972642629,-5.635475402957695,-11.546957141457995,-1.7107419687343963,-8.10007134569338,1.047481990759124
2.092,-14.313761547000098,-6.262638515075878,-10.886611751451085,-2.459273072184345,-9.415810656231827,-2.52788377677291,-6.627232643741706,-0.25060749446002717
2.096,-12.10139982450032,-3.6859245970562426,-6.528196366766679,1.0896021003105432,-6.228136158713198,-2.5343844484266356,-3.986304863464966,-0.9314566135960263
2.1,-8.337278702173194,-0.658580908706881,-1.4987405799567455,4.493330547260683,-2.5058689721468,-1.9260810020987265,-0.9926294685064363,-1.1709651109864723
2.104,-4.7309849704802645,2.353619957831711,2.5058283808335773,6.771344156318833,0.3579957217676224,-1.68984568074859,0.7164209545555309,-1.8841813624514998
2.108,-3.3306560837108066,4.434234517722473,3.5816762951931196,6.680978781809301,0.5777352329558312,-3.180631625288015,-0.749813597542925,-4.400127096672506
2.112,-5.574742159751921,4.466008505281309,0.42305486052993047,3.238240437019698,-3.144540831069321,-7.3821181047409254,-6.654671678077591,-9.79500078083396
2.116,-11.486244213556361,1.6679305941173368,-6.929495469518258,-3.643852446100766,-10.762677643658606,-14.211616263070141,-16.818875527312002,-18.14713967407188
2.12,-19.47166263793784,-3.8595970311815506,-16.823646661162797,-12.790499616772365,-20.578049558458673,-22.27261725093365,-29.328336205196592,-28.109399281181496
2.124,-26.876230213916912,-10.910272890982213,-26.434987500238435,-21.947066378466417,-29.72396219415387,-29.23901838400809,-41.014731429054336,-37.10493537866071
2.128,-31.044360427350412,-17.462020901375524,-32.783003460132306,-28.498696794330698,-35.27188149162066,-32.73997058238075,-48.55231434537092,-42.168307785506286
2.132,-30.446947044798378,-21.446866769431637,-33.90815074419061,-30.468874314353002,-35.45580099257873,-31.35231746466792,-49.728452318822065,-41.12943561901494
2.136,-25.32112041562521,-21.650075151358692,-29.65857953628523,-27.32068280323361,-30.40228930786276,-25.221560990160185,-44.296949115002406,-33.59203402525374
2.14,-17.50492423171714,-18.285490010211902,-21.7131675310236,-20.161898920415496,-22.014350837107997,-16.011506951155013,-34.02319903613579,-21.236722579300064
2.144,-9.582509862060633,-12.93990039960579,-12.835399300254778,-11.259066258372087,-13.093537552295373,-6.220840614380393,-21.92255062204839,-7.274485609624051
2.148,-3.7464503496107824,-7.851539883193624,-5.6980607931782,-3.0911594620405936,-6.142760803191123,1.7991656370163014,-11.053185525180936,4.736752983803157
2.152,-0.962590690322429,-4.890593935690561,-1.8567793272291055,2.580323556621181,-2.4447861192957987,6.660065508309174,-3.450316593893774,12.170447964609181
2.156,-0.8029322549286917,-4.722160509759192,-1.3033809889687973,5.2232113202222195,-1.7887240366851813,8.247818096236074,0.36053254462211726,14.152801310416606
2.16,-1.9425972924573358,-6.557684577594841,-2.7324817796107084,5.4591105403714835,-2.874047688408268,7.465852403527947,1.1581369516871405,11.620661345929875
2.164,-2.975745145560566,-8.616339373982925,-4.313387175250057,4.531321720929299,-4.086789808785198,5.618252761608005,0.36029348267442174,6.675432717178126
2.168,-3.105695578360063,-9.044733106238454,-4.5470181260805305,3.6378394205040934,-4.219611597115062,3.7869623300499597,-0.7022797172045614,1.6041445727513235
2.172,-2.376694517154192,-6.837008795738839,-2.834144715076775,3.454906772986334,-2.8357936155067023,2.476359631688979,-1.2522877621480006,-1.9791492003848532
2.176,-1.4176569560594672,-2.311349891850483,0.4342580517664203,4.012232913182544,-0.22727281135257726,1.6263764691267397,-1.1576083756606863,-3.547384947043838
2.18,-0.9163165850302164,3.092117879073058,4.2349655095743515,4.892510642350629,2.909880611705688,0.897543439559854,-0.7125400598137617,-3.5396153296390764
2.184,-1.2054748523999237,7.525099364383095,7.447899364439934,5.540913831716011,5.820547974205738,-0.009232152923857484,-0.3516770619081626,-2.9010278126538083
2.188,-2.1713660247299202,9.584297804191124,9.310533139603166,5.518941005727157,7.896342520903659,-1.175742485012222,-0.4439420733355064,-2.5497292610197704
2.192,-3.4486074453581637,8.895974048247965,9.640950949107236,4.6405887698957855,8.758514092128394,-2.4724939047520706,-1.1788933313987968,-2.9763876504628115
2.196,-4.709256935412931,6.172488126051377,8.79784896230339,3.0052381027006447,8.289087930600203,-3.6674138224963144,-2.515722575813186,-4.090462634881881
2.2,-5.813071325042543,2.7690763180627727,7.449195980885605,0.9768020097077397,6.654484459671721,-4.534205340171297,-4.175662258323911,-5.308096406446381
2.204,-6.720274222181189,0.02770183834380191,6.279952132500966,-0.8507776969398861,4.312963930780427,-4.892347254377739,-5.679937714452507,-5.794254703169727
2.208,-7.267258668732531,-1.2595701468502227,5.737113276457222,-1.7449964614849023,1.9307942113523495,-4.57810368819969,-6.487096046173917,-4.780757258333757
2.212,-7.0429184837872825,-1.0430204738047308,5.876583356898777,-1.0401772179026239,0.1660070028035392,-3.443795304559103,-6.236612185935144,-1.8788855174880155
2.216,-5.515419106563492,0.16561453224764477,6.3618188735571835,1.577122098709225,-0.6137579130675022,-1.4296189183407932,-4.991495327346996,2.712230753584919
2.22,-2.3958193087613964,1.6748624292906413,6.6088675324966175,5.819150651483369,-0.5320666146165394,1.3117070229227465,-3.323337585424042,8.18580589875328
2.224,1.9828648783944658,2.956091552514195,6.0477302371230905,10.753752939955746,-0.173212853800905,4.316195144815708,-2.114476757701624,13.325378561926328
2.228,6.5712864571118175,3.7994891379088074,4.420001129541447,15.080124147953768,-0.2709781604527137,6.860756895682584,-2.110145845432015,16.89965146327379
2.232,9.903021499098479,4.245275628557934,1.9503381231712638,17.61792759279747,-1.274352711323914,8.176441045109328,-3.469609022929774,18.108585025468074
2.236,10.715929564750247,4.420400978948834,-0.690895359105852,17.808096911100364,-3.0281394389946428,7.766187591288883,-5.585679154729803,16.898364477146373
2.24,8.57595851375969,4.417676759869771,-2.644189178112782,15.948372623160083,-4.77608283835815,5.664604496030364,-7.337761427244445,13.990015247178235
2.244,4.137660307398473,4.2834128633621305,-3.2336327681706933,13.004566563821612,-5.517309243993779,2.492436644908878,-7.686890564084891,10.603131095193511
2.248,-1.0899294142821994,4.108921288959834,-2.2571411027197428,10.098301689205485,-4.52717354604782,-0.7434473873847196,-6.2786413687946805,8.008440273671013
2.2520000000000002,-5.407390209314521,4.096819641847034,-0.05733084037152025,7.924048787439574,-1.7661391500717514,-3.0487564076717035,-3.6976536149204122,7.104011249991263
2.2560000000000002,-7.66231308736646,4.525876610133729,2.6799012496719854,6.4399330407939885,2.0648878074873096,-3.84084788507613,-1.189802934366483,8.20016219620819
2.2600000000000002,-7.671863020885176,5.605237465151795,5.273535513339652,5.008375360543461,5.844182309450048,-3.1532894311419,-6.75808795449484e-05,11.065723319616378
2.2640000000000002,-6.147349411896567,7.3050740707797885,7.339532025729611,2.9076052569354687,8.539952389641456,-1.5583208428709838,-0.7000217614155986,15.152475652008714
2.2680000000000002,-4.1988963239424955,9.285881775260712,8.862228020664261,-0.09444126223338856,9.628304992370332,0.15776595153840844,-2.9112288284425603,19.84199571422361
2.2720000000000002,-2.71810057627021,10.997336049802534,10.020393326041557,-3.4578286212745795,9.212728121358658,1.3916882328916529,-5.593181168185168,24.594257191291856
2.2760000000000002,-1.9740757631302124,11.91949425894721,10.905221219311983,-6.058452496195926,7.829008125716015,1.992568911069725,-7.700942076831041,28.981473825525647
2.2800000000000002,-1.6145460048498528,11.81583279798582,11.34209019712327,-6.756831101443247,6.09456214077791,2.269182527685487,-8.799630465763556,32.67086731290178
2.2840000000000003,-1.0130792614529156,10.86264498215263,10.975747496999062,-5.024972737509188,4.441475594053806,2.7477467237491027,-9.239392604494242,35.447151003387944
2.2880000000000003,0.2942921087806596,9.57090703292404,9.580847446346311,-1.2747879207758643,3.064534546781587,3.829006105926453,-9.778891214045345,37.28593447111005
2.2920000000000003,2.331910247672262,8.525688327840268,7.37645676652059,3.2930349658206524,2.038646559044686,5.526532631461762,-10.936327642652707,38.40458348185757
2.2960000000000003,4.685409154719849,8.069099847985825,5.098147389486542,7.2179796603181074,1.4547589174733204,7.419038366543987,-12.529861587149135,39.20451078359495
2.3000000000000003,6.736955898686265,8.098703692716114,3.706688154370511,9.396181809518879,1.4236323475901074,8.850844771119966,-13.742765667567888,40.08706315768413
2.3040000000000003,7.971230913689018,8.106649753369648,3.8691835093028573,9.483950215469058,1.9473810841297947,9.286746153266492,-13.68005618495917,41.229216695468594
2.308,8.190214806754758,7.45441399738651,5.516844883687021,7.914419684614575,2.7837335269618677,8.62216675080208,-12.04897420158403,42.46031842149759
2.312,7.52457027334027,5.741646282325274,7.761413608364947,5.558481961035781,3.44392823547053,7.265847432519081,-9.506571744404276,43.35084765767182
2.316,6.288618736162771,3.0815541622452827,9.284616663450194,3.2679987708780764,3.405209281788803,5.95560358287149,-7.385945611256467,43.50239149035403
2.32,4.805172778725062,0.12925744586908294,9.027223883676633,1.5332407411219613,2.4357963838238206,5.395302581126963,-6.914024324443517,42.858229484707884
2.324,3.2857137710659137,-2.1791035314190808,6.795349493100616,0.3860152209790222,0.8254117784441029,5.899365953375629,-8.38854368301223,41.82925331658739
2.328,1.819024524264063,-3.064673732257809,3.4191123693272694,-0.471606990711841,-0.6776805454431951,7.246206519217218,-10.870279505226584,41.11240187664963
2.332,0.4247214015788243,-2.315863770475783,0.3366211249636635,-1.440244346227587,-1.2365349649279018,8.821363695421581,-12.633881116166975,41.290429263320675
2.336,-0.9121882099640746,-0.47914334161067806,-1.1926165244723457,-2.8354664202933986,-0.42098813263511303,9.976945178448908,-12.150569700681132,42.452541256175785
2.34,-2.2335206912228305,1.2975886467792046,-0.805135394976638,-4.7906604970361,1.4694711562359224,10.4045936050418,-9.025807494257723,44.09921820771089
2.344,-3.6000877913616547,1.7339366049015386,0.7362172855682836,-7.223667287406931,3.4777118571054118,10.31450977599264,-4.330697772454251,45.426557083066356
2.348,-5.031258052501627,0.01720928926369769,1.964303437094765,-9.828717338549211,4.4622933827213425,10.314654344150266,-0.0788032327709125,45.84862326047037
2.352,-6.424067517271276,-3.763318722905411,1.5284914002778347,-12.107953126543883,3.7008584013040657,11.023961714651117,1.862537085434405,45.427737853493554
2.356,-7.495344723727371,-8.554917101248389,-1.028553913485367,-13.459133836712082,1.2927904019959886,12.655607146277653,0.8119441929030007,44.91510028009702
2.36,-7.803452826961018,-12.702629317900076,-4.968640662155675,-13.337435194301168,-1.8631904432306392,14.823687357794093,-2.3319327921244932,45.340002910670165
2.364,-6.899615325211436,-14.612204317992928,-8.717420048930103,-11.46804635658261,-4.523375926513099,16.703834141150338,-5.590875201243936,47.351505921182934
2.368,-4.550524260366501,-13.416309957151583,-10.682603417016708,-8.013957480363391,-5.730365981449708,17.490583932998483,-7.005960512142783,50.700868028579805
2.372,-0.9197260364614097,-9.341098388357217,-10.073729609681443,-3.5854366161714912,-5.258616292412256,16.896385014373035,-5.697584778963973,54.20894286482168
2.376,3.386878771326363,-3.621396415976392,-7.277688057521033,0.9465566929557003,-3.641418717344747,15.390146623443876,-2.2851574102946266,56.281210463182845
2.38,7.481815938389092,2.0085708632792456,-3.593453967234396,4.7635741354364445,-1.7863609902957727,14.009200903065517,1.554036496620542,55.714265063405826
2.384,10.506357599651496,6.008824955579018,-0.5024572839389698,7.384345688456801,-0.4189168873884128,13.819340753150058,4.100951366806136,52.35706456829728
2.388,11.922076201862984,7.579746367956522,1.1024474444591341,8.747690793789102,0.3026976647696529,15.292763242476479,4.570903475154948,47.232647351564445
2.392,11.644086377184312,6.827423285740151,1.3006812519406878,9.054755822277391,0.7899400965390573,17.946967927502193,3.4964635533550137,42.0396005209771
2.396,9.958959550344384,4.51866771040197,0.953792924504878,8.482544481150994,1.6673692491412915,20.48514144461826,2.3317329492447936,38.30656558798357
2.4,7.300777838414382,1.6090047498345914,1.0930312495791519,6.971288307443896,3.296549656462302,21.40403307259194,2.537056042364343,36.65555105392468
2.404,4.031623881122797,-1.197463094360569,2.261328885625243,4.2435810063361,5.468694648307812,19.76380715552829,4.709433210922429,36.56158828792754
2.408,0.3591578167727416,-3.641917856639446,4.185337272359504,0.06359255902873961,7.442375527898047,15.710391579419351,8.266344698980063,36.718666982607196
2.412,-3.5652362268800415,-5.79614952818674,5.94819681153648,-5.416559371117776,8.308373616841326,10.466633914388574,11.825583576430617,35.78713926645342
2.416,-7.461950817799818,-7.766210555708346,6.540188212678171,-11.45946511306429,7.465264088922453,5.794235840565037,14.026095606852419,33.102149152432496
2.42,-10.834987285406607,-9.455928784446403,5.43238493754464,-16.87628127304383,4.925004964571816,3.190041840465149,14.265775986542064,28.961257743331966
2.424,-13.074238711524622,-10.535909310093015,2.854235861813443,-20.449772005605208,1.3033656583906321,3.227789366816367,12.94226803678249,24.367413576223385
2.428,-13.71584030693162,-10.62487564630728,-0.35729513940796664,-21.433992504528014,-2.4855551049395537,5.382484505680168,11.099971442290695,20.414196975055404
2.432,-12.729978283875145,-9.568814535766101,-3.2366251058003286,-19.87528538848511,-5.6536472947680565,8.379866880642261,9.736857061967246,17.670807197540046
2.436,-10.628982294363675,-7.611271413667328,-5.188923051573816,-16.558413450595232,-7.837887949022129,10.871204532938904,9.233513699190691,15.907000168933365
2.44,-8.289150707056017,-5.329304968423658,-6.224476340491016,-12.606336182441567,-9.134868778362605,12.066796926687786,9.238382347927221,14.291076553310011
2.444,-6.549800300353239,-3.375185804299953,-6.8217069543335,-8.965546923332003,-9.896190361139354,12.006705851323005,9.04372056310659,11.91035124423344
2.448,-5.801910228752382,-2.1757653858096813,-7.535510820919988,-6.071669670953167,-10.442017491471002,11.362092974730459,8.166301714495653,8.302779228685598
2.452,-5.805816995636224,-1.763856211540947,-8.6083216081824,-3.8615842226120805,-10.858582046784786,10.927207229027303,6.74600030907424,3.7141418647840325
2.456,-5.871670113598654,-1.845365999820885,-9.824492469401804,-2.081130480569847,-10.987903097181103,11.12237935181362,5.489985481105165,-1.0330105885178718
2.46,-5.322164968472867,-2.0441967750596497,-10.677834812812357,-0.661360778975169,-10.591586842339304,11.786180291524829,5.209276902745749,-4.958028364579395
2.464,-3.9780130610726,-2.1557520664435614,-10.723195481679731,0.09229105923045111,-9.571816152699434,12.333699541939879,6.257068490220647,-7.402991660791498
2.468,-2.358543205222368,-2.2440351752892838,-9.878964855093507,-0.3527156815601522,-8.100415678966478,12.163599282988216,8.23907164197751,-8.321195995574223
2.472,-1.4461718563378199,-2.5267135024455953,-8.492251490736571,-2.3666280415973446,-6.575264173515549,11.04838227889212,10.202430247279807,-8.251557407057234
2.476,-2.119932508754017,-3.12670064348805,-7.112012226788565,-5.775671667739822,-5.411615420196867,9.283086646635454,11.207417529924328,-8.020139337482632
2.48,-4.573536449386728,-3.869465393321871,-6.1189851329625,-9.747003834839575,-4.786881726081823,7.529270203137457,10.942169689943654,-8.333851339617942
2.484,-8.073894555422559,-4.2844780645885265,-5.464542792039843,-13.059849238761345,-4.497657324190953,6.459813351613619,9.975277540346326,-9.478507305785845
2.488,-11.205310278419384,-3.815461008090132,-4.669500183882526,-14.631657808302066,-4.0106069861130464,6.417254029696323,9.49141717822284,-11.247772546069227
2.492,-12.517388057926299,-2.1424072203701456,-3.1165659465995006,-14.021000607923874,-2.7209174590067136,7.263969966168901,10.63432450098312,-13.117224788644897
2.496,-11.248867707142917,0.5685911479541303,-0.47386060006609654,-11.626522759740325,-0.3006595660443523,8.490857472624484,13.824982117333569,-14.547349165899725
2.5,-7.710299051986334,3.6617404686177544,3.014268316261422,-8.452308830296687,3.058589978788831,9.504127371361932,18.45432135705297,-15.246628389547983
2.504,-3.1199743848659622,6.2450412609022194,6.551128040744253,-5.578552124321831,6.639048547943041,9.920925040548525,23.136552909460548,-15.281914700094124
2.508,1.027908717182223,7.58216381481251,9.145691006679677,-3.6292078762553928,9.455420167028649,9.719525075358305,26.394670510863243,-14.990450814006955
2.512,3.7001169229013797,7.412212256684832,10.110677805491434,-2.532370889855578,10.67908604447235,9.17427279060827,27.396025720317432,-14.76376085566833
2.516,4.767729412249869,6.02722397567689,9.428078873653817,-1.691302781517038,10.02758555472662,8.650176222258736,26.33952032001151,-14.823147366480185
2.52,4.933535777601916,4.08228928462373,7.781196626359133,-0.44096916257046814,7.926069015408835,8.399915233876683,24.296147190113587,-15.097864106670954
2.524,5.196352803719293,2.2392784499627645,6.213227433273445,1.4840532773412392,5.340988605780083,8.464974454936666,22.595657023318715,-15.27332672260934
2.528,6.210994362361085,0.8613872507956302,5.612156322842388,3.7719767001689775,3.3683819307598526,8.734985496011362,22.12838133424939,-14.966135761028195
2.532,7.91464249375054,-0.08548680069121772,6.2878776558595675,5.7336715960650295,2.7566450495984043,9.089445835504065,22.927975428601684,-13.94513720649553
2.536,9.62553706158691,-0.8840797237818023,7.8728317084739246,6.761740412797174,3.614577094094095,9.537748256251078,24.239679267074074,-12.26941202715318
2.54,10.512248925826526,-1.776817037031293,9.587732486783665,6.755078373900069,5.440079832787049,10.249125788411462,25.010402633151564,-10.279606246625544
2.544,10.142187090013403,-2.722076958971847,10.715552003383664,6.240960304134866,7.440639758203069,11.44512471813087,24.494087400900867,-8.454644445621827
2.548,8.766576738869183,-3.3484038771618074,11.015102964344564,6.1043325062882445,8.97187806376754,13.221870680897268,22.649205614489418,-7.200190819813411
2.552,7.181180983151023,-3.1378605053056816,10.837768058756069,7.075256394064397,9.853580261053722,15.397592263547864,20.129082319359796,-6.672814333374717
2.556,6.255727062197668,-1.7433237057510382,10.888037289399065,9.267367611385843,10.388038117417217,17.490707929094512,17.89706271565788,-6.727880821198379
2.56,6.421044302902146,0.7397699016436974,11.769346399277651,12.041394235230179,11.079253648206517,18.864009266398796,16.71407881004815,-7.004372451711532
2.564,7.433020927103396,3.7296700815002453,13.59641604490379,14.294816653187937,12.24491170078413,18.987730008173486,16.788581785402585,-7.097180159891778
2.568,8.548477020327613,6.3926242644270985,15.904717720955702,15.025246056772197,13.758253006557595,17.7074446015844,17.756644967068013,-6.738790260063684
2.572,8.999163523796675,8.042742259344372,17.903472822652446,13.866215409053723,15.073598635857607,15.37838676656915,18.97120302880022,-5.901720746913117
2.576,8.45806924830363,8.481688913084348,18.916385012106403,11.28893089086094,15.520168392212817,12.782507699574467,19.89420213055824,-4.801741061220877
2.58,7.2350480831995725,8.08232239171133,18.74103209547654,8.359350582379314,14.689646790794889,10.85105065815091,20.339067431648758,-3.809671807500955
2.584,6.100560234275136,7.558963919686924,17.728548163259532,6.198266412733794,12.692393520836447,10.298638660703418,20.44486303967693,-3.320659108891025
2.588,5.86284681337513,7.549991144374701,16.554768133456577,5.448445579206904,10.13558138418989,11.333729013920362,20.457259197505863,-3.623875825117736
2.592,6.944833849529019,8.236597531647313,15.810890598574034,6.020261068091493,7.822552450729091,13.559690440068422,20.476564323508924,-4.81474883812751
2.596,9.190033322187317,9.228683180737626,15.66905576330553,7.236772189677836,6.360350835071706,16.123865236663363,20.359843440799708,-6.772730366350327
2.6,11.958926825593775,9.787332343596937,15.812142760677098,8.272064643782755,5.890580970413566,18.051745243027128,19.835577455712894,-9.193232570788538
2.604,14.436634934137976,9.287553053478284,15.658452811574442,8.625417478918472,6.088005252067319,18.62258436869466,18.74281924784397,-11.666491507375913
2.608,15.975983846546848,7.662308955798338,14.737654952674681,8.371692284576206,6.411097608826395,17.63874128601107,17.225056856231973,-13.778038476381663
2.612,16.31504692479512,5.564440261666277,12.991716805400095,8.078642984687832,6.453323387048179,15.476640203487477,15.73200714047951,-15.193203104670445
2.616,15.60642123009543,4.120258667904281,10.821086689214631,8.46336098780062,6.1802318550904545,12.879963986215813,14.799356170043154,-15.713192923219257
2.62,14.297677981475024,4.378643606307406,8.867316268991587,9.992555088514116,5.925209702608512,10.649540399264822,14.743492294775564,-15.291103823943349
2.624,12.964757892577827,6.758180294369417,7.696767916200997,12.643508772544024,6.175767233469891,9.346163736154423,15.492878930845166,-14.005875017331974
2.628,12.134803275774278,10.775231666725709,7.557915282097255,15.898088644107872,7.258935095192321,9.085442035223323,16.647202185179125,-12.04378332325673
2.632,12.120219042177666,15.205975450317375,8.32244982665388,18.93095568301201,9.100422573059191,9.523932009401705,17.725765393086377,-9.69181139335716
2.636,12.91609312856065,18.632655619538916,9.623183572235476,20.896015686046567,11.203631346310736,10.042640142610665,18.47647356738814,-7.313250880314026
2.64,14.173444964242059,20.079373852781877,11.063018226149907,21.17460445272679,12.848959591285514,10.033967985025456,19.027210483851846,-5.295150025462323
2.644,15.294453073399565,19.42486236395348,12.362306195834364,19.533183217421723,13.423323967311347,9.171371418771471,19.78498862106491,-3.93737668338974
2.648,15.684448915968732,17.407666308247357,13.397090710845106,16.2045827411268,12.72880371753525,7.561985321035266,21.16546747163909,-3.3047907511415673
2.652,15.074465440739877,15.217890354064387,14.131369469246138,11.888450285947357,11.117365993669019,5.710365920780987,23.293942961355967,-3.1364134768528764
2.656,13.740224018863055,13.88839447156353,14.532586196600917,7.640486945330444,9.382962554515167,4.310191788105669,25.862581855905063,-2.8958569439173765
2.66,12.479750729338175,13.82168474296001,14.566785556557491,4.638796261368874,8.452499445537931,3.950048027779914,28.243327485302075,-1.9845784206464891
2.664,12.279202061662,14.673083674641873,14.256192220506009,3.8295401935618116,8.989323404127774,4.8447136570397475,29.777328203507807,-0.06484597167280981
2.668,13.791353374685553,15.607899406369711,13.7320285841476,5.547535478654417,11.063113622220705,6.7175353454951505,30.061027853897905,2.6524963120503315
2.672,16.902409901300146,15.772397285277478,13.209413340450993,9.291475230971173,14.042223985626514,8.893162861606456,29.07475424320785,5.36148116298709
2.676,20.64036710520803,14.709156532982092,12.864477396361508,13.807145451021682,16.78775796055392,10.568100728335438,27.105099420735293,6.953539867701764
2.68,23.55287156699204,12.523187896329162,12.694173266681105,17.529084342546575,18.097111478456995,11.149186076722131,24.55174244719411,6.5629183049452315
2.684,24.413717390129094,9.762984278109109,12.471118302634196,19.238413620984105,17.23208291873638,10.507569509082643,21.756485201294005,4.102757227621563
2.688,22.8496229900655,7.087693666131784,11.832989838847581,18.597348668459972,14.266798772441717,9.01564031806383,18.94373499257216,0.46828425607378676
2.692,19.541868862008716,4.933244250962424,10.476944351430568,16.281219486218745,10.076610248319014,7.349011998973111,16.272205449279994,-2.746925282836429
2.696,15.862476054355833,3.3623454482393313,8.361711307617355,13.612937808653044,5.962740361372646,6.158000070584649,13.934128868005544,-3.93129657448247
2.7,13.11321705717672,2.136961104572002,5.7813214760285305,11.849088191928509,3.057202665185123,5.767317246071187,12.182065587709687,-2.2304979295817766
2.704,11.818507255822027,0.956179092855848,3.2646493317053142,11.504698478455921,1.811322759087382,6.056966068458266,11.246519775749249,1.9928270864596982
2.708,11.502142599939802,-0.2815506514199413,1.37612657706336,12.11435503588477,1.8606157325315849,6.584722454990242,11.231245876733666,7.292583469489031
2.712,11.085906964094907,-1.353722528480823,0.5194319876704725,12.566458490748786,2.338652442371547,6.855422584610551,12.066252369557574,11.809167843431375
2.716,9.667765609901664,-1.7999303775369384,0.8464558854581199,11.824592970305872,2.4717505528616854,6.583250344448004,13.547809466203184,14.128814701831793
2.72,7.217009988845296,-1.1554253349850256,2.3070062223829524,9.637341973469326,2.126208035274395,5.817094533641637,15.471373645171433,13.907745789768345
2.724,4.73281285656757,0.7822712996726935,4.753873915946713,6.8004212949720895,1.9620773249018768,4.873464297768905,17.739344693951367,11.935443810212057
2.728,3.7373386953538166,3.784415243962698,8.006260249504777,4.789965176986641,3.06893577669544,4.145781182085315,20.344500772194266,9.622782637981917
2.732,5.3802445468887505,7.202908038004566,11.803322081513642,4.953912949422026,6.26735104372775,3.902995025877601,23.23632079680106,8.220084666482713
2.736,9.665733054627054,10.160219602952267,15.698636760041317,7.714679511506482,11.479095168152739,4.191422665693935,26.17335261870391,8.198557761873598
2.74,15.292687554012149,11.854152198638324,19.023967030459083,12.250874262042437,17.554465570962655,4.869850061604652,28.69540180475019,9.117608688928975
2.744,20.231365476060127,11.849242563288954,21.013695562164123,16.861867311167373,22.695026494060883,5.7182761891402265,30.276921575801985,10.024887717432097
2.748,22.72666308193658,10.244370573892912,21.089620353736954,19.817615912599898,25.27115845386671,6.538011555454915,30.597765251565384,10.096894156581989
2.7520000000000002,22.174007722245733,7.656643972300241,19.1788412993509,20.22408822734922,24.598761329144274,7.180340420676771,29.763914929266704,9.130280578073648
2.7560000000000002,19.363461925393796,5.0240345705523985,15.856392314844733,18.432647212079544,21.249338072006395,7.528719651574562,28.308698051459963,7.623189215846306
2.7600000000000002,15.97282184604899,3.30179518451882,12.205315913466023,15.791673847728909,16.738083818480156,7.504362670626207,26.950070655509606,6.437026001881616
2.7640000000000002,13.628408222632931,3.153418299923093,9.41027177020888,13.905301481726134,12.777881615014373,7.123722907659797,26.222742755327396,6.260302957108927
2.7680000000000002,13.064177657604857,4.738532983358045,8.278631676933237,13.823480195875113,10.517542598239977,6.576557147433718,26.224149042194,7.211570312944346
2.7720000000000002,13.840397860498397,7.658301248007611,8.924449950391995,15.594204136969928,10.158572431936584,6.226720931783618,26.605398372647187,8.792839303844996
2.7760000000000002,14.756899728445783,11.08357344790965,10.78931289185089,18.38890295480468,11.116384579088063,6.485684451420482,26.82097367349555,10.199220379617607
2.7800000000000002,14.654393573666693,14.014695032457752,12.978441578838805,21.04726406606705,12.543060512216023,7.573893161152384,26.475940524619375,10.777402070889735
2.7840000000000003,13.124565458814104,15.59287302865011,14.724310699711268,22.68895864663327,13.865505344471948,9.301135671921244,25.546447038584922,10.36846335940515
2.7880000000000003,10.74467177509339,15.390904991243474,15.749731276359483,23.068563676635204,15.03268763542129,11.050928353678813,24.357604628626845,9.370915378870158
2.7920000000000003,8.718427597457957,13.560440646305622,16.314817213763618,22.501977384534456,16.353583465181913,12.029073591387146,23.325261054217933,8.497207989202385
2.7960000000000003,8.159921894832708,10.76746638790036,16.93700582434883,21.49307739798418,18.096226602412166,11.681069050679639,22.660279041732835,8.38210740578877
2.8000000000000003,9.451140051521369,7.921643667795362,17.971171913546414,20.345149909180385,20.149258605193097,10.058400896947532,22.244403073526264,9.250329130346678
2.8040000000000003,12.036069287782066,5.808134425591604,19.31096617210286,19.009326287915865,21.988681811478372,7.885240644047926,21.768825929749134,10.800701872455894
2.8080000000000003,14.725965280914407,4.762871335396689,20.384163680145946,17.231857887627065,22.94553131954718,6.227928818690529,21.009889454364796,12.335093443697827
2.8120000000000003,16.30463579162432,4.539011413659633,20.438091713122446,14.846763605181145,22.58045751723104,5.901140888618372,20.013004806110636,13.046285931388033
2.816,16.098823607213998,4.455450370942817,18.965485123670227,11.99762434995396,20.93267401650549,6.951791712043104,19.05476426146783,12.333440428633594
2.82,14.227085734392366,3.767477686276411,16.024547516568326,9.127866687108721,18.47710387012124,8.535846064818614,18.39442476316723,10.018325062418567
2.824,11.43625604819838,2.081635803975068,12.264150546671665,6.749967729252813,15.833016546945679,9.299725382242329,17.978241113903927,6.384877209012002
2.828,8.690283820598872,-0.39114833831105145,8.646804108970954,5.1694077760777475,13.427387632039888,8.104470520246721,17.344072376935173,2.062174157703682
2.832,6.757374297824241,-2.9007026315385183,6.009352731839442,4.346458084840286,11.3233522577775,4.6984274900877665,15.839088015587912,-2.1946028994346882
2.836,5.999522266814687,-4.521170433898835,4.703767701468344,3.989886413728197,9.314779780878318,-0.0395380877069158,13.05513918321379,-5.728754865445879
2.84,6.4089202594544705,-4.6371534801231284,4.495302352790141,3.7973775501681075,7.188847682975158,-4.457647358691034,9.2053568345411,-8.139433279047143
2.844,7.775156665509075,-3.2935227004059513,4.754513007430248,3.6660478998971726,4.967311116696411,-6.928440026334769,5.153995548269833,-9.348228149510815
2.848,9.830816142506661,-1.2082458853330458,4.833115688376445,3.7281345977962346,2.959090858865835,-6.664750899198324,2.0285023641931232,-9.564293206109479
2.852,12.259170945741324,0.5545634359296656,4.382069492398216,4.16487913993204,1.5735707962831178,-4.148032415007691,0.5995676141657995,-9.184595348897618
2.856,14.611770505631029,1.1005775338354375,3.4736673563956373,4.9524197038346465,1.0442110449100355,-0.9332161889664121,0.8166052252985523,-8.67302892441047
2.86,16.277218628636845,0.1587762245568598,2.5037827747554218,5.747021261890232,1.261401600451947,1.0829781557978606,1.8180368257552644,-8.438523727706025
2.864,16.591842512907853,-1.7853308429229564,1.9412479430076317,6.007947547771739,1.8287143567068185,0.548123684944045,2.4457415074961943,-8.733477730478214
2.868,15.141562462034226,-3.7069998911467295,2.1124725016768835,5.344247588499446,2.335941293357319,-2.7157657019593557,2.0071765024725323,-9.569483697491219
2.872,12.088567086894582,-4.507309317041852,3.1052662129070114,3.8505440667397046,2.654776510313255,-7.645968369235099,0.7978478010812893,-10.683391955779635
2.876,8.304511921941547,-3.502673062626222,4.791377915112157,2.1837603767341385,3.0438962446636246,-12.444621383330848,0.007805508708784714,-11.606528391498317
2.88,5.149421465054224,-0.7199750264797338,6.897848072158375,1.2825869621210657,3.96771925966204,-15.411481499941289,0.999315657244793,-11.862741918853631
2.884,3.8871062627337363,3.074101564719223,9.008379112493373,1.8144846100789405,5.6854369476502065,-15.727083212059,4.288644972647592,-11.264955842151931
2.888,4.988147708931571,6.5873738456643185,10.494062612696123,3.6568238048266473,7.838052405210696,-13.841499990704612,8.833635007403839,-10.197521554773974
2.892,7.678551124390019,8.343437899575129,10.459293917272696,5.7231291232678885,9.293174127399567,-11.318959649599456,12.095198909926985,-9.724240559109202
2.896,10.05686742525123,7.075381916104533,7.8681451648124145,6.307748264646705,8.434013044980766,-10.20017606740089,10.999907983279822,-11.340507041306829
2.9,9.860878474506123,2.1215678721021654,1.9370426531172278,3.876778565542935,3.8481716071018433,-12.12068700505391,3.427061357150567,-16.334568095498692
2.904,5.560111655296733,-6.26792013349397,-7.34061411989952,-2.0909375726991524,-4.8886302794667955,-17.548405540573093,-10.520213018395303,-25.013661457529587
2.908,-2.720713020021095,-16.78331945663673,-18.78164999117109,-10.625832646733684,-16.69807964013185,-25.454439528077586,-28.103613804535666,-36.14821219232117
2.912,-12.956925278587441,-27.18390649157162,-30.015455937119317,-19.43675716015331,-29.048726304555252,-33.57049228807599,-44.705321216702394,-46.99629709932726
2.916,-21.864643532998805,-34.783439031733224,-38.06661013463283,-25.70736453523714,-38.6493557165939,-39.15908195642977,-55.484664233893646,-54.0578569544778
2.92,-26.20163571750946,-37.234880067890806,-40.37256790622458,-27.174881617913513,-42.558003090782414,-40.03387144315345,-57.21508730540146,-54.33201628893164
2.924,-24.16271183452961,-33.38471077882711,-35.83434870223602,-23.021456259995055,-39.272273503313755,-35.42616449757758,-49.49320321549589,-46.55969136004407
2.928,-16.18674684361814,-23.82123393312155,-25.388912151092786,-14.157839001928703,-29.336527234563853,-26.31085858458649,-34.79072143280384,-31.845736428872886
2.932,-4.779071764052734,-10.816868580192317,-11.787279669853994,-2.8101804965401733,-15.21024433416444,-15.044543021789188,-17.38473509745135,-13.333635947880804
2.936,6.5702013844079685,2.407947544977576,1.3915429588730142,8.372278356279267,-0.4189658377943104,-4.447035788048645,-1.675647716667381,4.973121574913722
2.94,14.818236628642419,12.82021893524843,11.058798349732054,17.252640162213225,11.657658550651718,3.2627200119498525,9.331318057999308,19.707802310849402
2.944,18.487766494316773,18.651948815689867,15.688839278718515,22.79717853811148,18.888902640548253,7.210588495264616,14.7691859509046,29.284054057862704
2.948,17.97279947041923,19.92623883112119,15.677639968663513,25.12447922665143,20.952351928497947,7.9809202018501395,15.68101120203405,34.16835256088389
2.952,14.960326189598659,18.19353776716484,12.860840622405195,25.08278914879401,19.168838074424272,7.0792547454963355,14.090737427348138,36.23514844410951
2.956,11.378833037173909,15.651290199803189,9.492180809660358,23.665560917090957,15.752121777153306,6.058725504330788,11.92342338978143,37.61574525532595
2.96,8.46560100029621,14.093455123395149,7.207797485248193,21.57886597980091,12.822733255855386,5.772140699118587,10.303162906230366,39.652661506289164
2.964,6.416944252831792,14.206779414197351,6.4737661216862925,19.134259903958537,11.62376774711564,6.126139906017663,9.4717868288386,42.476557255063085
2.968,4.690664765086973,15.49637389116817,6.699547964697633,16.41739418340209,12.219309220452793,6.403218370874299,9.176307775271027,45.31535499847254
2.972,2.656277159549779,16.774544920033293,6.83894636525644,13.536225070715762,13.724201426750724,5.895310571196859,9.161713752542784,47.24867727362691
2.976,0.13743940166308644,16.883596176553,6.084099876372083,10.75041520293227,14.888890120160724,4.446642717415045,9.433701493658813,47.91465799372803
2.98,-2.481864331902342,15.243845961916522,4.269983481033776,8.396525472019306,14.734659172435906,2.581678935798159,10.164091973810493,47.764110425659226
2.984,-4.586504456168274,12.005476766002404,1.8375629430117648,6.701437642609795,12.984470629079084,1.1663126217425344,11.397193766720928,47.77043885125315
2.988,-5.795632501361979,7.84662582323495,-0.5144937230589974,5.651660877770238,10.144524259530282,0.8550016003527361,12.838648851925427,48.82144134116949
2.992,-6.225425680362509,3.6145175903383713,-2.2343360925516222,5.020135601122284,7.243746845365507,1.6704334772647016,13.92341834170307,51.1828454604408
2.996,-6.347825231054262,0.05707478190748283,-3.1162336448926453,4.558639285396017,5.404070362836983,2.991383252242727,14.151286261450721,54.347458346673164
3.0,-6.553746571210848,-2.265169001615037,-3.2273253735781537,4.230096664578035,5.421676531523897,3.9487434408292756,13.461185261391611,57.32250968322957
3.004,-6.758254837628735,-2.975619463235155,-2.70453214913789,4.294327537768162,7.495636981872837,3.9664459363647673,12.345784988510896,59.15628804300058
3.008,-6.334318579633,-1.899732495525658,-1.5854834308983818,5.175926917728551,11.195450631551745,3.1113682231154804,11.599825173573533,59.40035547837998
3.012,-4.457099384146679,0.8327928584478563,0.19160518714446262,7.174681116780245,15.652746935060218,2.028031883216787,11.82215887178598,58.261570323100315
