Timestamp,O1,Oz,O2,PO3,PO4,TP7,TP8,Fz
0.0,4.661160346586257e-12,5.684341886080801e-13,-6.536993168992922e-13,1.4495071809506044e-12,-6.821210263296962e-13,-5.684341886080801e-13,1.4210854715202004e-12,-3.069544618483633e-12
0.004,-7.19353838805165,-34.869465089712094,18.56211164729649,16.338405266629536,-14.686833878727754,1.3223971405697057,8.732693228312371,2.2023921457067672
0.008,-12.312914305294214,-60.080735438215044,32.7683071978081,28.906829351533474,-24.919449918988676,2.6754189541543383,14.55141801524394,2.622881272957329
0.012,-14.217220538616004,-70.34264981006774,39.921854317371924,35.40844270223076,-28.559828935394677,4.087752304287733,15.79178189622587,0.456466950179788
0.016,-13.15576258921891,-66.85107605913626,39.86518109129554,35.784370010100815,-26.82901408913696,5.576012647388211,12.666140123596051,-3.6748664937514377
0.02,-10.559622674352852,-56.16937924549427,34.691496033656364,31.92286742536018,-23.547477214615753,7.125823945153229,6.967672571427158,-8.036787885242688
0.024,-8.287844103784153,-46.55814962454767,27.514119326354972,26.529994997645616,-22.989386921322364,8.66464283201708,1.0549025310109528,-10.6896942717201
0.028,-7.753494591344918,-43.842219708096394,20.983921191916522,21.803939604784745,-27.598528671688427,10.044421210008977,-3.3022787977899384,-10.467715560738611
0.032,-9.389688558070418,-49.028227025011915,16.311342897813518,18.598375220621904,-36.835165036526575,11.06158555587956,-5.601474100249732,-7.501620522667736
0.036000000000000004,-12.693548111297673,-58.752776151942356,13.190823911672823,16.42273703942709,-47.72187584522473,11.519820202083906,-6.522934148763852,-3.0381722415120294
0.04,-16.725528832479426,-67.97164120201401,10.488135178516188,14.134989143999263,-56.671757608151694,11.323845470793572,-7.229651063507049,1.3058064805371714
0.044,-20.688783101254785,-73.06952883198701,7.168462327394366,10.818766668343528,-61.43505966382543,10.550623421502564,-8.532573682873817,4.3889630614662565
0.048,-24.263639456707892,-73.61868094325357,2.912378259612524,6.320783926225573,-62.09711709773188,9.455838172926633,-10.418294773473406,6.023060421141508
0.052000000000000005,-27.551329434674642,-72.0023882153761,-1.8239548389177855,1.2263102118222662,-60.67947791503187,8.40043212000569,-12.153418668101267,6.873144204326877
0.056,-30.755408769592464,-71.45720188364376,-6.188520334805986,-3.5907963578086424,-59.73351106126273,7.708855422016086,-12.817805825195421,7.8908634410727245
0.06,-33.86243673019675,-73.91255002852859,-9.421532044886476,-7.477685066031285,-60.835707700453355,7.522477714646129,-11.891555824306977,9.65474257779772
0.064,-36.501221153274855,-78.86868557994808,-11.139937614794547,-10.241628157896344,-63.77747859100077,7.721778003135967,-9.544634559167662,11.990557238201859
0.068,-38.06328828246882,-83.86019395241973,-11.325280643454477,-12.020622887102064,-66.83100489917439,7.971428372256696,-6.495799113637759,14.064840333379266
0.07200000000000001,-37.98867120744569,-86.05570263862506,-10.114679025237933,-12.937096204357204,-67.81944342948285,7.880741981849326,-3.5732407419031915,14.859578683082646
0.076,-36.03249332981551,-83.92610718471641,-7.60411289884982,-12.823011397511124,-65.30926451078176,7.207414913777598,-1.2686259555423476,13.736516204951045
0.08,-32.37107822254899,-77.99988951507527,-3.824239134970952,-11.237209760631288,-59.2776590552223,6.003017843475675,0.4482654347567063,10.782260276074453
0.084,-27.49479281613617,-70.33285137495366,1.116019675319592,-7.779365260268406,-50.943347148805344,4.606470322785356,1.9729460729681136,6.7467781967736755
0.088,-22.014244824027287,-63.2022332921735,6.860695379728384,-2.494832633882453,-42.02091896156898,3.477958202823004,3.719072264021918,2.6550469283043867
0.092,-16.51861459709363,-57.92880162705583,12.786235368764324,3.918176702889383,-33.9283487968022,2.9645444644749546,5.816579028044316,-0.6711515531455916
0.096,-11.543704502694482,-54.51536774516342,18.168195589327325,10.25571875271143,-27.39299501638186,3.1174206957298907,8.025674668362768,-2.931636066248018
0.1,-7.619102421025104,-52.17645808762376,22.412950564525218,15.232224353674269,-22.577300866812408,3.6578278161069875,9.874370944569137,-4.368076084580309
0.10400000000000001,-5.245684526884077,-50.187828771750105,25.198268709841955,17.954245229488123,-19.442054204963284,4.111292929019726,10.881516077146387,-5.542874828463084
0.108,-4.76570578527668,-48.458723495093324,26.441546912303465,18.19787926944781,-18.0365456364336,4.0452162764311765,10.720705681385368,-7.019389295566384
0.112,-6.1981691993509855,-47.525393636752824,26.165973705360983,16.379789852413523,-18.532743928121334,3.2838623238750984,9.267773959563328,-9.099383549590243
0.116,-9.154478028502837,-48.08087724750243,24.411055424369508,13.289140221566782,-21.034632181117132,1.9947120488991459,6.577420266071101,-11.713176684631321
0.12,-12.931062843392453,-50.43175203406034,21.260205044291496,9.740070678503614,-25.365309145930553,0.6120911003632727,2.8502223616628726,-14.469278189258489
0.124,-16.75080106031919,-54.20950033527902,16.947030549512974,6.306552483707009,-30.97499230840677,-0.362870437068068,-1.5715961814964885,-16.811243408209805
0.128,-20.061911314487872,-58.523381901632376,11.915363609116937,3.2260675866305064,-37.075937810255965,-0.577560061442,-6.205354086297348,-18.19694690858654
0.132,-22.742727356108702,-62.43816775697769,6.742710700256765,0.4631832912221512,-42.94072723806988,0.04897216544071625,-10.480926673781454,-18.24204630538526
0.136,-25.09619786339465,-65.4602946767628,1.9370322560075408,-2.1390797823052594,-48.183877770531126,1.334915658151317,-13.877080318908071,-16.798182106341926
0.14,-27.63322702279885,-67.7351797811325,-2.2874965979275714,-4.7198080343740685,-52.859187256272406,2.9413925468949174,-16.100541686822453,-13.975933551217395
0.14400000000000002,-30.737733005696725,-69.80880752918952,-6.099407862294413,-7.338762329379108,-57.267279223883264,4.495438466384485,-17.21441653315577,-10.148171949014795
0.148,-34.39756953800634,-72.153949372022,-9.896085244227578,-9.965967985048053,-61.59982130230878,5.683021886885513,-17.60227763924007,-5.900427480045664
0.152,-38.143155665965594,-74.7914161267272,-13.94150360016937,-12.474485292528982,-65.63447596554329,6.300266186863098,-17.730202828872223,-1.907902739380802
0.156,-41.24150204755966,-77.24349975208261,-17.997319536219266,-14.628349376411762,-68.66685167988868,6.275664303710698,-17.821488473300178,1.2375220631435013
0.16,-43.0330813866297,-78.80312550090127,-21.206595533516975,-16.083472819301903,-69.73080981714037,5.679660600139982,-17.64435862489256,3.2003737285306215
0.164,-43.19751647002715,-78.86304506699406,-22.359281253704665,-16.443168028182015,-67.95564280309753,4.711855567330076,-16.582293720580765,3.9710189643426475
0.168,-41.830294263417386,-77.14377682049343,-20.44022432032068,-15.372761912916587,-62.92347168479316,3.65583410473198,-13.981551782447525,3.8000772351604155
0.17200000000000001,-39.32518825851332,-73.76303070312082,-15.171565381827406,-12.732280965791517,-54.90423400232416,2.7901589984544444,-9.595214200749353,3.023575801080483
0.176,-36.14804373064965,-69.16237268330562,-7.239943634669771,-8.658480617081153,-44.872059494184896,2.2799868770670173,-3.8626907935814074,1.8701471808752785
0.18,-32.63366335571391,-63.95729435617778,1.9083626170621528,-3.5569973090571523,-34.290396838723154,2.1080401036433614,2.156444883924621,0.3571206506898079
0.184,-28.880018271284143,-58.71911550941289,10.592712758049316,1.9879400060447097,-24.684138883136086,2.0902811937592105,7.182300536429636,-1.6694995550875547
0.188,-24.798483416951058,-53.799195463095884,17.475563742163445,7.353140723063973,-17.179564918399535,1.9922149914074225,10.256444088369676,-4.343839408576628
0.192,-20.294042847264222,-49.291439984281396,21.927760536201106,12.016688613378733,-12.219745514496765,1.693134439896653,11.147211790092797,-7.540356167058576
0.196,-15.483525325969026,-45.14920675152956,24.05419628650077,15.64725851275142,-9.574272518896578,1.2959409866296028,10.39965301752818,-10.748293910095867
0.2,-10.826203319120395,-41.38498583603297,24.414991163538048,18.107494726404923,-8.626834463985915,1.1033851639484737,8.999514931830277,-13.167884295672593
0.20400000000000001,-7.053225713343522,-38.18083528545179,23.616518528399638,19.378433365666012,-8.746953315825294,1.4400997290846362,7.820538808263791,-14.038415037367258
0.20800000000000002,-4.931075446566638,-35.87601215758502,22.00029024093567,19.453507471416458,-9.58993275634748,2.4226979976867824,7.167810650520778,-13.039533229592507
0.212,-4.958253337163001,-34.855963165758794,19.58682587445975,18.287625866817677,-11.202123070637072,3.83249547061007,6.67703423109424,-10.527973372620181
0.216,-7.1340744819032125,-35.39832478980372,16.251430268077286,15.834764663067688,-13.901807206921092,5.187342850187861,5.624704415171891,-7.43864736830642
0.22,-10.913602175512779,-37.530809939545065,11.973884451976744,12.153185845047403,-18.01230746382862,6.000787084464946,3.463377278270741,-4.8558659680811616
0.224,-15.35477306065684,-40.906716598354365,6.982654052529767,7.504153086723534,-23.545916506052208,6.0739446340843415,0.25945675906939414,-3.4769445917297617
0.228,-19.438048164268253,-44.82450273622385,1.718467958653207,2.3766997208624048,-30.04766051237442,5.637696529977575,-3.22923969770261,-3.2491288932317275
0.232,-22.433064159690275,-48.42754956523004,-3.315089238246287,-2.5791309849519735,-36.68611197453271,5.249317140611993,-5.878307143017878,-3.383752416340485
0.23600000000000002,-24.132227003559592,-50.957651355425924,-7.712436765169798,-6.710507276135331,-42.49996103312378,5.475968201761134,-6.7558805445061125,-2.7813025595758063
0.24,-24.858193521269982,-51.98532135934681,-11.228466783300291,-9.537612376077277,-46.6914089455621,6.553409409769529,-5.6006797507924375,-0.6419576486016467
0.244,-25.241524011363822,-51.52712119097612,-13.700156314449146,-10.855345045422041,-48.83039377885643,8.232016446377429,-2.9418519173444793,3.0793162446298084
0.248,-25.851905495996334,-49.96218077728986,-14.921867703074554,-10.72171569287508,-48.87377922957501,9.907923203533755,0.20800572340237977,7.617087567157796
0.252,-26.854974513056277,-47.76542211548423,-14.606634434985551,-9.35689032796256,-47.015186989835684,10.965195608875092,2.8868313730846467,11.756232234176423
0.256,-27.87901002483693,-45.22801588685195,-12.498388022672714,-7.023865047393031,-43.510592851317256,11.113882695279926,4.641448096387194,14.403786653891984
0.26,-28.20174601653332,-42.381379037855424,-8.582955753885415,-3.9566881355258374,-38.641491062982595,10.519645314918534,5.6594480331064005,15.062261219554557
0.264,-27.1736354138759,-39.165939119835855,-3.270736228511055,-0.37842159376191375,-32.832915446210905,9.647110434190381,6.506491458862342,13.94180022965952
0.268,-24.64231458476388,-35.68528927422665,2.5730169933114553,3.4101659859389883,-26.790528928104095,8.923313670706193,7.642031444736972,11.69111042038594
0.272,-21.1214861041052,-32.32115596308239,7.818721633831331,6.953447414927496,-21.46945567712021,8.455397780695648,9.024443720245927,8.955004289762428
0.276,-17.591771036395926,-29.60721548133654,11.448128172806378,9.672573470675559,-17.807755607548643,7.991935025229395,10.080983159792027,6.0614795412429885
0.28,-15.0367083065629,-27.95313540219911,12.963822995441376,11.050996080644154,-16.3543486210433,7.1679327799990915,10.08344545070861,3.038599615279736
0.28400000000000003,-13.960606680956175,-27.387198830169723,12.625004364258928,10.89425021465928,-16.99077884388737,5.861511653131629,8.700640197052394,-0.09116014601568168
0.28800000000000003,-14.150681651615741,-27.47314994135718,11.338725850723165,9.492896920426233,-18.932848171955925,4.39476947353387,6.348111396068248,-3.0110963146719314
0.292,-14.822352136738687,-27.473756411190152,10.206251500668031,7.541611960005866,-21.06836678795287,3.402625080064354,4.048879036376775,-5.10723983607113
0.296,-15.098387685231842,-26.738575135563906,9.932041345722837,5.799493487003019,-22.51858859405354,3.408229423409921,2.8252539916738897,-5.839811720106809
0.3,-14.582349966438187,-25.17036419781482,10.401013470375347,4.651197104892503,-23.18234859225106,4.367298385996037,2.9562879774296107,-5.2635268221338265
0.304,-13.699635277771108,-23.495394161394188,10.659017101549239,3.8093934963778793,-23.944731874193394,5.4899626994172195,3.560481356336595,-4.3253526587627675
0.308,-13.578518119048567,-23.095889857030215,9.320423766011402,2.346951799552471,-26.352851721665502,5.507012463890305,2.8261646251573893,-4.6489880948684
0.312,-15.489956155109667,-25.379036604318003,5.2183737299425275,-0.8951111939323937,-31.841900147464912,3.285327379825276,-1.1416349493100597,-7.79667065236481
0.316,-20.13073092135255,-30.97883152233851,-1.9964424328412633,-6.679362472869684,-40.87707077917355,-1.520556893019375,-9.244064256626757,-14.344078580490532
0.32,-27.138717745979193,-39.25269954618409,-11.573742019912515,-14.811449876687789,-52.484713304418165,-8.148311894992958,-20.629526609171762,-23.27079038056536
0.324,-35.10856732377647,-48.36330921488309,-21.81685986905086,-23.946582244112165,-64.43153856583547,-14.940017547620528,-32.70448664919229,-32.071319879886005
0.328,-42.09448366436504,-55.912335104918384,-30.612257688690306,-31.91676515740687,-73.9747863262163,-20.00394265711293,-41.994917229650014,-37.63411210852246
0.332,-46.34153167242721,-59.81254727311739,-36.109599817666776,-36.484050648302286,-78.81393240525267,-22.000685340445216,-45.486717305423554,-37.520622733732125
0.336,-46.88809746423931,-58.998355761556354,-37.25895881256531,-36.18963940468677,-77.81152143867007,-20.653457166416047,-41.8200129338627,-31.019667365057103
0.34,-43.801679965034964,-53.71743341129263,-34.01000334302296,-30.909999229344294,-71.22564267005976,-16.733967502448195,-31.772117421424127,-19.440711323187315
0.34400000000000003,-37.994131347469875,-45.31507763323839,-27.15521877053618,-21.877577165741855,-60.423807480426944,-11.57650731766239,-17.833145939343012,-5.5251745930104335
0.34800000000000003,-30.775151507903615,-35.644602188454826,-17.976143852528025,-11.179670066929475,-47.28761125919959,-6.4200996691370165,-3.138145069723805,7.697249625937957
0.352,-23.384160713773213,-26.38125878977621,-7.891346554125391,-0.9876663290714305,-33.61481335601525,-1.933213974654791,9.683875372083094,18.014300761434242
0.356,-16.709469335985204,-18.55536902667518,1.7851270295162749,7.131894673611214,-20.773751586163257,1.8517733359606154,19.21474171931527,24.58458150178012
0.36,-11.274610923001546,-12.50616291289407,9.973413482486421,12.558156145465318,-9.694037801756622,5.228948518342349,25.279366831495963,27.783428841775276
0.364,-7.377193576054879,-8.16468897801019,15.915063861310955,15.53241159361255,-1.0347794807817081,8.38682343085543,28.451001162714647,28.56145189240442
0.368,-5.1991356512339735,-5.387549003633012,19.25946619995716,16.770938783214547,4.708398058471516,11.14552603655602,29.41125275197055,27.757172998586157
0.372,-4.773195441199277,-4.08927792164036,20.124858490066458,17.011605563275907,7.295854091339265,13.01601006947135,28.545252241817707,25.753254537095472
0.376,-5.851223918718915,-4.1395848892024105,19.072137343676445,16.720914977594703,6.95372690346403,13.523728087627433,25.946436015031395,22.589678518977962
0.38,-7.827398677456131,-5.199778826740612,16.955053653429786,16.068453148790468,4.46974806965045,12.58601480909806,21.726686150230307,18.35896438757254
0.384,-9.850856614893473,-6.692550483473042,14.654839683073874,15.091634833589183,1.0120844134549998,10.684625556350056,16.338969733754993,13.5339324676238
0.388,-11.110185534072798,-7.957643235595356,12.782166117915722,13.889963643033298,-2.2936470414430232,8.709176090105757,10.642520707720905,8.965363585049545
0.392,-11.154779956263837,-8.509147329412144,11.47038150447429,12.687640681316452,-4.813538028429093,7.544412866836183,5.637191003209409,5.530034866191727
0.396,-10.082933612887928,-8.244306282582215,10.38338606452453,11.725853154091737,-6.626458311691522,7.631437141760443,2.037598940945827,3.670655044140858
0.4,-8.495853795852327,-7.5092055357001755,8.959493204681621,11.084197612036633,-8.400818569558282,8.75628889597374,-0.024867389997098144,3.1552547136684552
0.404,-7.216492956710681,-6.958533182670408,6.776966262704832,10.579972594167884,-10.968204182760928,10.188445388484979,-0.982907188272975,3.2335916790584633
0.40800000000000003,-6.905291550548554,-7.24320697127348,3.84045995260999,9.83034690867089,-14.798569102693591,11.089758471106734,-1.5117401069951484,3.1080628023564714
0.41200000000000003,-7.7567719085559474,-8.663317187374787,0.627609994210161,8.46165523508239,-19.639766137715924,10.972738307089912,-2.10707885377019,2.4451117395146866
0.41600000000000004,-9.430963880800618,-10.986364322617646,-2.1237507728172886,6.346103960195478,-24.52251959489763,9.952399970628449,-2.817346292921229,1.597418853983072
0.42,-11.251622692657747,-13.567121900221196,-3.7547256226470154,3.7353796604918443,-28.160941775301467,8.666736072267213,-3.2787279925396433,1.396383845245964
0.424,-12.553763290930874,-15.699668335843398,-3.9612089911802286,1.2066217818272662,-29.53127722117324,7.916375854605576,-3.0010090678761117,2.631506815492685
0.428,-12.991552572564387,-16.97830037750998,-2.877095896767514,-0.5778892104661963,-28.321817073714556,8.215904371088982,-1.7245959362703616,5.501918535371715
0.432,-12.641181840163881,-17.43882265753905,-0.9462343581928963,-1.1826719767730083,-25.019717413874787,9.495134787051938,0.36688417649907024,9.357240110606199
0.436,-11.867325994901876,-17.413892796871437,1.3279423554048435,-0.6121218081918869,-20.61595767538381,11.110145571166868,2.701408778360701,12.893858242166061
0.44,-11.07569976947434,-17.2545279502898,3.6069900282695926,0.6900147403041501,-16.14333070789189,12.153922202594003,4.596994884691867,14.718075807576042
0.444,-10.488451692704984,-17.090243807615252,5.8116335849364305,2.062837681466135,-12.289791358555021,11.899584935256826,5.596581762434653,14.001325943506345
0.448,-10.05841868358607,-16.7617825067299,8.041771078142347,2.9443828847245186,-9.251453019503742,10.153049915275915,5.661435147846987,10.887524117547855
0.452,-9.543423716162806,-15.939362398796334,10.38475951574992,3.1086823297777073,-6.837826597370736,7.332409182160973,5.122889222361209,6.4377634893412505
0.456,-8.689979169336084,-14.350738636983806,12.74289188124078,2.706767342737635,-4.7231667761137714,4.244738544206939,4.436106749369628,2.145207348877193
0.46,-7.412702071699869,-12.00944984429077,14.797633141133247,2.121230443125455,-2.7123295821490956,1.6970353559850082,3.9106833203913993,-0.7239343244782503
0.464,-5.8750431191501775,-9.317017885670339,16.131986507381498,1.724458056436788,-0.8875408921379631,0.14585019585183545,3.5657271323509576,-1.6496882317110249
0.468,-4.433630655249544,-6.953181735588942,16.425392247555237,1.6711423153112719,0.4266613691326029,-0.43849037944482916,3.173008963048005,-1.001631428078781
0.47200000000000003,-3.464059796684296,-5.581721395284035,15.602586395287403,1.835471007758656,0.8495759932649207,-0.44602180345236775,2.4363675448541926,0.2352587584223329
0.47600000000000003,-3.1705930268515203,-5.537082757688495,13.853817422610518,1.9053759340963552,0.15897474032249193,-0.33623621522110625,1.185657585638637,0.982473775382914
0.48,-3.5133007474000806,-6.698954893875907,11.529677036526891,1.567996874097389,-1.609189737722204,-0.3565058229874012,-0.5232941891715654,0.5830357309519059
0.484,-4.2827445705697755,-8.61331244069163,8.980323582441542,0.6764314398370743,-4.2138057796399835,-0.43617155820038533,-2.4443484241887745,-0.9366700399655201
0.488,-5.260199355938312,-10.757562476492694,6.414804121565226,-0.6965821044176437,-7.355592110509292,-0.3070724243270888,-4.278290592849999,-2.966961132547567
0.492,-6.3581728138995,-12.772582023769814,3.845188049750277,-2.3423741455882237,-10.806333450390866,0.23079574935036362,-5.831461039805845,-4.693322630228067
0.496,-7.645876039888435,-14.532073726076533,1.1441547364330518,-4.06757835872952,-14.431383921271959,1.0765134771791054,-7.096792839987074,-5.530325695106967
0.5,-9.256224016056649,-16.06936782159073,-1.8225861861225212,-5.804278864662592,-18.129321075407688,1.7970575310446293,-8.213655868727983,-5.366777043961974
0.504,-11.223413920948133,-17.4338779269043,-5.049934363849843,-7.597875454719315,-21.731265343602672,1.8303365717970337,-9.336655374745078,-4.510456777813943
0.508,-13.349707107842278,-18.565986524742925,-8.314461576529993,-9.483061675221734,-24.916137764381688,0.8196997932632257,-10.49775982543656,-3.3956362194753638
0.512,-15.188812843948426,-19.258653807288283,-11.222202368217609,-11.342301528555936,-27.20966568139181,-1.1249780532423301,-11.558855349870782,-2.265482794106447
0.516,-16.188728409660825,-19.23209399459256,-13.358034207927517,-12.851784085911277,-28.089112794100515,-3.4110676364073242,-12.286107425854198,-1.0384218277390573
0.52,-15.950202541620456,-18.305092730213573,-14.460584476278768,-13.568147770771475,-27.187928752662856,-5.218727643390139,-12.500192819808717,0.5567950856798234
0.524,-14.45721961311483,-16.554153811182005,-14.526305207897508,-13.11887137810777,-24.504868769239465,-5.905623281840235,-12.213871042864412,2.6640170162036156
0.528,-12.135358888876453,-14.339019765282387,-13.797752093727581,-11.404632742714625,-20.489079255541355,-5.3402855723877565,-11.664527600533802,5.019172799326498
0.532,-9.684198248884968,-12.149681396696906,-12.642469572828077,-8.703080224893597,-15.918213287057938,-3.971688515944834,-11.214174298271473,6.924366185982308
0.536,-7.746975404879095,-10.34786217910812,-11.375794273221345,-5.597343723052745,-11.598024065410868,-2.5898704845083103,-11.155857150480188,7.546261181452337
0.54,-6.605003734586489,-8.990382117854665,-10.103552441639636,-2.751439202928168,-8.044392471137257,-1.902582451085209,-11.51894467158695,6.404387076524927
0.544,-6.072164475629961,-7.845165046860984,-8.66130321518176,-0.643566032182207,-5.311894428136043,-2.175773911103306,-11.992653857485038,3.759697182727905
0.548,-5.643187226686678,-6.576115760411767,-6.699843143531211,0.604150736026213,-3.0542837719715408,-3.1403800618509194,-12.041075513627447,0.6270729692332679
0.552,-4.804189312108974,-4.96329536200642,-3.8931003008481184,1.2136052909985438,-0.7744247973330403,-4.20404489787029,-11.177509652640083,-1.6595293861041682
0.556,-3.340483843531956,-3.0378132002740585,-0.17411123365047843,1.5651282152850854,1.8585280477299193,-4.835466453494746,-9.26811262283627,-2.1393544713014307
0.56,-1.4796380906129798,-1.0857289890607262,4.122589114062066,1.963826256707307,4.770344493860648,-4.882484051003985,-6.686177026238511,-0.7851207342823727
0.5640000000000001,0.21769992294252916,0.4800998858052026,8.298706510023635,2.4964598170139425,7.453800788199146,-4.62466538808485,-4.220192805524675,1.4091701524548625
0.5680000000000001,1.17082839026466,1.3201875637366811,11.503319004519767,3.050798594030425,9.174132009093682,-4.522702098926175,-2.7599195927352866,2.907780526614715
0.5720000000000001,1.1190890122775272,1.3396343916933802,13.022634047989072,3.4645803391026675,9.314554983676658,-4.8301000218646095,-2.906618162719269,2.4481651824203254
0.5760000000000001,0.29822577341883516,0.7407837833558233,12.52533570317678,3.6896418494671934,7.6808984616880025,-5.327885758092634,-4.713229302217542,-0.25680589404646526
0.58,-0.6498357818416025,-0.08931770815138407,10.179200953134682,3.870321267567533,4.594467640747098,-5.361018122293217,-7.671140642380692,-4.308786503537249
0.584,-0.9895999227157972,-0.7998319474461368,6.595620919618568,4.274321174324541,0.7298823635522922,-4.190993542581509,-10.951523290642513,-8.047384502001478
0.588,-0.26223978127677583,-1.2670803605304854,2.6250085227588897,5.107447986888928,-3.193890776849571,-1.4715242315216983,-13.777620431775631,-9.889098241992997
0.592,1.5000214619519738,-1.628725258606437,-0.9129849622049733,6.332143661235477,-6.680285744527737,2.435191938521257,-15.728703357476206,-9.125365076144135
0.596,3.8262924985122027,-2.1437231834811428,-3.461994541285037,7.616627899435912,-9.538894446377412,6.512042238636695,-16.816536758739744,-6.249383380701147
0.6,6.056618953097427,-3.0033155676171646,-4.846715693473641,8.457083773407476,-11.797467130599443,9.517952297358079,-17.31774089204123,-2.640630819654916
0.604,7.633762265885139,-4.214446342192446,-5.252783305324158,8.416483511292427,-13.53645729330242,10.572702987207549,-17.487670389645814,0.1891846494750098
0.608,8.290389094458305,-5.60419467701297,-5.107375917737272,7.347656593306169,-14.765129368434032,9.581311136807471,-17.35105518045168,1.351353693045212
0.612,8.051004909995072,-6.921035901759296,-4.921698390341078,5.4638358525982085,-15.410263042523866,7.262594890030414,-16.70475563248624,0.9209740295646043
0.616,7.0859123836460185,-7.963184954472126,-5.140178149621136,3.2168229562751094,-15.407780719171342,4.764834548873296,-15.32163399376509,-0.2869871332989078
0.62,5.532344485246654,-8.674565672026688,-6.022460321310064,1.0640935206993731,-14.83052981658875,3.0847675478357814,-13.207928679658721,-1.3185007852064246
0.624,3.423354682440845,-9.147606326366372,-7.557971897605114,-0.7236114104683793,-13.928422834505795,2.6080092926306406,-10.722479031506282,-1.665344159051756
0.628,0.7703172180511046,-9.529749570933973,-9.441020083521039,-2.1150391070444243,-13.029759850907567,3.0072965981962625,-8.457345094022003,-1.4879406912814375
0.632,-2.2818072003715315,-9.887715614536546,-11.145855201977042,-3.2271183288334555,-12.350438749784416,3.526435994928079,-6.944603189073291,-1.3897445936911481
0.636,-5.3395003184538155,-10.103398054502122,-12.090321422585873,-4.158971170281973,-11.827659427197204,3.4683089505617772,-6.357246531636065,-1.9271830313718965
0.64,-7.810944692321186,-9.900876436590636,-11.843914659099994,-4.870463577318901,-11.124348388026533,2.596086199947649,-6.392117515973496,-3.1871822047025944
0.644,-9.115801927943835,-9.002188106520805,-10.299493019832482,-5.178179437806023,-9.826987385291034,1.232489792724209,-6.43009506712167,-4.705105813588489
0.648,-8.950377943344279,-7.317229681662241,-7.741978610334911,-4.867336661468926,-7.728623739846,0.020121716788935373,-5.891828412041036,-5.752674587057754
0.652,-7.442349534306118,-5.034650161143304,-4.772462802320888,-3.836615626431353,-5.01163809013002,-0.4854592899882846,-4.587318643463618,-5.792375254461149
0.656,-5.091716107334264,-2.550332123998942,-2.0993475530243018,-2.176745064102647,-2.2047308538569723,-0.1394056342235217,-2.858252242205367,-4.8016421607605935
0.66,-2.5411245200323265,-0.29886219177865314,-0.2809920185025021,-0.13476947462231692,0.053092910328075504,0.7385566098462277,-1.4164420811633818,-3.2605596738010263
0.664,-0.3070163021694725,1.4123643645197603,0.47068305021764445,1.9989912337519513,1.3131658787550577,1.594644636250223,-0.964502988176946,-1.8358918338510648
0.668,1.3811304201143457,2.482203850881433,0.32953551503760536,3.9935032181940073,1.511384377893421,1.991019155561844,-1.8090129314659862,-0.9860299057779685
0.672,2.559014469977683,2.990600828899403,-0.2816436353275549,5.696742545176733,0.9542906316226549,1.8529847743845949,-3.6803430132516723,-0.7360865585853844
0.676,3.374728614529772,3.1065608462537284,-0.9263894113198035,6.981215400487258,0.11898205045594068,1.4674145017083902,-5.856652789635405,-0.7586134191642486
0.68,3.913423829584872,2.9704800123411133,-1.3634357103546222,7.685645096292774,-0.6272974918454111,1.2505413359576778,-7.515894622403607,-0.673910062138475
0.684,4.116644110617472,2.6215071483341035,-1.6230971345733565,7.628574235577901,-1.2146843229685373,1.4374373337710722,-8.120522776434655,-0.351548076746667
0.6880000000000001,3.851818566720908,2.022464787622141,-1.9270876730114423,6.709489816168286,-1.8555163289416896,1.893458007712752,-7.642355445497742,-0.014007955669967487
0.6920000000000001,3.072269356296033,1.1723422504194332,-2.5089150295189597,5.036480689718076,-2.8352609594033993,2.1746319757530728,-6.522160462926763,-0.07747931868152591
0.6960000000000001,1.944840234384401,0.22824605838661682,-3.441239902397001,2.9804835994413565,-4.237703871976976,1.7953378274281704,-5.417932498124287,-0.8547398192749824
0.7000000000000001,0.840513046996989,-0.4753450519635294,-4.554039533260493,1.09312645308745,-5.79965811261178,0.5481509630317305,-4.8774754476417,-2.3182599846486482
0.704,0.17618462450548122,-0.5493238651604884,-5.476234548237358,-0.10295165819064778,-6.992439304695779,-1.3198233715249899,-5.093258182898467,-4.081047614198042
0.708,0.2080552771294606,0.2524410973481963,-5.780362637765393,-0.34730303900653325,-7.286051348306785,-3.18278945351949,-5.84942662436174,-5.607276436407801
0.712,0.9147974951694096,1.8840439943787715,-5.162777719903602,0.232677927199461,-6.435866769891561,-4.324355004524023,-6.6609373745435505,-6.511358802463974
0.716,2.039544597290046,4.002629570593513,-3.571000595516466,1.1821184146352834,-4.616538408499423,-4.282779699356183,-7.013493924470367,-6.756504894316322
0.72,3.2498497929750556,6.104340492754716,-1.232490334098884,1.9431852529753542,-2.343603141087158,-3.070694066172223,-6.583609861569812,-6.625676630457519
0.724,4.311361201201066,7.735881368865705,1.4307507181373467,2.131718212420651,-0.2203699817465008,-1.153242098979831,-5.3443969648949405,-6.492999872175687
0.728,5.157183603331532,8.6802484434412,3.9499923080697954,1.7095445866715409,1.3421974347520518,0.7963317770576168,-3.542467879723972,-6.556090342244261
0.732,5.823199806881576,9.031907026602823,5.956487504463439,0.964138713087948,2.2888883798441384,2.2176483101579834,-1.5803045147952162,-6.710179221890485
0.736,6.3208330623671145,9.126579769896352,7.273960785650672,0.3192517626614517,2.8939483073227734,2.8969550904571406,0.13504436726123004,-6.6424588406705425
0.74,6.539861272030862,9.337068483810413,7.927133921008874,0.08901255388582285,3.552644565622984,2.9936704720597618,1.3200917737743794,-6.0825158858274335
0.744,6.271835377008415,9.845147952698198,8.086487172675277,0.32299853954879154,4.523656855517061,2.8733752221668283,1.8872282179780768,-5.032395028547626
0.748,5.351399132356164,10.512517465941812,7.964021590263883,0.820104744184107,5.764293186129521,2.865195122821092,1.9390883670386074,-3.824454601007915
0.752,3.8207922912582717,10.929396145482826,7.696382410980732,1.2783748497415104,6.953111907602192,3.0792851160151713,1.6886345583257594,-2.965985492856248
0.756,2.005553474727776,10.635885372440214,7.273876488106509,1.48606510205434,7.682285071696299,3.382550584677915,1.3384098471174752,-2.8601245405777718
0.76,0.4366998992787785,9.392043600869329,6.554240722629913,1.4499883200061845,7.684012147488261,3.535363843048458,0.9728422174985099,-3.572316363649634
0.764,-0.3505197884242648,7.352998230581079,5.368598875020751,1.3973912372281347,6.968077749670556,3.3923148107749057,0.5121845032581973,-4.782604040508772
0.768,-0.04550049129790068,5.053328929793793,3.6666167259903375,1.6525502599448032,5.796348753536961,3.0348557073790516,-0.2524269818503626,-5.9600812147418765
0.772,1.3104789367441754,3.208663995821894,1.6156534902571025,2.457748796036128,4.5211350850171925,2.7465226151532534,-1.558392009375325,-6.667170714234885
0.776,3.353126104703847,2.425407239736046,-0.4065936960154488,3.828617107292473,3.4002976515488967,2.8397694578762867,-3.538733211083809,-6.812644053877079
0.78,5.543630091976809,2.937909972243631,-1.935114709717027,5.521310250430872,2.4920675839104547,3.445170345795759,-6.111058090838753,-6.695297751811609
0.784,7.35548678398942,4.498114764572335,-2.597751024228131,7.131033525747512,1.6976378258395926,4.400561618265442,-8.93547865244642,-6.799133419761233
0.788,8.41739016521916,6.477720334881951,-2.263524793943219,8.2739742349616,0.9237163786018527,5.316902880676253,-11.46268229773517,-7.448050815772831
0.792,8.58809406518884,8.152513414985606,-1.0850561167949309,8.767979701499428,0.2594282444154601,5.788851206829463,-13.063274279795166,-8.522267990324053
0.796,7.964117695531968,9.033369469501736,0.5822219771557968,8.721222642500322,0.04378654119051362,5.63203310024096,-13.21262564869562,-9.418301730904545
0.8,6.820073949173491,9.053258532854613,2.3312461436420904,8.468138726864083,0.7282534595562993,4.993664362040363,-11.678844249656265,-9.300185783218467
0.804,5.509808703061481,8.516749085061178,3.8471989077308137,8.375323882248722,2.5879440178213144,4.258837210919978,-8.650157486314754,-7.530654593732947
0.808,4.3449887536102665,7.851179976337448,4.968249559511236,8.60540186035999,5.4383221434817415,3.8078237401244905,-4.745334300324316,-4.056738049866794
0.812,3.480469157505354,7.318421591315484,5.648858356439405,8.962123469689999,8.55101639013651,3.7743096940779424,-0.8797635191987752,0.4672102574108976
0.8160000000000001,2.8542310628882888,6.864383677297241,5.8742537011990805,8.924403641112633,10.878345354953922,3.95466621159278,1.987651687126288,4.906769346743772
0.8200000000000001,2.2238155296245736,6.179100899471706,5.6074158067138455,7.88691772832729,11.500370539940889,3.9440275912921834,3.1612026864005998,8.136549627159638
0.8240000000000001,1.3077536516140071,4.9322190522610185,4.824496011036899,5.513241367198219,10.08922608943351,3.4308918289495978,2.4609360031554957,9.553168527591424
0.8280000000000001,-0.027073764763656527,3.0342411386028516,3.608442649694581,2.0156867670736176,7.13253756123288,2.467490810455274,0.3110938641723351,9.345618415389481
0.8320000000000001,-1.6233274836530995,0.7656676523543808,2.2216767096405476,-1.8044302732962194,3.7700582456099028,1.5314089266086057,-2.4000288826152314,8.378942023020272
0.836,-3.0330220928772746,-1.3076664836721932,1.0767757347933866,-4.817622683322043,1.307171765606654,1.3121551326099734,-4.65099200398555,7.7401294804657255
0.84,-3.705023648622614,-2.614407281987951,0.5894240049856023,-6.0340876719347705,0.6157481740812045,2.3227278725537417,-5.675952700981384,8.180263087994263
0.844,-3.271294394650056,-2.8931419004306065,0.9853966191133168,-5.045991646974215,1.7359907378415755,4.558860939879537,-5.2330070768117025,9.748469601653369
0.848,-1.7757757407740655,-2.361221185676385,2.1659935660646568,-2.220574249131147,3.890980374480506,7.41570601819285,-3.631794315611785,11.801223449484041
0.852,0.3150583029013774,-1.6136609797154051,3.7183445382959803,1.4719099984492061,5.918843393068869,9.931099438356796,-1.5219816647542075,13.365742343064426
0.856,2.3500251336935776,-1.2925441627538135,5.08347878068119,4.912406006477795,6.899345336289741,11.235297851026644,0.44651988924937314,13.648542876491774
0.86,3.8457055678680945,-1.7271198157618812,5.796812307736303,7.327914158538903,6.616475922731411,10.97123008226015,1.906189581005549,12.416706617679779
0.864,4.748632022944889,-2.7495700416147884,5.686193007814609,8.567572190944816,5.608816692642279,9.451969319843784,2.8527911039358855,10.051986408462085
0.868,5.433399198865629,-3.7903097573924356,4.935505110978767,9.036925788283497,4.797352157279761,7.475552021866406,3.5177435506594747,7.290642000642038
0.872,6.415854917406477,-4.198534328616972,3.980145667107422,9.339504768007743,4.911394101910986,5.8971110344930935,4.1273399710152034,4.820592126639895
0.876,7.951685121875698,-3.597390707908943,3.298760082729075,9.849451431995448,6.055475735319675,5.199567674213483,4.702129637334508,2.97482674311982
0.88,9.774549477555297,-2.0906893012046908,3.2118912804607476,10.474758658902175,7.6509203915240676,5.3066315321443085,5.035098142703873,1.6929773548691855
0.884,11.150657472911973,-0.2250620467468707,3.7704181284202605,10.735277747662536,8.773511634913916,5.7140418206369645,4.846795791995987,0.7249696625788147
0.888,11.242335182145894,1.2543975563153538,4.755124054584741,10.085641026298106,8.671562930638856,5.833559385134777,4.0011832865636165,-0.08749581620463687
0.892,9.585167452224312,1.7229887312232108,5.760095568654123,8.272810929499855,7.160077934880462,5.341451488361997,2.631095571503863,-0.6491182172960634
0.896,6.407121596380534,0.92219178565162,6.31848290951433,5.515939777522874,4.69213832519597,4.3326047508979855,1.0854476715676356,-0.670167129941774
0.9,2.5724398265439845,-0.9919047587348757,6.026611570986091,2.39994748775257,2.073999163866432,3.2039984410910165,-0.26295773422828006,0.102376562777863
0.904,-0.821989421276669,-3.5718526126680388,4.664992715030849,-0.41931548454843437,0.02313457625999149,2.377083408078988,-1.2207160283235226,1.658912639105779
0.908,-2.971657944004278,-6.275662953101687,2.2988029962421876,-2.5025266784446103,-1.162883933023295,2.046964336238034,-1.842307315910034,3.6743062960995303
0.912,-3.7269421032415266,-8.62814903202434,-0.6833557123072183,-3.7457315757948493,-1.6484368278568127,2.108240486169734,-2.320165823992113,5.663266198414931
0.916,-3.579516928745079,-10.27282849718938,-3.6227358943026218,-4.272907686420126,-1.8098151870749462,2.289496706003547,-2.775825501475822,7.246379581883048
0.92,-3.2986157464717962,-10.955623561134189,-5.762097249461021,-4.2104154940811895,-1.8926727610705143,2.3893637210851466,-3.0981796519715203,8.343483169364163
0.924,-3.4464084807179916,-10.515296973334785,-6.489056676616997,-3.5180013494926357,-1.8068059984069578,2.4429751921109073,-2.946391422630313,9.163253182719131
0.928,-4.0528532795174215,-8.931506732591174,-5.561754494311629,-2.006579062178048,-1.1905030546378157,2.7091738537685615,-1.9288017745478783,9.996827344564508
0.932,-4.626564898855349,-6.403439142623199,-3.215190621242243,0.4638903424576597,0.3079092167050703,3.4791761932117424,0.14294191874728313,10.950787034357063
0.936,-4.461048817224196,-3.372639871275055,-0.07890978281102434,3.749231187928274,2.727605167961542,4.8312791705618565,3.071783918050187,11.796432410444368
0.9400000000000001,-3.0528389528805064,-0.4419653921202098,3.0704071266770825,7.321495929338198,5.664577761293117,6.498354933005999,6.291207824575395,12.052622422072545
0.9440000000000001,-0.39624956134866807,1.8047619258625218,5.6070494463102705,10.399919234902654,8.398640488554406,7.940226265063984,9.072625597187653,11.259426610714854
0.9480000000000001,3.001969401577071,3.0153296638236498,7.261887719282527,12.26402777566227,10.204832082397502,8.59876928495487,10.80949785990208,9.275268250899899
0.9520000000000001,6.3637573135403045,3.2050559196366066,8.13585266337111,12.572175770946615,10.673317284258928,8.186454827285615,11.23444756415995,6.407030324965717
0.9560000000000001,8.99593453046782,2.7551165780568,8.543888478888732,11.506244776391782,9.878395779208574,6.849928898344388,10.470052105081095,3.295602555494497
0.96,10.550906675359784,2.244205069690679,8.78848872961288,9.65292025186335,8.305034908303696,5.117465102889355,8.920136561288246,0.6265355646135049
0.964,11.068546478610187,2.1824424143661645,9.002396490085516,7.679399456882493,6.593096518337347,3.6554208688935432,7.090667929016945,-1.164893386184076
0.968,10.812681548791716,2.7691142321260713,9.137460581764344,5.984651604703004,5.2371832914656125,2.9603361467347895,5.436493833759414,-2.0251914496489007
0.972,10.032345842293921,3.7959122324343753,9.067333408186187,4.515387169799737,4.397120347149212,3.1420152116070312,4.285637644657754,-2.19822915401528
0.976,8.80999659258714,4.756330438204941,8.70865610091596,2.8443861163439124,3.9025559755828,3.900442810927416,3.821432240168633,-2.001687966960617
0.98,7.070411234349422,5.100059542613053,8.071921959272117,0.4646324302929088,3.4116391923238325,4.702634344783064,4.080736974889987,-1.6053187274301308
0.984,4.721698137461772,4.5018502205633695,7.211452362258342,-2.8686875607058937,2.6214687617036816,5.053144773893564,4.9386415919974525,-0.9571862009872802
0.988,1.8284575321461034,3.020673055066254,6.134678585363872,-6.923368020310818,1.4180126712101355,4.7193780174709445,6.099703121977427,0.11663946113981183
0.992,-1.3016239920466433,1.0878921090541098,4.762793609986602,-11.019017815004304,-0.0911333594297048,3.81266261594601,7.139672396332799,1.7254140365921558
0.996,-4.158320572411412,-0.6476165026570015,3.0013595315183466,-14.277349814879017,-1.642742517697343,2.696644922200221,7.624350777553445,3.7623484794125943
1.0,-6.19004153272067,-1.5623572126133922,0.8842950527633775,-15.968228754232314,-2.943206169383757,1.7972860282461625,7.281868623041646,5.8910540272381695
1.004,-7.0135117305471795,-1.291254720815914,-1.309609168865677,-15.795374942810213,-3.786203333281037,1.4046846476353494,6.1404158778491365,7.675762990743351
1.008,-6.557145556873365,0.1424710441563093,-3.0740505778684337,-13.990454908329411,-4.114894414069113,1.5614437272911346,4.547246545999769,8.775985781633153
1.012,-5.076254301692643,2.3433618504482183,-3.8606235573017784,-11.19353109344172,-4.011413128889785,2.0868162784993274,3.0368354060451566,9.08993752815877
1.016,-3.029936544790189,4.709749410517361,-3.3464271273144277,-8.191976147309447,-3.6166106557628837,2.7019139195845128,2.101618130899624,8.765058604492424
1.02,-0.8882355258397183,6.669135263667158,-1.644302756125171,-5.641910145286147,-3.045601998534721,3.1761179708209966,1.9715693334169373,8.082932273142433
1.024,1.0441026154410338,7.888243720464516,0.6846693190610722,-3.8811630853547285,-2.340575145968728,3.422585649069333,2.5205861955855653,7.289472543485772
1.028,2.71010161170193,8.368412685891144,2.848938461454509,-2.887763216584517,-1.493495222926299,3.4978136931040353,3.336736197718892,6.465419278536501
1.032,4.254404177715969,8.390217023809328,4.1667298403920086,-2.379102806360379,-0.5269651604676255,3.517343249872738,3.9061899184121103,5.500509771164616
1.036,5.888617553496715,8.349617878852996,4.3553500202891655,-1.9874673197375614,0.43643538214291766,3.5510238600309094,3.813733826904354,4.175099737805795
1.04,7.737238515670015,8.555869482428761,3.6211586439292205,-1.4305135969854064,1.1645641690616912,3.5578671003167983,2.8768417970475184,2.3032062636284536
1.044,9.743235561228403,9.085440174285395,2.519450576373856,-0.6087928209622078,1.4034771975816511,3.399974639911761,1.1829644594799902,-0.12298246361660858
1.048,11.687866599389508,9.760291879109673,1.6772507764530928,0.39434761657537365,1.034544110639672,2.9345527677432983,-0.942608199093911,-2.848662951285405
1.052,13.306490013544817,10.25631431935335,1.5258082329353329,1.384575091269653,0.21091618706896043,2.1213906910315927,-3.006276539051214,-5.376004574029594
1.056,14.431830768272448,10.290226434921351,2.16806785949575,2.147103253594196,-0.6190053219042966,1.0702352595108096,-4.446035152341437,-7.100072784536678
1.06,15.067025618654498,9.770045008384841,3.412626616587886,2.509228087622432,-0.8702198886001042,-0.0013051553460172727,-4.7678036895895275,-7.518731597732767
1.064,15.336460013793385,8.819680550086787,4.91003233015158,2.352362427568778,-0.11990645739342654,-0.8833555493638414,-3.7160475660093653,-6.448285961560941
1.068,15.355927111027768,7.669253597961415,6.303412526346051,1.604993283002841,1.6072333667973453,-1.4865786503905838,-1.4257583592191168,-4.133422476077612
1.072,15.108885704891236,6.484499205169186,7.323988557323673,0.24868214660068588,3.7429853037467637,-1.8797469420364905,1.5345620520026841,-1.174452335035312
1.076,14.41432620491014,5.250812673454448,7.810851413808905,-1.6526846765077607,5.374232789079997,-2.2239512186833963,4.3007493219135995,1.7205195153755994
1.08,13.024439733313102,3.78360698194183,7.689891600280134,-3.911140640746453,5.662232039582477,-2.631462069767622,6.024917543239553,4.059481930757556
1.084,10.810954012132242,1.8703929728860658,6.963396170335727,-6.196650483249414,4.278956822092596,-3.045643318501334,6.2481784431083724,5.800914152024234
1.088,7.91485816768818,-0.5599562226495891,5.718143120428522,-8.084025768564516,1.6036950822881408,-3.2309049788814264,5.129985054816643,7.348268782577179
1.092,4.752459484465362,-3.3525219787229616,4.131906802111189,-9.172856239428029,-1.448138796923331,-2.896293322946349,3.393960198755849,9.270246008533832
1.096,1.879461100059416,-6.151732940473721,2.460727283469623,-9.22461098860299,-3.859903376016291,-1.8849372699323794,1.9888175252658584,11.88442349386878
1.1,-0.2158915562722541,-8.521090573989568,1.000745291465364,-8.23568454252677,-4.972692368462049,-0.3080181507434645,1.639668292328679,14.95141873522607
1.104,-1.2666675893196953,-10.074979349868727,0.05575044870420243,-6.39165639545331,-4.6956822197705606,1.475410689061846,2.5469250783212374,17.692006813770604
1.108,-1.2465994711669737,-10.55416276793494,-0.07853106097968521,-3.9174128261784062,-3.361504585694547,3.038209249877582,4.402305283266287,19.17129206504069
1.112,-0.2562085341096463,-9.82882824150147,0.8688975152299463,-0.917648067902519,-1.3501752091747221,4.125492799408221,6.689412290215387,18.842677596448993
1.116,1.6063344282565595,-7.873734989624836,3.0862448041489188,2.658889201019065,1.241742797513325,4.793164083272131,9.050385781665682,16.92023815246739
1.12,4.261080811592819,-4.804610717035075,6.541729565475407,6.86429261128842,4.606745666985262,5.330421909099641,11.435388298878024,14.311886729736216
1.124,7.505652362014644,-1.0048930826142168,10.797318218646296,11.461772325774973,8.852672992665703,5.989406021457398,13.881865908620512,12.066791962209209
1.1280000000000001,10.812649773773046,2.7353432324239293,14.886103107481176,15.689058850225365,13.480679925717368,6.680041646457539,16.071965004452068,10.63785817643111
1.1320000000000001,13.253137011816762,5.224430404133955,17.39943994830969,18.283704013359056,17.11483475572959,6.832485499933682,17.011749587453778,9.416013225609277
1.1360000000000001,13.699187260092458,5.155644728439711,16.864075609467818,17.862831695293153,17.801810529462728,5.5727365454822575,15.16527366958826,6.887615758038919
1.1400000000000001,11.301070549660835,1.6458144639211696,12.329922957067765,13.559751815574828,13.868420771823367,2.180167897244246,9.13986326833583,1.4480139112220058
1.1440000000000001,6.0264359843513375,-5.1966041388957365,3.9400465842304584,5.626885777579673,4.951050285136262,-3.4032638963844875,-1.3631807507854319,-7.512952164367562
1.1480000000000001,-1.0565738650711864,-14.000808236127114,-6.828793025970981,-4.348824246629647,-7.398074067593143,-10.298311879348148,-14.863349743663548,-18.860454324228158
1.1520000000000001,-7.994073192198812,-22.404616182208883,-17.468957195223993,-13.824355556591854,-19.9688991699104,-16.840928661826183,-28.178605398408763,-29.78805878528874
1.156,-12.63111878476866,-27.83834615003252,-25.244655862818945,-20.179301646044223,-29.01255597977979,-21.146643616945767,-37.40793307950571,-36.79509418849557
1.16,-13.490408778431629,-28.52876490926883,-28.194958353629318,-21.73117854090151,-31.761710143269738,-21.841288702642487,-39.45375875850959,-37.14288138120719
1.164,-10.4224692442599,-24.259222602253203,-25.88941193327878,-18.40411326219578,-27.614450307925836,-18.618021005296214,-33.37498765826149,-30.07686849248512
1.168,-4.674758886322252,-16.499629418927725,-19.569345365519894,-11.70404756504945,-18.379983844671187,-12.342797175778287,-20.880809108938593,-17.187686195489732
1.172,1.6721423788681022,-7.806598700550694,-11.599799802133248,-4.005281349781853,-7.45219058357543,-4.662737943903267,-5.669241978468563,-1.7310968446427069
1.176,6.625190776563613,-0.7481061814642089,-4.489585835065327,2.4969292685925666,1.69628576706873,2.6785974707891,8.082785493243136,12.734287742592642
1.18,9.09347574017147,3.130741856936311,0.05556342084173593,6.6493239475398696,6.945413816533346,8.481136306752887,17.35390290264695,23.703415359740575
1.184,9.19890073221086,3.809550175840286,1.6238579826076602,8.607570664888499,8.203037749225132,12.389123371412097,21.2644651070932,30.417154842445598
1.188,7.963870107340881,2.547824944925651,0.9705110088204947,9.435089424983744,7.061043157621498,14.759711621049064,21.006108047665748,33.64247412326404
1.192,6.6134429130047465,1.0778843347625298,-0.5775093980855672,10.323113677290621,5.709035662179758,16.24360626073303,18.865397285682775,34.79616145873297
1.196,5.916936104670185,0.7020989034112972,-1.8227042640751279,11.892778188444481,5.7538921638242755,17.34087985070346,16.929005136049,34.96953783168465
1.2,5.9112925214649295,1.7502437408948026,-2.147272777422586,13.948667188259606,7.549060348105741,18.168464954493174,16.169942656204512,34.405754574260754
1.204,6.115171846045996,3.638834348641467,-1.542531593406693,15.766128791093251,10.312989688969537,18.52663163805755,16.318716568289346,32.63916742129277
1.208,6.027297380602249,5.399811487686748,-0.3184240950372441,16.66985762467266,12.835853732987744,18.161994587622758,16.43135793533702,29.092828742221172
1.212,5.547572630156537,6.312730096104133,1.2437804387222968,16.499886210521254,14.276899499228875,17.024860723984602,15.71084825788239,23.690372984932765
1.216,5.06017953195169,6.2822931952737235,3.0545373298677987,15.679282277298626,14.592975856116027,15.353059204530837,14.052714022996952,17.07970408354231
1.22,5.139632944233199,5.770628108828987,5.1165067487550004,14.86387412308386,14.395293135009524,13.541885408455528,12.025445889949879,10.36420619625278
1.224,6.105925958130683,5.396690840644169,7.298709762061662,14.440495603838372,14.415377565713698,11.901349173329436,10.388340303186851,4.560554236195458
1.228,7.739728128527531,5.488133700910566,9.20257506660846,14.232847301726906,14.9648146241434,10.481758640773478,9.529598705480566,0.1586027025405201
1.232,9.34130397476656,5.861853978948602,10.254406092525187,13.606224685857796,15.729329509389117,9.076670642116369,9.21070296142625,-2.9515487212374865
1.236,10.115985308061681,5.97421252708682,9.993242011605616,11.908173201160935,16.009305584017966,7.395840530037276,8.772752523814233,-5.184594011316221
1.24,9.639297544692454,5.317480510585483,8.36730817427906,8.953310916168448,15.207021540742517,5.301760452160124,7.63850816017748,-6.8337612386367255
1.244,8.104048070277713,3.791223137302495,5.8306682052161705,5.2284897984591225,13.22662673127843,2.951866554375556,5.757892705739323,-7.823800631838822
1.248,6.201205299098547,1.8099608874199475,3.156366904147035,1.6799716665914275,10.530403864290292,0.7648052164522596,3.694933608409883,-7.797018559864227
1.252,4.718431069357393,0.08458194996046586,1.0589892938728553,-0.790051777019471,7.832721119746566,-0.7626152283964984,2.295452080713403,-6.4556148385527194
1.256,4.107863224563516,-0.7663362269640857,-0.15800367399151583,-1.8071386145993529,5.658916812780717,-1.2914262295007575,2.149837497758199,-3.903721297643642
1.26,4.276813274720553,-0.5427949474183151,-0.728890069667159,-1.692858942060866,4.056005523022122,-0.7924265903075138,3.18540884858794,-0.7413788712128735
1.264,4.719768106596348,0.45892548838583025,-1.2453819227457643,-1.2199890386505103,2.6390194027371763,0.4563032379919605,4.646412540088022,2.161142549914075
1.268,4.8807926838908315,1.6407266649725898,-2.2789535232495837,-1.1188383525141035,0.9219055830126308,2.0095598238713137,5.4809661951503585,4.0764664209800685
1.272,4.497831710379614,2.4390161901537795,-4.026481004996185,-1.6450589025862428,-1.2905599803461882,3.4493431841137863,4.91821504165091,4.770137573057582
1.276,3.7499165090557653,2.6286109573675276,-6.1680081219774365,-2.457579468072254,-3.685603419126437,4.53116124835833,2.908700155828228,4.577195409065098
1.28,3.1315518074843567,2.4223993864598015,-8.015663183760807,-2.864580034309256,-5.544593296590847,5.226700972223625,0.17748555394791765,4.178244890776114
1.284,3.159599074889229,2.3336449870248543,-8.850435616692721,-2.271147613885205,-6.101017094924373,5.663787213879914,-2.130956623012935,4.213838257623138
1.288,4.0921684897093655,2.875075904178175,-8.256440904852298,-0.5520848405622019,-4.956801351465401,6.006179031790452,-3.017441373392103,4.960963250474379
1.292,5.812345347660994,4.255914742399909,-6.284188892449492,1.8605405446273835,-2.3234561532235602,6.338189421267089,-2.1093745823964127,6.238738891777757
1.296,7.937435903738333,6.260028935776063,-3.373581122451469,4.214524379633531,1.0670700665978075,6.608995110538672,0.1817226338571345,7.557465581305223
1.3,10.046261813554338,8.346052071911345,-0.11456341890652766,5.836121601941159,4.309976353274578,6.64417013028833,2.885262066145515,8.389902775621522
1.304,11.862025981895385,9.901853148376631,3.0064382068758277,6.442933468167666,6.736056412438302,6.216211424987705,4.9399577432395745,8.396615542156724
1.308,13.299540662043,10.522215489438622,5.746319572605444,6.209318295758749,8.16508950881098,5.1508713476141565,5.672520872563837,7.508162020591044
1.312,14.382174949962064,10.17128397030092,8.088543523479984,5.5873108630330535,8.886259943027198,3.430412284042177,5.063638129071478,5.875856004888192
1.316,15.114722178916054,9.170784286215621,10.110156362934958,5.008154071108038,9.404998100125795,1.2395513032915915,3.686198852246889,3.7522417857635446
1.32,15.406045873947733,8.01932459972386,11.815815739722893,4.641207194353228,10.098648816321656,-1.0777980194907286,2.3651509585342865,1.3898830325506424
1.324,15.101709633313476,7.1466403912108944,13.047317394394213,4.341502771006617,10.978635417165606,-3.1444839955129282,1.745247890353312,-1.0011056231796829
1.328,14.093633400473664,6.716935278176152,13.518092735488153,3.7844902102638116,11.672828387946083,-4.704395582826692,1.974300778271754,-3.2543702158745873
1.332,12.431110574185368,6.570719016583098,12.951179542320006,2.687671623423739,11.627694935288673,-5.726706517591083,2.654155998603528,-5.2383531116884114
1.336,10.367123027047455,6.347835734871296,11.246366420496088,0.98770776134279,10.421814593424642,-6.405477535299724,3.0681226869073726,-6.867002432050867
1.34,8.296240194889833,5.720051979247728,8.586850121993393,-1.1098670044098071,8.023400991417475,-7.03528366001774,2.565694737438207,-8.102478291724765
1.344,6.60790434989849,4.598579746259929,5.427086748153215,-3.220569113217607,4.857312789247771,-7.825229926022075,0.918356172035601,-8.93566931776877
1.348,5.519613280449448,3.192464949672285,2.357450493532724,-4.941991047164265,1.636957925265051,-8.75333905736261,-1.5372442114330624,-9.342798115791084
1.352,4.96125926273271,1.8753817021115538,-0.11106034912245377,-5.999971525065575,-0.9585958650377506,-9.55340587403407,-4.044250124819882,-9.248013095682836
1.356,4.5707954520648855,0.9507002669961366,-1.7495560514907993,-6.32775194451915,-2.589078705101201,-9.858875144087506,-5.788903328818378,-8.548366171713496
1.36,3.8024720272705963,0.44865787249727873,-2.7170778534550664,-6.068993628635326,-3.3947685977691435,-9.426722398055063,-6.299500953514325,-7.2091892572007055
1.364,2.1326173165998625,0.08683609151739802,-3.5060515036607285,-5.510481651121154,-3.8969285973453225,-8.30602090134198,-5.6832378014232745,-5.382064819934385
1.368,-0.7061128431814723,-0.5726057405545362,-4.7273839418412535,-4.9715150534357235,-4.714216043048509,-6.842415305331087,-4.575570294099634,-3.4607590296145645
1.372,-4.547045998551766,-1.8550214880351632,-6.817356746700625,-4.686706498617241,-6.236678643077539,-5.497598240042862,-3.817099807579325,-2.0002175305089622
1.3760000000000001,-8.743507913620306,-3.7280804172351054,-9.792664621219046,-4.714220253058556,-8.405590040774769,-4.589564249847172,-4.027602363627011,-1.50519922379317
1.3800000000000001,-12.307404060953559,-5.7346096345136175,-13.181088225726853,-4.903454838375183,-10.721418217748578,-4.112706537178383,-5.2981920541406,-2.1821989778582065
1.3840000000000001,-14.215126082233837,-7.161876964969451,-16.172687343322195,-4.944736132817525,-12.466643033964829,-3.7582621337642195,-7.154095208888975,-3.7975585580716142
1.3880000000000001,-13.797616873365769,-7.383075092623585,-17.93120273944487,-4.495553066805769,-13.034180688852757,-3.138613710174468,-8.80234315605594,-5.738771848848046
1.3920000000000001,-11.068399310674067,-6.2105571802294435,-17.941583587639798,-3.3521701731906433,-12.209803806767013,-2.088956798212166,-9.532548845585552,-7.280047767450014
1.3960000000000001,-6.81612287279313,-4.044979941159909,-16.233478148785252,-1.5918125945263455,-10.25037940106813,-0.854583770795216,-9.06045884348896,-7.931687972210057
1.4000000000000001,-2.39073860728422,-1.7342485044255227,-13.38101278348313,0.3857600046485459,-7.7403855695310995,-0.034538272380814306,-7.649436333559606,-7.692970979716847
1.4040000000000001,0.7780283750289527,-0.19181805837433785,-10.262684547424215,1.9670676740333874,-5.298954299674733,-0.2868888952634734,-5.953437446733915,-7.052889173050062
1.408,1.7484229573856283,0.03652075985155534,-7.69047344178216,2.5612976966394854,-3.301328831968931,-1.9456332983281754,-4.675121714590205,-6.728753866005718
1.412,0.4522962769970036,-0.9763110726689774,-6.087320733508022,1.8586944784583466,-1.7716615215522324,-4.776317489187932,-4.2348786828533775,-7.278333901820588
1.416,-2.2791637649843324,-2.576441959645308,-5.363008631368757,-0.00918924025427259,-0.4683392474507855,-8.021707872449042,-4.609955137897487,-8.790104591062118
1.42,-5.083417624340655,-3.837752601043576,-5.04572849601027,-2.4909016602641714,0.8944535241598714,-10.724738008022541,-5.406124174758588,-10.819152333151578
1.424,-6.6821086674317485,-3.9913282001371044,-4.589205039433182,-4.823062110097453,2.4277568464258366,-12.155057418640354,-6.094163787547586,-12.604157530138764
1.428,-6.47335715252666,-2.7834275587392767,-3.701832300969727,-6.341645718485779,3.965588307559301,-12.111306953069288,-6.2727245346850395,-13.450286446004611
1.432,-4.821992800912994,-0.5956213607660175,-2.530362090789822,-6.751977867991627,5.1300215974442835,-10.947692842732067,-5.823747566826569,-13.075335779485613
1.436,-2.894222556524255,1.7421630327507955,-1.6032048117713202,-6.234970493875153,5.5373008631422636,-9.325699805791373,-4.9067756285785435,-11.735055800465489
1.44,-2.1090070389254834,3.3390836481557926,-1.5613889085034316,-5.341205621810332,5.019172166363205,-7.844679946760152,-3.831193160775001,-10.063994834727055
1.444,-3.4466391584119265,3.646124760243765,-2.801933619455667,-4.712303562878333,3.7484985853297985,-6.7651949676037475,-2.885591913731332,-8.72502757914117
1.448,-6.95650549785023,2.6769021153968424,-5.212052886578931,-4.765108559705368,2.195066767570097,-5.9597960806240735,-2.2149274610492284,-8.0420054003298
1.452,-11.703743582711468,0.9456102922122227,-8.132803732527464,-5.488390510402496,0.9297139636937573,-5.084461519780234,-1.7844270250297996,-7.805048025751603
1.456,-16.174173316154338,-0.8176892486781071,-10.58850016363067,-6.449292415030868,0.3895661782744355,-3.8434098837315105,-1.4258344006047992,-7.361259904988401
1.46,-18.942560854320618,-2.018664364372853,-11.68615220389529,-6.999352219105276,0.7157809625523441,-2.1721119850462856,-0.9119539302791964,-5.932371337796212
1.464,-19.284218820665046,-2.44007253170912,-11.00529525314414,-6.578670908854292,1.732123128841522,-0.2488397064680612,-0.03789597079776286,-3.0176143184362445
1.468,-17.45091995864641,-2.27346548166679,-8.801445792756567,-4.974841295077567,3.0480225293367766,1.6379906886613753,1.3048438977366459,1.3053485157506657
1.472,-14.478092078297777,-1.9403710347687593,-5.91682401356411,-2.4090429592715736,4.223898074151293,3.251631971763345,3.066829017168857,6.324883934088575
1.476,-11.623432281172427,-1.7943392139768548,-3.42302570355605,0.5829594469705626,4.936444411670891,4.484945096375668,5.005022823857871,10.904296600834641
1.48,-9.732744280656334,-1.8808643343436415,-2.1623328371588286,3.3979647042369834,5.064002924701526,5.325769128081447,6.694740950777486,13.867246361609432
1.484,-8.858598312890535,-1.8884315597388195,-2.389670786276838,5.609569331322746,4.681989413174051,5.765693398116127,7.626337543677437,14.405893258139258
1.488,-8.338444944607545,-1.3329674099841213,-3.6845150930648742,7.086056502748761,3.98129550235808,5.743250270665158,7.380247693872661,12.357701060082036
1.492,-7.270811663933273,0.12592945673623035,-5.1690193309405,7.93651252492964,3.1548597562396026,5.18977212543723,5.826492744203279,8.261154961535794
1.496,-5.129595984089974,2.4269636285534943,-5.934134005682608,8.325212777628622,2.3139306037592178,4.137257059199328,3.2516010553390515,3.1712935190371354
1.5,-2.17405045794294,5.054196201695959,-5.477822025637579,8.276681736607316,1.4588138946492109,2.7904663546996744,0.31715838971649646,-1.6804789332782093
1.504,0.5949214710617525,7.241657874367775,-3.9347296563209966,7.603084868680526,0.5118291740109271,1.4819480117275816,-2.1606618581972725,-5.260865969736187
1.508,1.9195789816349134,8.327369998793074,-1.9946745357765394,5.999870990708587,-0.6224690156805082,0.5055245394632948,-3.5310298896401946,-7.018715481710387
1.512,0.9581141878825292,8.06024543746571,-0.5599067815473973,3.2606149897765135,-2.0066117683118136,-0.07266903951494896,-3.583932061739688,-6.99235864001821
1.516,-2.2092948264635197,6.713272577579119,-0.3057647651821753,-0.5073184733137168,-3.6336427708811243,-0.48325758279679576,-2.637719215290417,-5.717157322047569
1.52,-6.535351613507373,4.934261898526529,-1.369468031901306,-4.805632874024013,-5.420786497464178,-1.1300246083192178,-1.3843159389125503,-3.977237814331602
1.524,-10.458657398565265,3.420454150216756,-3.306769933218675,-8.860788812275132,-7.223116144561573,-2.3176179235051677,-0.5540123263326677,-2.4984092183440225
1.528,-12.634337961535493,2.582591591628443,-5.320762021879091,-11.891144019282365,-8.86134486199171,-3.9959137954865582,-0.5553169727481873,-1.686297582626139
1.532,-12.567347448393775,2.3722735247220044,-6.631576436436262,-13.399160540737284,-10.150498026636342,-5.70076422047714,-1.2740777494909707,-1.4986932865795097
1.536,-10.816657169818427,2.367165565529831,-6.798707518826632,-13.352774327993757,-10.912451761365446,-6.764692914839543,-2.130796509240099,-1.5107382941168908
1.54,-8.666156717374179,2.0541266742147855,-5.849753150464494,-12.17523187975894,-10.986275903912428,-6.6955585179021,-2.366582892893348,-1.1398541097878478
1.544,-7.448925351074649,1.1463516963376605,-4.176097022313115,-10.549301305947665,-10.246694302802098,-5.50150116711302,-1.4110049360115227,0.06575103271825355
1.548,-7.899133937837178,-0.2531699677629149,-2.285910596652684,-9.140245707048052,-8.655276137148576,-3.756485166515631,0.8474022186710499,2.188894620481733
1.552,-9.862813189978624,-1.7282120173904332,-0.5698273609359603,-8.366056161292363,-6.343711985286063,-2.33362622416098,4.014019289454154,4.859576467297302
1.556,-12.480068957187541,-2.7936513159484093,0.7989651904990751,-8.30494240922144,-3.6665032181153947,-1.9429365934120142,7.366459897031746,7.366268111167301
1.56,-14.699760920353583,-3.159067575736117,1.806490624188882,-8.759724116422149,-1.1760224801946606,-2.73804720364933,10.1448849239423,8.918507363701792
1.564,-15.816361074739689,-2.8651103637839697,2.4650736898593095,-9.414608146200408,0.510508978364669,-4.229347702013911,11.818008957321581,8.950244803738315
1.568,-15.730433182856359,-2.2301014084605413,2.7267197832406964,-9.98765910356451,0.9235188050979559,-5.562423090341326,12.206865486214156,7.333958534542035
1.572,-14.842412974312538,-1.6646111835889315,2.509909300754771,-10.315136672222252,-0.05453249391302961,-6.0097561080765445,11.44480787399516,4.4110537822925835
1.576,-13.688633282938099,-1.4513769009672615,1.8219918671120467,-10.34430461969714,-2.0801512750131224,-5.393857795970689,9.833139238286094,0.8265273674041964
1.58,-12.574396981279278,-1.6175256197348062,0.8668160594470464,-10.0720163102269,-4.424027222372388,-4.189562353436486,7.6868665658967075,-2.751268176940357
1.584,-11.445436542540847,-1.9616314747036085,0.0331049681371951,-9.502015674006543,-6.233170144216274,-3.2509700170121505,5.252373541079578,-5.894310704454256
1.588,-10.04981374599447,-2.2040853862199583,-0.26043887820469536,-8.650484744994174,-6.883473849078655,-3.324430020962609,2.7141986838505545,-8.527132895127579
1.592,-8.248883876032778,-2.1638492327074346,0.2017934455179784,-7.59601254426434,-6.268093477451657,-4.633075179130174,0.2500785149350122,-10.839522345908335
1.596,-6.23740962828515,-1.8420880806556852,1.265786044226843,-6.531427597333959,-4.856215677861655,-6.771179644672884,-1.9224244620190802,-13.058132131145612
1.6,-4.504933188564337,-1.378962121290897,2.432927393937007,-5.755454441995653,-3.4733070725656034,-8.951271353272205,-3.5500078506102,-15.197057875172504
1.604,-3.560847279153677,-0.929650571766615,3.093133510008556,-5.581824589785356,-2.897015013470991,-10.446761139450246,-4.401417207676786,-16.945763146599347
1.608,-3.6098466366056527,-0.5526391085841169,2.8593787799118218,-6.190633435868222,-3.465002963454026,-10.959249220926722,-4.347683111409424,-17.763826309368596
1.612,-4.397840638841444,-0.18277020362256735,1.8174092123090304,-7.493015991156426,-4.898362700632788,-10.703937950340332,-3.427724875358763,-17.15071922910647
1.616,-5.333478313121304,0.3190247466955043,0.5389503499645798,-9.086997621532646,-6.41876997918007,-10.192574519795016,-1.8622796067720628,-14.955669119939557
1.62,-5.819796986819711,1.0746041336333292,-0.17838418950304913,-10.353767220270129,-7.107450583727768,-9.86684030275137,-0.006682479419396259,-11.560312775141938
1.624,-5.5763344373172,2.131170057039526,0.29057447959166893,-10.662761072117974,-6.316326902287074,-9.82025546449222,1.7384654996421887,-7.813998758330854
1.6280000000000001,-4.758876454829078,3.452426611896044,2.075733626485089,-9.610882237058831,-3.9327228138372448,-9.772395999323635,3.0389777651416807,-4.731347336288309
1.6320000000000001,-3.80314174902378,4.949443796554988,4.740013970044856,-7.1816448608942665,-0.38049218339074287,-9.283492731745355,3.7327256102616957,-3.079571417707484
1.6360000000000001,-3.100171532823879,6.524525762462872,7.491615213551995,-3.758446316616755,3.6200005834125477,-8.070061167560198,3.8837201673213713,-3.060930150848435
1.6400000000000001,-2.724529955758044,8.079186032603502,9.555787411587517,0.015790881203429308,7.371816733430023,-6.216613366646925,3.751311915117185,-4.255249542489764
1.6440000000000001,-2.3968995691229793,9.478105996343402,10.503224972444514,3.4679504347259353,10.423234689031233,-4.161061258029804,3.6795662965123483,-5.856509719531459
1.6480000000000001,-1.7149265915213618,10.499561077334874,10.369024367294514,6.111885570559934,12.593528827902446,-2.4837732397827494,3.9324695970844914,-7.07944277459319
1.6520000000000001,-0.48959851213294314,10.833099302692062,9.527096475602775,7.775962730343963,13.845774103422627,-1.632832685179892,4.541369803373527,-7.522016664239345
1.6560000000000001,1.0613017255818704,10.181320764500924,8.419050396870261,8.594547011158284,14.147584477168493,-1.7512029581739625,5.242871730260958,-7.31101729708098
1.6600000000000001,2.406001923181975,8.42868433633339,7.323297446830111,8.896823288065207,13.438635899297878,-2.670103154887329,5.5630624639452435,-6.9516710214011255
1.6640000000000001,3.035090254048555,5.782126165897353,6.296489656839185,9.053877162837125,11.737014918881869,-4.0321631581755355,5.033908928020537,-6.975980909945065
1.668,2.8365009146091325,2.805500475837107,5.283997545487182,9.342289019034979,9.30236165783026,-5.453555272291851,3.441082240498872,-7.605858257753425
1.672,2.243851983184868,0.27372618823937955,4.29534698057887,9.87454933132085,6.695885494321374,-6.624361218422564,0.9788971647285507,-8.615954622389836
1.676,2.031131276889937,-1.118779003209056,3.5003556174588084,10.59214506150147,4.641902209166801,-7.334769409244473,-1.7796084697565675,-9.480377075215074
1.68,2.8636279715410637,-1.0473375611791198,3.1619182408276174,11.30475344812021,3.738851068900658,-7.47150930344651,-4.1063028179651155,-9.713340490267
1.684,4.861857506024535,0.298399883278762,3.4435274554043644,11.752985110161717,4.167854333740252,-7.039898291257487,-5.438951948463,-9.199547259660903
1.688,7.470287465355796,2.31007251732899,4.236544895484258,11.692063655190395,5.587988883609796,-6.216514962990914,-5.632706919661359,-8.306951271631988
1.692,9.72159763935997,4.2413206823603105,5.14532764275009,10.987647608988482,7.288642682940008,-5.367366800099262,-4.995020918591763,-7.694920139030728
1.696,10.756528560825245,5.531876437998108,5.6689874577368755,9.698719190899283,8.534125378364479,-4.966560346785627,-4.088402205790771,-7.925586839679454
1.7,10.295538761454736,6.019011824235349,5.475237846319942,8.10788487433274,8.912608607800394,-5.405001615356014,-3.4203722693582677,-9.10684176063296
1.704,8.775502262622467,5.931814517359271,4.600588839491138,6.658981296373895,8.494118825157784,-6.7627608273833175,-3.1874559446951025,-10.775340409738419
1.708,7.077335667727311,5.695746175747445,3.4466501216575125,5.807951756714829,7.7259244103797755,-8.683022386070661,-3.2195976630973746,-12.100922625766543
1.712,5.9951889554595255,5.648192622888018,2.5608208933854257,5.830371161669063,7.118505981269664,-10.455061974838827,-3.1512341316738457,-12.310213642871531
1.716,5.770652939645515,5.83923630674326,2.336814335242707,6.678381014408842,6.9359075871498135,-11.303143277302297,-2.6975402299358393,-11.086443088770466
1.72,5.976904176648532,6.039694156861515,2.8085505903263766,7.969301961121346,7.088173977623228,-10.752471919255186,-1.8600930690463429,-8.726133511980152
1.724,5.804295121146424,5.922155702121927,3.645418362770215,9.11882901782883,7.264625571697252,-8.883912089086152,-0.936911641887491,-5.9683008062129375
1.728,4.574713103000249,5.295420235825077,4.340591604913243,9.565253554748779,7.205514751762166,-6.329196660088201,-0.33619188424927415,-3.605301453542779
1.732,2.1544687283785606,4.21805499056245,4.467324683947481,8.977216078999845,6.8966387808541185,-3.9998583093129128,-0.3177582911157515,-2.0994346890220186
1.736,-0.9834844462748151,2.915237619128675,3.848137123673041,7.340121404662568,6.545471689494661,-2.6887960928106622,-0.8375157658483658,-1.4256783910968807
1.74,-4.04246209149278,1.592163120789337,2.5581798541215903,4.90348793450903,6.366573514479569,-2.745505129269077,-1.5922681377251138,-1.2001662546281295
1.744,-6.343748182995114,0.278072323255401,0.8001954205865331,2.0415651610401255,6.332957179166442,-3.9796155199510395,-2.240656904385105,-0.9870339514782245
1.748,-7.641994932489979,-1.1721015374987473,-1.231890889162969,-0.8784401133325446,6.093272448155403,-5.81469945927347,-2.6545520280706114,-0.5887891095371742
1.752,-8.120931357110749,-2.90794600812751,-3.3902996466158584,-3.5353619330362562,5.143013659328972,-7.5760820485647855,-3.009153650757071,-0.13133719923644094
1.756,-8.106743662820008,-4.853425569294814,-5.4883638869669085,-5.5998632670307416,3.1727187396481895,-8.749407049857837,-3.641243961557848,0.09502875048201531
1.76,-7.71643949969075,-6.5805824994877185,-7.1919621797906075,-6.678363310868917,0.3747788413966191,-9.095928470089348,-4.763940281713076,-0.10162949002915411
1.764,-6.710854484619631,-7.417317818639276,-8.01681726496463,-6.362791601186473,-2.5196543326319443,-8.61877998816999,-6.224439358062227,-0.6473303900202154
1.768,-4.669746935533112,-6.757083240692737,-7.491792162694765,-4.414344124938907,-4.537533275361056,-7.463387076999425,-7.486382385603065,-1.2522792050076532
1.772,-1.3889087207990087,-4.42017951251546,-5.415955505333841,-0.999634730453181,-4.961699963767387,-5.843553198061272,-7.871742169490972,-1.6417276577776647
1.776,2.7651180049269897,-0.8520735352103657,-2.045493233752495,3.1700690879297326,-3.7451719357341062,-4.034753523634208,-6.9463735848130455,-1.8067176479889895
1.78,6.8107925438289385,2.994742844859502,1.9273585696864757,6.939533699898675,-1.5806486753708668,-2.401615918797688,-4.815312588234519,-2.0847766198930913
1.784,9.494111171879922,6.056737053107099,5.629876511232396,9.073968059289655,0.4330090297780771,-1.3792165352788288,-2.1434838746426976,-2.988119923087652
1.788,9.855064489756842,7.635944763785119,8.375320531127727,8.744074316335173,1.3597494953892237,-1.3639981673059083,0.1436290300316614,-4.8679719162810215
1.792,7.7051487642838765,7.68457186534215,9.937171960568776,5.904736929993305,0.9011576991333641,-2.5364830273829284,1.3318245046330048,-7.620212915280717
1.796,3.748061583171875,6.744012346744057,10.575663640853236,1.3611134384764227,-0.485530457231107,-4.71443399191412,1.2946163440228702,-10.640730697097752
1.8,-0.7302859229985188,5.595232212936935,10.802029142941137,-3.539850560860941,-1.8851692382404508,-7.342735997923228,0.5552395513223018,-13.090141751803458
1.804,-4.439190334011073,4.821744137430869,11.022589746715312,-7.4605014007074715,-2.4607550519713186,-9.659783714432706,-0.0066036595326295355,-14.325154383237532
1.808,-6.607811694158954,4.54488165384555,11.28687105434119,-9.589883811846448,-1.9092513869200047,-10.97871396399205,0.3531816952645386,-14.240518128295662
1.812,-7.213972873937564,4.446130497505692,11.290751439106316,-9.879340408884673,-0.6013327227328773,-10.941551209958561,1.8289991759265831,-13.302660574117908
1.816,-6.848707765141626,4.025203719218553,10.618903381424388,-8.915447960253914,0.6511952231421674,-9.630005219729355,3.949772246682187,-12.256700240794089
1.82,-6.336348730274949,2.921148401206665,9.050899843829484,-7.533838107437987,1.0402883094684512,-7.497814173912047,5.816574667475834,-11.681684929488256
1.824,-6.329250832925027,1.1088738530525006,6.731436729501183,-6.389497586742436,0.15445223634378635,-5.159846358646973,6.562005736454921,-11.655376198861632
1.828,-7.0753809050729615,-1.1247616334330814,4.091602667918778,-5.708414654614899,-1.8850374586809266,-3.154618336346175,5.774072189648905,-11.742413596672122
1.832,-8.428642106134248,-3.394050335926295,1.5800412085818607,-5.312026589259403,-4.593187289667185,-1.7886183502196218,3.657515873255761,-11.305935100190254
1.836,-10.018163342352636,-5.4484282989169515,-0.6003702578491357,-4.843667950562121,-7.43916893351161,-1.1087289629722363,0.8773885536611488,-9.951349041839421
1.84,-11.428037701970425,-7.258196233734452,-2.567697346798923,-4.0274948968117315,-10.088686476724433,-0.9721540018763335,-1.8008987465827886,-7.824680247636934
1.844,-12.299122927523968,-8.920010494547569,-4.599052765348006,-2.8108666579610144,-12.434376749249168,-1.157098338015203,-3.862177159025123,-5.580786599553903
1.848,-12.355790321860695,-10.461856117342904,-6.831923994355293,-1.3455278476089916,-14.427541471332006,-1.4607029876788147,-5.194961440880434,-4.048195222250797
1.852,-11.42292308641754,-11.716459644037968,-9.0358578765713,0.13604964505566386,-15.886000254076862,-1.7482200314116199,-5.994772948344689,-3.7847844525003893
1.856,-9.485979833640158,-12.37001976081774,-10.624690502147132,1.4371940246601298,-16.45288519313999,-1.9670167880412919,-6.526350500647823,-4.800500517079854
1.86,-6.777728787754313,-12.154650323272108,-10.931195220179234,2.422451116364755,-15.762990428841476,-2.1490202739569213,-6.917153924230661,-6.608112956508194
1.864,-3.7974659855954087,-11.04202535951299,-9.579543286841727,2.971706966884085,-13.71291528513484,-2.400029152719071,-7.1014205536712325,-8.542126628195547
1.868,-1.2021105232342961,-9.30572312876393,-6.742680339543767,2.9244788974810945,-10.643582390284337,-2.8725584231688117,-6.9346458677955525,-10.148345965655608
1.872,0.41892001562519,-7.408773650343846,-3.121461364009974,2.093928583903107,-7.294240861026992,-3.7027490188083902,-6.36156849449344,-11.385777974383018
1.8760000000000001,0.7938084478955716,-5.767859106807009,0.3625046458273573,0.37310618889887337,-4.506539232637351,-4.920754170463624,-5.493371752405437,-12.5243446941422
1.8800000000000001,0.1000697234630934,-4.538197358085199,2.9758996292007396,-2.143224946360988,-2.8261229602335334,-6.37850125825571,-4.528524243669381,-13.826881545452125
1.8840000000000001,-1.1151682796025852,-3.564436821743584,4.457080124338518,-5.117163444540893,-2.2377568745787357,-7.7466913824810035,-3.5817694223669605,-15.235222618041007
1.8880000000000001,-2.191325338666502,-2.520641635540869,5.02714042182015,-8.054657909165599,-2.1927779877460125,-8.608800991307362,-2.559430219359456,-16.289639977136176
1.8920000000000001,-2.6645827069687584,-1.1706243027192613,5.146922556820755,-10.489128820425776,-1.9440716662634259,-8.626279823049117,-1.2001346503384411,-16.341294116180507
1.8960000000000001,-2.4711781063806484,0.41064904500944976,5.186292505648453,-12.163109252867798,-1.007379615138234,-7.699549466919052,0.7057960855408965,-14.937532766998629
1.9000000000000001,-1.9284029559094051,1.8148978908698155,5.204360899181211,-13.093666117519206,0.5294971246521527,-6.039130584204031,3.0487884109452352,-12.13970360258827
1.9040000000000001,-1.5172887295839246,2.494910240016452,4.95751081392109,-13.480588190541312,2.0324472853785664,-4.097658062351911,5.286449719049415,-8.554498673865965
1.9080000000000001,-1.5879243640738423,2.0843105327726335,4.109943424416997,-13.512827029634536,2.690246171612216,-2.3757934904424474,6.614982568703454,-5.037626672967235
1.9120000000000001,-2.177457903476352,0.6335404881374416,2.487851371227407,-13.20731964999095,1.9967375047572204,-1.2003458082490397,6.370800817134295,-2.2440643337740767
1.9160000000000001,-3.024241081787295,-1.3688482547472631,0.22173272614372763,-12.382800519946613,0.07654040422130493,-0.5834759459448833,4.459700243972293,-0.28418429754310637
1.92,-3.7432909673261747,-3.2003845553326755,-2.309733063857948,-10.792077777583017,-2.3374189261116953,-0.23730188012723374,1.5400483503890428,1.302312415185952
1.924,-4.048556499246843,-4.240182665294014,-4.683746940177571,-8.33733713853644,-4.281356635294742,0.2537804682779097,-1.2029907859105151,3.220312732944876
1.928,-3.8836188429850154,-4.247624349422949,-6.640966229409969,-5.227010182561571,-5.062040814287684,1.1944329368652689,-2.612991819916715,5.935616957389357
1.932,-3.4047949505984434,-3.456333110034393,-8.16399074904075,-1.9647708159614012,-4.604445730023599,2.600246589733615,-2.1531459655307117,9.32519765451434
1.936,-2.8232738959313792,-2.4233527964120185,-9.362346173760216,0.8568628216357865,-3.4260366507105573,4.189005304720922,-0.18501184450815344,12.685937552629184
1.94,-2.2165484485904017,-1.7035940034347732,-10.251033293871842,2.8499252258357046,-2.2430007415950968,5.556850702902011,2.2528436217262424,15.114914108204175
1.944,-1.431026491502962,-1.5270057400971382,-10.58138633827366,4.0458882656676,-1.4477295423766918,6.440699195313755,4.0639926966441635,16.050893279507363
1.948,-0.13882741388079012,-1.6423462566635862,-9.859452535949913,4.894318606574416,-0.7727910351713945,6.909700642681855,4.752426975928756,15.648967936262125
1.952,1.953696011923057,-1.4403037203946951,-7.592021763368393,6.011539134200575,0.6004418018328579,7.349680024690315,4.699772228339498,14.729244685686353
1.956,4.845640000028652,-0.32033719341507094,-3.662866638644573,7.7897301249063275,3.4970333550459145,8.210745605656484,4.853456310444017,14.28214869718795
1.96,8.061844714955441,1.8755865249754606,1.358711773692903,10.061132375720717,8.05578192693065,9.640756885824885,5.963141712926699,14.780790958560829
1.964,10.666218328369723,4.58786510287473,6.173083080003835,12.012096307767933,13.292788961665792,11.21459799524564,7.817477031258932,15.696487463410449
1.968,11.524184383870306,6.61409366881071,9.066087037968373,12.438578677058558,17.24967722342444,11.962586538451433,8.995581191300516,15.537817449103386
1.972,9.737820402969191,6.539226307360423,8.51180129122531,10.264428788090754,17.732747566749822,10.76273951424264,7.393852286276342,12.490824023208916
1.976,5.0908241909955905,3.373826450249453,3.841922874215925,5.112161192938402,13.347685423087569,6.943746306097637,1.3446627771099884,5.4043265683521895
1.98,-1.6979703025945128,-2.874195065758613,-4.324269832154641,-2.3497412434458056,4.333313615102725,0.8020563160025631,-9.240195945310916,-5.3690067495263065
1.984,-9.064229923390485,-10.990694228613393,-14.113049058785236,-10.477012602571904,-7.26152959570436,-6.263555304338297,-22.355520160255764,-17.73359332963446
1.988,-15.037633474265931,-18.846914506118537,-22.93523231616382,-17.144782660883266,-18.2031073114058,-12.143703127504523,-34.39264547496077,-28.42025834722881
1.992,-17.90632201104563,-24.133944028252245,-28.355541428387596,-20.484684069519062,-25.277253610518073,-14.812918035942857,-41.488789469773565,-34.17007278983874
1.996,-16.827623082866012,-25.24205239443745,-28.950232153446677,-19.557255850867932,-26.544740309016106,-13.173934529262624,-41.12805950770189,-33.02684639385552
2.0,-12.112516363179111,-21.884399198788742,-24.797590948765446,-14.669129214490567,-22.065947836761097,-7.539418977562491,-33.21271113082412,-25.140231928430694
2.004,-5.065855482598636,-15.187243588525234,-17.391991237475395,-7.209382808473038,-13.779071842760459,0.4981661675974465,-20.087293482292353,-12.704306969435493
2.008,2.5531922695486173,-7.186831937180614,-9.009528806899198,0.9196816310382019,-4.591509215812039,8.754209424807414,-5.507056194026518,0.9449212743274984
2.012,9.188598890762023,0.008551637490199937,-1.8121555491395611,8.015072389605848,2.860851786821968,15.361068314071417,6.93144994878412,12.65436491645778
2.016,13.949181551805395,4.990188239110466,2.917758594078805,13.108919181739566,7.210503560886082,19.44849766499101,15.13100096733342,20.58137825141057
2.02,16.697982628199043,7.41725679368119,5.093229714801964,16.118284912336094,8.694720163153761,21.27907524092734,18.99793296190228,24.6276602061198
2.024,17.809110426334883,7.8588039624919475,5.59470834276226,17.606806495803994,8.744428996141323,21.825788833801198,19.97733155730475,26.04737150046003
2.028,17.791510059368647,7.27265977166735,5.664020229738071,18.330032698235755,9.110758534749948,22.072428362980645,19.980654167794455,26.503156995344398
2.032,17.02377187818456,6.441436371605505,6.261826993895056,18.83119420895264,10.987901803724071,22.458578400847728,20.330329458865435,27.115192130007017
2.036,15.74097432898543,5.6782270898695515,7.702937488964835,19.283728267477727,14.545998338360732,22.7657344503059,21.25831132555777,27.993812290441383
2.04,14.21011551792617,4.923935325869934,9.69779461756184,19.59698132755284,19.03373073469311,22.45350142771622,22.12057878166479,28.43737361276999
2.044,12.884458680958232,4.086795935990949,11.702339993515807,19.652004762944443,23.295578289594232,21.18483105060841,22.07886050470188,27.607574456731527
2.048,12.364047490714256,3.3545991418761787,13.318327473138652,19.480783598570497,26.3792681927755,19.17445188468446,20.77049752761104,25.229979683997954
2.052,13.122399118353314,3.2217542060764117,14.493690233201278,19.26548717893047,27.898025470420635,17.12904869801514,18.570341343751352,21.895514338521025
2.056,15.168848546412846,4.196758271377121,15.438142630182483,19.176443700597247,28.019245296893132,15.82075371798237,16.34133223960407,18.804170071861336
2.06,17.892660318803337,6.393125898357539,16.35023506533753,19.18728398729627,27.17724197371831,15.573722625527807,14.88894213162348,17.130096206016788
2.064,20.261131995182495,9.300238828446936,17.17016901443685,19.0271107081212,25.735386276806366,16.01372844180787,14.495392271597666,17.40161566612369
2.068,21.31302121638646,11.93759185078261,17.545789586733918,18.32685845615606,23.822587063546734,16.264882140941154,14.819201160506509,19.271051842377346
2.072,20.667607977327407,13.326820052960784,17.04360233234138,16.876960426960068,21.39954021657536,15.490428420860098,15.191510052947251,21.79672364790804
2.076,18.74048977723669,13.014320975624514,15.466765392568732,14.827387729929342,18.461679689747598,13.450496407252103,15.089714180879128,24.040191846670496
2.08,16.51525054443573,11.330593543825671,13.057393790098786,12.679310910893946,15.209307553071994,10.723914127679109,14.469934664515677,25.6021852787253
2.084,14.983623548657306,9.201153088141382,10.4349178291327,11.045408462468004,12.04058256760436,8.436550847029594,13.755654698457874,26.76731821600697
2.088,14.585554429236254,7.61223406681529,8.288765017331798,10.307054510903072,9.370970149374443,7.639830875824373,13.507790308897711,28.17906034653879
2.092,14.983952267481072,7.0395221928415594,7.0083533178387825,10.382071587445125,7.398556374959526,8.70110713896429,14.000319100218803,30.276441287664966
2.096,15.311980434700672,7.182828430743712,6.48038081865775,10.751357493383239,5.989399829151807,11.057530223041795,14.990880890585686,32.8579327935804
2.1,14.735573033417495,7.180129578820015,6.1788507198789375,10.737690734548778,4.781463913734569,13.474175087963431,15.830959781267666,35.0639723110653
2.104,12.979088909348775,6.1814100454637355,5.510398920919215,9.889405673215833,3.466562882502558,14.665596929619824,15.841947610870648,35.803725008609035
2.108,10.494919825633588,3.943832148328056,4.214824232302362,8.248278010550166,2.0899550110477776,13.938528607994613,14.73609329970077,34.37781264379373
2.112,8.160928651018821,1.065268434595282,2.576243044638886,6.341361132042266,1.1545491563522319,11.503451852921444,12.826356313569704,30.924571616138564
2.116,6.703905207892603,-1.296832750027761,1.3118528544705441,4.904097115397917,1.4373790072163501,8.30712014773735,10.880183651151128,26.41338002362727
2.12,6.234819965566658,-2.051777787722358,1.191395440498809,4.499506796210881,3.587278948630683,5.515929848746055,9.704385502705009,22.176045417500063
2.124,6.189203351736978,-0.7927429209548791,2.5988309898242505,5.246080167269156,7.702533033871987,3.9507719291796093,9.699382138714554,19.241586665961222
2.128,5.7150877497265355,1.9683285218952733,5.276362058095174,6.792570624095788,13.131044290940054,3.769096624636859,10.618886139787264,17.842889662360903
2.132,4.265971340564192,5.070767203512332,8.391354478491849,8.537196948395376,18.608756978356496,4.5200256337620885,11.674147863300277,17.36858928334732
2.136,2.019004059231065,7.317107396237134,10.89562257648572,9.944543168523978,22.700251941985698,5.4807202738606975,11.931298558383787,16.7704257611922
2.14,-0.14556398582612928,8.076114714287542,11.977729884044038,10.770193887897449,24.34470305589207,6.040361531977396,10.780506880252688,15.173517187296966
2.144,-1.1298067521179291,7.5162053648284655,11.376046865212402,11.071278779155477,23.239181131632677,5.922235645863566,8.229828502113378,12.337972395154793
2.148,-0.29292233804017087,6.3639409361526305,9.405591381104955,11.0156025997386,19.886236680693855,5.1643324934661905,4.875533004403678,8.722131853993687
2.152,2.082349741115877,5.355461800553144,6.714221732995043,10.637943896451475,15.291365236258116,3.9358443138748953,1.584191323259347,5.153178240276247
2.156,4.811225642747786,4.731080589249245,3.9299946270659802,9.712805470828698,10.47714919030534,2.3598360495057022,-0.9349019805790704,2.3274937273736214
2.16,6.333883574620359,4.099354297062064,1.3975010146855311,7.835041085432522,6.066850858369662,0.4678220559408146,-2.438330123127571,0.444417257999703
2.164,5.472082472485681,2.745133765771243,-0.8685241765049341,4.679153620874445,2.1315938565595616,-1.7032372484541156,-3.19071912700565,-0.8191265927316635
2.168,2.0188235620103114,0.18818526694144566,-3.031752140411072,0.28758497128740146,-1.6526652342408852,-3.974574091058912,-3.742835346132324,-2.0108691843361157
2.172,-3.1324477071093497,-3.3757695799124576,-5.206622965961742,-4.781769030280884,-5.66560167468856,-5.975743699573286,-4.578121729135091,-3.4922846232202573
2.176,-8.36782564726127,-7.0309340668715095,-7.303296434701906,-9.541461598675255,-10.010729264740576,-7.238293874838746,-5.825224799053103,-5.171218610094911
2.18,-12.056831187525177,-9.54731283626802,-9.051337114258331,-12.888579889428456,-14.375266443570808,-7.399564422225012,-7.19343689820721,-6.553039358651404
2.184,-13.237067608865118,-10.015778114573095,-10.169149420273925,-14.010542673969894,-18.133348382741133,-6.400244971865277,-8.140497113732408,-7.066785567127226
2.188,-11.961331791272187,-8.33373803868244,-10.551520508796443,-12.700608222933738,-20.599253976228397,-4.55849707075663,-8.177944032686128,-6.460454055402806
2.192,-9.189992548305781,-5.27951508773981,-10.341161763641594,-9.449232055482526,-21.292322825323254,-2.4752450346268233,-7.142876006537563,-5.020585728263541
2.196,-6.310533455154655,-2.131605797709426,-9.82436357043457,-5.27335621993052,-20.07789684767556,-0.8205662214704716,-5.286561858146342,-3.482234817478002
2.2,-4.536475735456406,-0.04627097942079672,-9.222083054524319,-1.3689976183172803,-17.146440404092914,-0.10639435017401411,-3.1584228462875217,-2.6816212084431754
2.204,-4.453311287559927,0.4502729898758844,-8.51853752593047,1.2698023838148629,-12.901848626213564,-0.5436145130554451,-1.371187857672794,-3.1569571072841427
2.208,-5.882432005531882,-0.4034936224639978,-7.457491777819996,2.115532794051205,-7.8492782974503825,-2.0239774495755682,-0.3843501188434857,-4.929190564527289
2.212,-8.081851579208433,-1.8847681177849154,-5.735806395813711,1.1800538794022941,-2.552389971936236,-4.195762818516414,-0.41271597111074243,-7.5653125059554895
2.216,-10.154359791282559,-3.2818252546967415,-3.2881961919732703,-1.094624570522683,2.3590283312373685,-6.588947796144566,-1.4742427012811277,-10.470958778571912
2.22,-11.449814462236645,-4.283653466923852,-0.48145788822125724,-4.052972787279032,6.213937989001806,-8.739026072070828,-3.4971369011367415,-13.220872512310507
2.224,-11.783083073690023,-5.049398123247784,1.9312713269851542,-7.0450798618524,8.410491475381605,-10.291608190609168,-6.387022616554987,-15.732840266413405
2.228,-11.398223040223229,-5.945851681484783,3.107691275364573,-9.580507115834678,8.603638150843835,-11.080131418464134,-10.00492298677068,-18.199342018168863
2.232,-10.739634883878466,-7.167832902524424,2.5241213203889856,-11.396117316719028,6.863717531937368,-11.169623443803175,-14.075210647519157,-20.84123089269042
2.236,-10.171829444593186,-8.513613983730352,0.2716272495831049,-12.451925530873496,3.695914253224771,-10.839601231869892,-18.11771737936965,-23.65290725061186
2.24,-9.807815096868808,-9.469633647549244,-2.9442792231768635,-12.901749461481415,-0.13619497952163329,-10.48507943434106,-21.499411663987985,-26.313140137686332
2.244,-9.533135496382556,-9.560251732557163,-6.121536067117063,-13.05540227011636,-3.926760068791168,-10.459094927520482,-23.62068205397827,-28.315524028245136
2.248,-9.184259599925326,-8.724895272291576,-8.442433707655823,-13.323272063828881,-7.318043349333607,-10.916070584569525,-24.15587737728083,-29.23540265230804
2.2520000000000002,-8.755672823501527,-7.472322470881636,-9.661979806404474,-14.119772986511748,-10.408811048863015,-11.737020932401492,-23.207221359459936,-28.953593457518082
2.2560000000000002,-8.471071416514633,-6.680820704826488,-10.18635064936143,-15.708536095615784,-13.603441192805576,-12.578501984941227,-21.25972731207753,-27.689653895278525
2.2600000000000002,-8.675768829273807,-7.1449465704600925,-10.809884696733548,-18.054177416740345,-17.281318170947998,-13.031324289128406,-18.957593669911944,-25.832067005889257
2.2640000000000002,-9.605367525189422,-9.129130886002486,-12.25069940541863,-20.751016002311076,-21.47220357056881,-12.81559965905717,-16.803310851552737,-23.67017027526208
2.2680000000000002,-11.165595089560384,-12.1776842207002,-14.742648991675537,-23.089393935502358,-25.718515015860078,-11.910543202529766,-14.943982547057203,-21.210225922839527
2.2720000000000002,-12.883778845187408,-15.308524655731958,-17.903119183411377,-24.26907948234691,-29.221516677071122,-10.549570608280646,-13.165498376895812,-18.205409605182695
2.2760000000000002,-14.098706020867326,-17.500612809564018,-20.930984243337377,-23.699692170538754,-31.189145045889404,-9.09649245800847,-11.093763206459585,-14.39875484676736
2.2800000000000002,-14.283427384433537,-18.183198876420875,-23.006235921571175,-21.250485533360347,-31.183135444198342,-7.879885639123472,-8.488137733452163,-9.830222242694617
2.2840000000000003,-13.320611810762443,-17.461830181615028,-23.65352792112236,-17.321210608228284,-29.28617104533066,-7.074044471607749,-5.451591297937966,-5.007343941131239
2.2880000000000003,-11.55945319576199,-15.965043595962072,-22.87919381090424,-12.688596666803278,-25.993553784195683,-6.68500790380449,-2.424207065910821,-0.7996595867851966
2.2920000000000003,-9.61627951038247,-14.425497216398213,-21.042044289686174,-8.20130919923821,-21.919343040524467,-6.623621741996772,0.03457822589751913,1.9138885073280107
2.2960000000000003,-8.027394123612737,-13.244976396449431,-18.568167191270078,-4.463386489118079,-17.49431742460939,-6.789147637040401,1.5448130129143465,2.671807377847813
2.3000000000000003,-6.96476670516239,-12.29261419392543,-15.711538150869501,-1.6641545179348896,-12.826221781984032,-7.104598645732892,2.119969707862481,1.6978581294508786
2.3040000000000003,-6.189871505395274,-11.045406181261342,-12.505300186156148,0.3715710603970592,-7.797213915593005,-7.490920774110577,2.1648549231871357,-0.159561651135391
2.308,-5.255700729586351,-8.955849603197066,-8.905598281332601,1.9681179700767473,-2.309981409136668,-7.82097094982521,2.2581237846107456,-1.8053597171184492
2.312,-3.839713468689922,-5.840559174097621,-5.008639956593015,3.348886045394238,3.466714304143977,-7.921178098492419,2.8397689813430134,-2.4036471824567798
2.316,-2.007125861947543,-2.075655977557517,-1.1795897181548014,4.487399002523944,8.998352551376229,-7.652781191627582,3.9669641373772038,-1.7597837023264447
2.32,-0.22902454058487365,1.5256362641950716,2.012032267726056,5.140823509891703,13.501479632807559,-7.022487647577918,5.2782496775201935,-0.3732887946689516
2.324,0.860521565808483,4.069292852428362,4.023728038348878,5.02797407921733,16.214086629430085,-6.225552646254073,6.187782066953389,0.8684342716916262
2.328,0.8250315352913162,4.981379412190506,4.597560413414186,4.027769963838864,16.691959816104998,-5.569024874652655,6.2022989236629655,1.187154077617265
2.332,-0.32738460630400823,4.239663056729853,3.885444218360675,2.2753275850171804,14.984546941203234,-5.291453489334117,5.197901961865739,0.3414941313928921
2.336,-2.1392298781074714,2.3461001523677965,2.376174822645339,0.1173629068016453,11.62719248527219,-5.379489902899991,3.518607859153974,-1.2357675268603998
2.34,-3.9408204011356247,0.08170467547125781,0.6611086079975621,-2.0421279637070597,7.467176222263788,-5.51206183414979,1.8411239568520728,-2.664900963197738
2.344,-5.186327328759944,-1.8181436672995233,-0.8222943396495452,-3.8934176508514042,3.392484787943829,-5.195808761825106,0.879246037352118,-3.0795659862960747
2.348,-5.6866086775000895,-2.9080829893171085,-1.940725297519009,-5.285700829103064,0.06880654788608354,-4.044505848234962,1.056420293948122,-2.0862283276785547
2.352,-5.628950518960778,-3.1219235320675693,-2.8548484634735587,-6.1924657286909905,-2.246328593117255,-2.0511101272489896,2.2988887136608582,0.012848467285493825
2.356,-5.389496690258284,-2.7000132260648684,-3.8732312856777185,-6.617475781239364,-3.753477522896617,0.32874128210357867,4.051385746330993,2.3493221551993884
2.36,-5.273198178310395,-2.020244776452671,-5.274127820390277,-6.52577435535818,-4.99931814136454,2.3541996998001196,5.5111453625012246,3.8938983389939494
2.364,-5.350584644841888,-1.4332367533954766,-7.183583438551011,-5.855360819252098,-6.630847350267857,3.359953416984581,5.974859795215366,3.932775913279329
2.368,-5.461817765622527,-1.1422690747389765,-9.532456656194313,-4.592325946850394,-9.07119599276001,3.106039580710899,5.1505913014024145,2.3815423416156136
2.372,-5.367844621363929,-1.156272335796018,-12.076482028218834,-2.844493937742982,-12.23969990730319,1.911333981798748,3.302862787217123,-0.20569139830581662
2.376,-4.933126000815378,-1.304145829111576,-14.430801628345819,-0.8512881895496776,-15.44453489015524,0.4838795552495867,1.1646027385769457,-2.9168275776776227
2.38,-4.217909230245368,-1.2880572480748356,-16.106714056805515,1.0891016698182625,-17.536094636069038,-0.4686858488772714,-0.34879019065760986,-4.9060738245577795
2.384,-3.4385295198276253,-0.775653174685317,-16.573191038056848,2.736868108619433,-17.310620459358574,-0.6251703464570255,-0.49757164969423684,-5.743734593350837
2.388,-2.828418710548249,0.4942482814860796,-15.37167930065965,4.000012928817512,-14.018661193937703,-0.21358243813153877,0.9969083912490078,-5.531620844630197
2.392,-2.510388646846536,2.6000649422448987,-12.2863044016824,4.93475644777277,-7.768561278534889,0.14388726215668157,3.856071575942792,-4.748430275079272
2.396,-2.462146072466112,5.357817166910422,-7.505423406260661,5.6545286448461525,0.37965663938615535,-0.1883046776054016,7.364213250022317,-3.936425760114844
2.4,-2.5744883308744875,8.32961125752604,-1.6803000534089279,6.209892609737835,8.712379913169059,-1.4719354751694027,10.645124399028987,-3.40879359465589
2.404,-2.7509956656678014,10.930855051466324,4.191357098949254,6.5196502442402675,15.441447263101225,-3.4262403722224235,12.97685613121996,-3.1296079850676506
2.408,-2.9688152079670544,12.618785510154225,9.049725302078684,6.402858670407454,19.33154253316866,-5.370519307479981,14.002801803476359,-2.818403258874696
2.412,-3.257231470689021,13.084044120069734,12.113938879372427,5.695034287035071,20.09410315250841,-6.588448229656706,13.7736886233198,-2.198421695023626
2.416,-3.614785331175767,12.363700459744507,13.133771020921131,4.382272513270493,18.379460882119645,-6.701414159303795,12.631146216183879,-1.2276115513916466
2.42,-3.9314167433551575,10.826874652240747,12.423467660668393,2.6727141170010214,15.396335979246317,-5.838947415299117,11.010339746321279,-0.15705429361059942
2.424,-3.999626825416726,9.018249176083657,10.65830692373197,0.9477268898854732,12.346549514557125,-4.529682804737149,9.253739217156976,0.6219438219716267
2.428,-3.6066564391030624,7.443899297331825,8.544295027555677,-0.386500671456929,9.957618626480212,-3.391490616721285,7.519478898135731,0.8517302869652212
2.432,-2.661481963219785,6.387694723036816,6.5312890093544524,-1.0711778783975774,8.303392711880747,-2.80660739371433,5.803729918061208,0.6331739696181558
2.436,-1.2778304594480687,5.836803542680741,4.711953691733356,-1.1037103177114886,6.955563580702744,-2.7667452595092072,4.045092718585806,0.44483429933188745
2.44,0.24821501841699956,5.5434872943609435,2.929108044198017,-0.7330246141760313,5.338913303627919,-2.9588582379401487,2.240153734869864,0.9118342170820597
2.444,1.5556658271157175,5.16904280043633,1.0006623066811926,-0.34329133843101545,3.075258036640264,-3.011971073641007,0.5121868036294472,2.43723063987386
2.448,2.363740086992493,4.436253663800699,-1.0934069205461583,-0.289108179578875,0.1530633422281653,-2.7430326577984943,-0.8889671847801992,4.901682333206054
2.452,2.557279124025513,3.214688095806764,-3.182720185520054,-0.7588922920194818,-3.137972682073837,-2.258180226095874,-1.6526640124566256,7.627119560361052
2.456,2.1738755523770124,1.513977846032617,-5.0405343705501195,-1.7207106584698408,-6.417664454632472,-1.861965430634882,-1.5102643951300934,9.654290037223518
2.46,1.3194170636337503,-0.5745844186176328,-6.580687435009793,-2.9653139372260284,-9.41840204636901,-1.8439594858352848,-0.33343044573109637,10.203421026524666
2.464,0.08211545676545029,-2.936276845594307,-7.959349210044309,-4.21245601374585,-12.056196316874434,-2.28325401292841,1.8061032435731477,9.084212793778988
2.468,-1.4793765220385922,-5.433035926245111,-9.489123212119807,-5.2263215306463735,-14.33522340705963,-2.9960967773533866,4.628535652460073,6.808848004493257
2.472,-3.2726388726016467,-7.852295737715849,-11.398250364274418,-5.884072483730051,-16.17401386918698,-3.643672613836088,7.698179102117251,4.337007250815304
2.476,-5.084677224403549,-9.86137996776904,-13.573074567502601,-6.174920441917152,-17.28315965938873,-3.9245569396939572,10.512193584171769,2.5835092723968955
2.48,-6.555425429375646,-11.029059732569522,-15.465049490878982,-6.141644263099238,-17.189520494741032,-3.7273653940060285,12.614595884018172,1.9607571993437887
2.484,-7.269549164098294,-10.951356432830949,-16.248792756980947,-5.802179912813017,-15.419979892181118,-3.1522188410285708,13.710645549394485,2.220513687490211
2.488,-6.929505629457026,-9.422336499433413,-15.170278870457935,-5.093233509682705,-11.734910627793738,-2.4015438203948634,13.74202565971234,2.6807642562089313
2.492,-5.515129364576296,-6.569668728535703,-11.914153938976824,-3.8703808703731966,-6.296185388985805,-1.6185234950787617,12.898126565719053,2.702494424736642
2.496,-3.3221323477780516,-2.871968288697758,-6.792057204827415,-1.9700102528174739,0.3257578422091001,-0.7814295134000986,11.555715163415243,2.12894550515216
2.5,-0.8310837541971523,0.9766899684900636,-0.6465569404181224,0.6840176055120537,7.315837746016541,0.2764229905915272,10.164011446875861,1.4108354060904276
2.504,1.5249523237162066,4.292139408507865,5.476703897044331,3.977097213599791,13.857477168882497,1.731657231902318,9.112476181303919,1.3367959131171574
2.508,3.5752855125888345,6.628236836164433,10.71422107831961,7.558224422134913,19.349348010368203,3.611599886205795,8.620997690356262,2.519430999132055
2.512,5.476115998710611,7.894251052077834,14.628392040745098,10.885920130465593,23.492457883137376,5.71978917383899,8.696906553256213,4.949669343499409
2.516,7.567400975612827,8.3150405773398,17.207118724554903,13.36417815565801,26.233981598458627,7.6925634670915315,9.168250316050717,7.898637691748263
2.52,10.107426902982752,8.275704296731874,18.657802469536477,14.530644565636862,27.634116752041678,9.162056832064081,9.768214675984154,10.248956957180326
2.524,13.03235455070353,8.13126987404462,19.150976013497143,14.223151634629858,27.74268314930555,9.922035310402407,10.240452666216243,11.0815527135087
2.528,15.899513225730743,8.085472330020707,18.684457796260176,12.65417270475541,26.56823997399249,9.99477330967079,10.418020007788982,10.179198958387133
2.532,18.05341562052945,8.161831448324165,17.13508489514652,10.347584765090119,24.131479308468215,9.563941823765163,10.242459229227052,8.14466417522317
2.536,18.931527641872435,8.248903089793089,14.444978338631245,7.959153054158719,20.55665098694726,8.820973922582198,9.728720202401064,6.066653173798386
2.54,18.342733003682724,8.167255015082901,10.786140177992138,6.045388292034431,16.125991456398424,7.828336753587337,8.901487305769479,4.922697371460799
2.544,16.561289827880955,7.707635477186727,6.582136154622276,4.8783203914682645,11.249807334035268,6.500102844052435,7.7533489856189135,5.065826713286242
2.548,14.190805794326934,6.662277306353758,2.372126396910744,4.391421665414896,6.38820263092191,4.720083430662044,6.250770485962221,6.0963486014602495
2.552,11.878297686859014,4.8709504083104775,-1.3938036161398486,4.276568514676228,1.9679261625675508,2.525043919658401,4.38982601138332,7.1805150012878585
2.556,10.03003956909879,2.2969457784112137,-4.480041025608784,4.17563877142004,-1.6573133245026384,0.22589486898209543,2.2737926971781235,7.612963316358673
2.56,8.687959259168565,-0.8701116163690585,-6.828826614116906,3.878687747948902,-4.181106717245257,-1.6387153557241163,0.15169478034545136,7.2747312733276885
2.564,7.621289255071588,-4.1563565984739625,-8.385749177343087,3.4424486092441384,-5.30542534349604,-2.5194836198679695,-1.6247332543514403,6.707686354080579
2.568,6.560593188616849,-6.850115459024437,-8.919766616098173,3.170863245502346,-4.740973888929034,-2.139426190775339,-2.7112424168501548,6.758037037755457
2.572,5.435959861276842,-8.170904273546512,-7.989429322886167,3.4814266758786516,-2.2825771322729906,-0.6720742060238081,-2.9067412342965326,8.018919596118394
2.576,4.48751456898799,-7.512435550020427,-5.117305262472655,4.731137020475103,2.064635645064868,1.2987919243987562,-2.2461389238487754,10.417216681812533
2.58,4.1955849379869505,-4.6570084060272166,-0.10283084236141349,7.076357610138871,7.9835644405353605,3.040005905338603,-0.9902643016166621,13.206638738957736
2.584,5.067789369265938,0.12144923036282762,6.70770692686051,10.421168461655611,14.833630893535542,4.025889450981595,0.4894109811953058,15.38172689076464
2.588,7.391529213899275,6.111265086662684,14.36567645807986,14.45233471000165,21.76274084875979,4.19282928538496,1.8727989035512564,16.256679575662474
2.592,11.045934521358731,12.333063302445225,21.54114689155756,18.71567706355495,27.890108413088683,3.942609774901939,3.008669931471559,15.854070829766897
2.596,15.452382482641724,17.75583913030073,26.938735863845523,22.69275973701201,32.4848976370655,3.8786139492913208,3.920279741445711,14.8653728512013
2.6,19.691794839751083,21.505524817514015,29.721643747719213,25.86334176188734,35.080012164711775,4.424324085941407,4.710571609963154,14.206164641301257
2.604,22.74841329506944,23.023171792648668,29.755169984358645,27.758404225356912,35.490172159799386,5.5397157071274705,5.43052430298053,14.437513315825527
2.608,23.831575801588542,22.19039819762702,27.585748252143162,28.036743556214788,33.79071282604741,6.706324879082331,6.000679101917285,15.411613592430513
2.612,22.665425167458125,19.399742925494138,24.180093833616638,26.585494964979603,30.29343351704881,7.204149430264806,6.245781431805426,16.36597237681417
2.616,19.624046075064143,15.517964220839076,20.560088527681273,23.59374422783253,25.526973803806186,6.518011780205143,6.024684229695367,16.398998118734653
2.62,15.646366377634195,11.70471849135879,17.480942303047414,19.548744915984685,20.193835444923707,4.648199616033253,5.360309839222737,15.032453078360504
2.624,11.909782596560717,9.06584161510682,15.248155404836439,15.125161595245572,15.05003607684057,2.1422012728171467,4.481347876919472,12.52152117777132
2.628,9.364776701049777,8.244686404219692,13.703649121338344,10.989042061604437,10.714717364303851,-0.17812705881169677,3.7251271132888633,9.71748285252579
2.632,8.32405037515764,9.122082374477031,12.344108405528914,7.594533074496326,7.467020101190656,-1.6423750129038126,3.347252305201664,7.568010426866749
2.636,8.321584678998988,10.809837310124294,10.524495644098238,5.080069981223346,5.153973617796282,-2.0723480689075586,3.351853764530915,6.564710619653397
2.64,8.356765008462162,12.018063599985908,7.702895657733961,3.325319577648088,3.3119345213044653,-1.8432200970660233,3.4631031073442955,6.480593599523218
2.644,7.431822766090136,11.659609216289255,3.675980362400651,2.132305507395813,1.47854795570629,-1.6280353981751432,3.2748026871283855,6.5536475871117545
2.648,5.131672218653421,9.417007432431319,-1.2588555108908395,1.4215924733978227,-0.4460589748223356,-1.9779938257956928,2.505475839461269,5.999486674660147
2.652,1.9265515534116275,5.958597607698039,-6.293864412086236,1.3104232924488315,-2.012245945345967,-2.9842032392716646,1.2100162918202386,4.5267675698942185
2.656,-0.9922192387509767,2.6627925595428223,-10.297443816650457,2.019205844089356,-2.3545321018998493,-4.216126560501834,-0.19161461822386627,2.5401841750745007
2.66,-2.3066472314289967,0.9556206821932847,-12.18285859336845,3.643911348687425,-0.6340549604494754,-4.976424481371396,-1.1159640160790332,0.8929078821961411
2.664,-1.2933134615013842,1.5904537872174842,-11.333151779073091,5.944022472182041,3.4175213565988543,-4.721001224316751,-1.1394599901163929,0.3431091467823535
2.668,1.7347791601837343,4.265183723463224,-7.896053669449543,8.304764442253372,9.172447924624976,-3.4018882720256443,-0.27032529608254663,1.0496343759123192
2.672,5.515436007989138,7.779722881946782,-2.7969133850721164,9.931238115933184,15.21074212297276,-1.5264052071997867,1.0009866224436337,2.4254263555458238
2.676,8.434759756650237,10.65311676965166,2.5754170900443114,10.19268865396134,19.851667702290797,0.10197132575922296,1.936609615470843,3.445921562143212
2.68,9.326909538451673,11.862530132785878,6.885619257566304,8.932446986440254,21.86846649450945,0.82076240729657,1.9515756245202738,3.229707044118186
2.684,8.031299461712024,11.291207371144083,9.341089583127541,6.560035570543732,21.00180797456983,0.4723039108143894,0.9625988808595594,1.5477951756083712
2.688,5.4191683602894045,9.67625482166136,9.93155782461622,3.861405082591773,18.011297504104277,-0.5125328428343892,-0.5152496109717504,-1.0392737067286362
2.692,2.880836194128733,8.110507372328811,9.309126678165057,1.618342097453933,14.227112885143242,-1.3574165671434457,-1.6015612791766216,-3.496685948641243
2.696,1.5876608156277143,7.4131528269940645,8.39185910460651,0.24884132153738392,10.855607513118684,-1.371710424725734,-1.5058377896762067,-4.90116858565716
2.7,1.947282677662315,7.738252714781311,7.895507091464651,-0.32856153305010594,8.42842224704009,-0.3269656556217342,0.027117040780467505,-4.945309452407855
2.704,3.5270290093567382,8.602080855704116,8.029252764778676,-0.5466231309710565,6.673340867638899,1.435914826960925,2.529124910072369,-4.072754090667331
2.708,5.447934742403049,9.277280730705115,8.495523152884743,-0.8537535865239079,4.864818582125054,3.226087604477925,4.999114772565463,-3.168516789180103
2.712,6.9710571096607055,9.271608883439512,8.74759825713113,-1.397957330814279,2.409637966266473,4.417302744235258,6.385973721378377,-2.997649205251946
2.716,7.907451859494813,8.586944485458616,8.33467255254368,-1.9197019097398424,-0.7021766978675714,4.813125941737326,6.112617515292186,-3.7310482664852316
2.72,8.625015402801637,7.6288083302295036,7.128025772447472,-1.917696564006519,-3.850117748545699,4.7477987940810635,4.361094846395645,-4.8432041368751015
2.724,9.683388700658725,6.854345563782545,5.322672580796279,-0.976495747900799,-6.155938129902552,4.865795574220556,1.9687978821434626,-5.427434543462368
2.728,11.38836197530236,6.445461905094817,3.2635752463190784,0.9625913477693757,-7.015095835163038,5.715441537879997,-0.009285632531828014,-4.735665383606829
2.732,13.554919016713484,6.216935639202347,1.2394400818186568,3.545103685271897,-6.4544433395858505,7.394631614208265,-0.8276176653284892,-2.6214483098747223
2.736,15.62775790871342,5.813895558734089,-0.6003199672429673,6.193525470031659,-5.081391207690331,9.464800931130412,-0.36569938115940204,0.3738308295942261
2.74,17.060348561140927,5.050760507415362,-2.166338137202615,8.41186197863658,-3.6555905077043462,11.187410737463324,0.9249236271245991,3.3341320403319514
2.744,17.676000787338126,4.124394917352674,-3.2681090793556677,10.010083893450656,-2.5699060059728254,11.942535358518853,2.3980755579466404,5.4878730834989256
2.748,17.75834013584563,3.539639990858177,-3.531720998638093,11.099226924743562,-1.580169921662673,11.571066534648253,3.670628777618049,6.60624530124187
2.7520000000000002,17.805371109513317,3.7690836637855227,-2.51079353192074,11.872528681945141,0.019451481612350108,10.44465746740434,4.865879355273137,7.056819897760306
2.7560000000000002,18.107521647661315,4.860972946988568,0.03417605953563907,12.331500543874881,2.863266990530292,9.21736408657489,6.488636636885758,7.491875636998429
2.7600000000000002,18.429794908380245,6.267792710503045,3.8459626468519446,12.152345903350692,6.955461444786806,8.409628769960364,8.998010373316902,8.373630009565204
2.7640000000000002,18.040067091523724,7.046618369185353,8.087310835080189,10.820285484805368,11.449877511642399,8.090897426339325,12.366420900267258,9.650522750536311
2.7680000000000002,16.116699742065066,6.371986980231213,11.589577367697416,7.981534533734248,14.960437647688195,7.869581402545009,15.930169480235008,10.793702886666779
2.7720000000000002,12.309913814382753,4.069235751909446,13.353948732094182,3.8016061723667463,16.25731080978335,7.209334745198248,18.661686290241278,11.183483960073318
2.7760000000000002,7.1171806366980945,0.8402628157650724,13.051279348584671,-0.9139581086217277,14.95545718154699,5.866995675247381,19.726529450621456,10.589487101015493
2.7800000000000002,1.8241869345347368,-1.9813824960056081,11.215860308559968,-4.957729668979937,11.783751352383888,4.163099157747638,18.983172230830405,9.423552722827026
2.7840000000000003,-2.0111358219053272,-3.079353579904364,8.968353752318308,-7.24560814366248,8.224534039388118,2.8734632016262367,17.085002165679498,8.56253695434134
2.7880000000000003,-3.294582628803255,-1.8795906243381069,7.368367722400194,-7.374679128397702,5.686606755176172,2.7629850787184296,15.063579579938732,8.792791980695256
2.7920000000000003,-1.9818405884043386,1.0261239780618325,6.725455774503303,-5.915023260674388,4.6525533167932736,4.020609490621609,13.600714547498455,10.18047636606616
2.7960000000000003,0.7999487389349724,4.0106576467846935,6.277305068470355,-4.249379154366579,4.294931847892258,5.941288327867369,12.41563181946458,11.752501442877929
2.8000000000000003,3.1946462805140072,5.087946348452078,4.48427232369977,-3.990597047151823,2.831838444563573,7.101106049138707,10.200628261774455,11.752255306532334
2.8040000000000003,3.440234405384672,2.828226121747093,-0.14441966886556656,-6.230766815927041,-1.5242252980347075,6.008951723250902,5.254976676670594,8.427552664093582
2.8080000000000003,0.6862803651995364,-2.9183815893140945,-8.099125238651027,-10.982996553446128,-9.500487784546522,1.911422567887712,-3.4691474250180363,0.9902608885922746
2.8120000000000003,-4.587569553393678,-10.854936982224899,-18.32346702137886,-17.096692436221133,-20.160355248534188,-4.678060452349655,-15.460242732831375,-9.735920474747218
2.816,-10.750966072075244,-18.713779500048418,-28.41197139144151,-22.690461661475297,-31.097702579618613,-12.034512587071731,-28.409253966941606,-21.338200250008413
2.82,-15.717022531922794,-24.163881414710318,-35.53003864110269,-25.9120414458406,-39.370450036259626,-17.874256887208503,-38.87802302000773,-30.570504178905594
2.824,-17.835744170936096,-25.747841289517396,-37.63550586680526,-25.679288036137905,-42.73060017425496,-20.302600755909225,-43.62173798036201,-34.536599007604764
2.828,-16.568532893602196,-23.41237033983282,-34.38722443367976,-22.06821069441969,-40.53052657467356,-18.59451535087146,-40.94371040156784,-31.78193138559982
2.832,-12.651996041844995,-18.41512414251156,-27.272194332454433,-16.202053881295228,-33.88239330567637,-13.429765577860053,-31.43500817770928,-22.81238861443535
2.836,-7.683047428297414,-12.673531597282931,-18.87242828726687,-9.71660577701266,-25.019601978843866,-6.490390533553182,-17.720474218027448,-9.822711751543011
2.84,-3.358558675579843,-7.893434234328652,-11.657484916387034,-4.0904254912184115,-16.23370116369142,0.33502820036892444,-3.3567615826057136,4.194901171638776
2.844,-0.7640996144468204,-4.906955526769309,-6.915838178183719,-0.15506221608507076,-8.947926761654458,5.720670716330346,8.569768229414024,16.542075539448774
2.848,-0.03458071733666657,-3.496156462870715,-4.361712215875912,2.020863971977292,-3.3592775636169563,9.27339501036522,16.47964578760002,25.60641382987751
2.852,-0.5193491061036184,-2.743872151521032,-2.581576664354202,2.8831532334129406,1.2306703054840682,11.38148652647942,20.528858513471278,31.062571925978318
2.856,-1.3156549902723782,-1.684932172023764,-0.021540433382369883,2.9705096836887606,5.665974588565973,12.710702812685213,22.025653505393166,33.49713018758666
2.86,-1.8379741428448142,0.11684762090226286,4.047982706837729,2.575959991606851,10.24104701029114,13.682921394169625,22.438603088421814,33.74842163184485
2.864,-2.10090036740894,2.3564536280034645,9.115461863612381,1.6768052175887078,14.447594473906634,14.245466659949216,22.56569338641384,32.36545092987262
2.868,-2.580719797211941,4.223594739569194,13.743290666646317,0.12648439419535862,17.272301756061893,14.02415384799906,22.26518050656273,29.454575485007354
2.872,-3.7696341074861266,4.918130480569744,16.385649864388256,-2.044384027646174,17.819983689388437,12.706961046079641,20.799203852428718,24.935247852193243
2.876,-5.7131338684582715,4.1409896330621905,16.223993021866136,-4.4288603299927445,15.872311229890897,10.386012335729447,17.51177866384137,18.98012600920447
2.88,-7.826450916584918,2.2932049145481415,13.557097992615581,-6.297684805598351,12.061342372826289,7.628929760795927,12.406344376334118,12.325564179626326
2.884,-9.121601952114588,0.27515590695884384,9.571123952426888,-6.893807291239909,7.568781855707698,5.237834519995886,6.292981030203009,6.2251662219182435
2.888,-8.722123577410002,-0.9723135638205349,5.679944992035189,-5.809001058710123,3.5629722744108676,3.8481502971314967,0.46446936197639843,2.0334255828147434
2.892,-6.3652237786359365,-0.9220460629748004,2.845639159850407,-3.2256209629820205,0.7080374638853755,3.61454602109643,-3.8804825014108246,0.6341573077002067
2.896,-2.601593247933579,0.32668839148436746,1.2529395486538988,0.11978338087169504,-0.9948262418248532,4.169917616864268,-6.132254085045815,2.029048811440134
2.9,1.4186721190696971,2.1653164574098582,0.4528225620641706,3.2333096779243533,-1.9975436935754942,4.8703927923611445,-6.441054815707048,5.3115716739455365
2.904,4.445173942854581,3.804701654986843,-0.19066329134295756,5.267467178486527,-2.8249791763245184,5.16756263777188,-5.514996695237755,9.056788942567891
2.908,5.644710308017011,4.622691517468638,-1.0735736718456224,5.828432266097252,-3.7764700998052376,4.882565023255438,-4.2064427925986365,11.936958624769886
2.912,4.870998101010969,4.348876601203187,-2.210621853888256,5.04453245242712,-4.885624093437741,4.236994772602657,-3.1354533303557446,13.254134498400617
2.916,2.5700088610541343,3.034226490730589,-3.4157475085432907,3.3945591710785266,-6.112737364821555,3.6391089545873,-2.531796407487036,13.136666129295463
2.92,-0.5735661296071157,0.8894089033660748,-4.6258926728705205,1.4121766651433063,-7.575231032075749,3.3751329871570306,-2.32814367025685,12.328688859460954
2.924,-4.0154033995424925,-1.874399404591486,-6.092113943737388,-0.5631647378844491,-9.608632999549968,3.4045150666265727,-2.37399329809773,11.719934490362448
2.928,-7.537941149292237,-5.0839376136540295,-8.268098368516405,-2.4719258108527242,-12.558052246671878,3.376777376002792,-2.6021301067321474,11.880555052936643
2.932,-11.168831004792764,-8.523172204651928,-11.449457322482544,-4.44708585053877,-16.414400941697863,2.8507973967523412,-3.049032553219604,12.838642931509867
2.936,-14.930611860591057,-11.832370287263188,-15.397019487205966,-6.637041874733541,-20.544828188475776,1.5789121038219491,-3.73830512363611,14.180918567889421
2.94,-18.601537954344394,-14.490496356898404,-19.21337641232276,-9.051898641117305,-23.731340900779344,-0.31626195367311993,-4.536487685439511,15.374073685997246
2.944,-21.655381020546884,-15.946241707988861,-21.599519853889035,-11.511488566776393,-24.58544207128051,-2.3705857508471126,-5.107848212900308,16.088096550016644
2.948,-23.412183893647466,-15.833216578943677,-21.392818037443647,-13.694995257746768,-22.158765776445534,-3.9957327349184197,-5.031098437604328,16.325541006521917
2.952,-23.302562860449825,-14.146403526837446,-18.114680364024764,-15.230324226872142,-16.448852632789226,-4.750084364316081,-4.035634664346958,16.305898866485222
2.956,-21.10164906513114,-11.274305180073782,-12.240928288534064,-15.770782194429103,-8.528319932088152,-4.522763004398712,-2.212624768221076,16.19574168171812
2.96,-17.013942320966407,-7.848103058713946,-5.050231379802312,-15.0401624802995,-0.19688870666396951,-3.545047151786548,-0.06674038928781556,15.885276575807893
2.964,-11.59593551955652,-4.502321312945583,1.8662253063372418,-12.863859220100665,6.678385974610364,-2.238650181546518,1.6438370952839705,14.982099506022223
2.968,-5.578888988636777,-1.667222221378779,7.188103855252962,-9.222162623968586,10.834886229738743,-1.0047134133060354,2.23124090474721,13.034015422557559
2.972,0.31543162668810965,0.515398154116042,10.276135180231506,-4.320086119842983,11.995717905575816,-0.07036222427677785,1.4047454168068043,9.85832310074261
2.976,5.508859812117748,2.1315709962671576,11.252855892106936,1.3732149259205926,10.816463938690674,0.5427461744911852,-0.5643236969615373,5.760542341314931
2.98,9.625180928684813,3.345322203053172,10.770059257764615,7.153800445806496,8.465772142205424,0.9329563190905219,-2.9483242958901883,1.4858468830534548
2.984,12.49113833306933,4.253893452987143,9.622811862549156,12.217049911654897,6.064614220362785,1.1951813050184228,-4.893466635802611,-2.08782332679084
2.988,14.104616661159753,4.821776846378896,8.405001099270407,15.852380414230026,4.253008357852821,1.3418770921559826,-5.832391645377584,-4.368262110682053
2.992,14.573387203603488,4.9013086528291865,7.341949975416981,17.61617738989065,3.0449253185043403,1.3125559291872833,-5.771446778376458,-5.33654665257086
2.996,14.03669298519992,4.3053158546291,6.322106923436422,17.408724307853163,1.9775910735392586,1.0466968297607764,-5.292586471362256,-5.525892981170728
3.0,12.584165406549118,2.8832222186551917,5.044231469597207,15.41670290976515,0.42223735921402294,0.5614664452405123,-5.268993786683495,-5.698158787275361
3.004,10.210483101344607,0.5641342753386311,3.176449485706371,11.968651125607096,-2.1223394663759905,-0.028492260276152592,-6.424011047988188,-6.39313916714832
3.008,6.851515504716019,-2.6228675503996897,0.4641790256745253,7.395321758053512,-5.864044226513727,-0.570939005149171,-8.954761222752609,-7.606208985426292
3.012,2.487213730991016,-6.539688416466845,-3.2214667203844556,1.9620713046748506,-10.709169906424052,-0.977981192932134,-12.408268097615121,-8.782390603895237
