Timestamp,O1,Oz,O2,PO3,PO4,TP7,TP8,Fz
0.0,1.5347723092418164e-12,-7.958078640513122e-13,-5.684341886080801e-13,7.673861546209082e-13,4.206412995699793e-12,1.1368683772161603e-13,3.240074875066057e-12,4.774847184307873e-12
0.004,-14.777703001660086,-42.418563999195584,4.0610454979143356,3.783928062889629,-27.80331226323898,2.719731195196232,5.442232808170445,9.747247341775505
0.008,-26.07547525072198,-73.48088049756055,6.790362892107737,5.990745113660751,-48.769037566341126,4.2226494528437115,8.943421994229652,16.135010573426598
0.012,-31.807261402623055,-86.82096873812202,7.631331035164294,5.8357331101358625,-58.85287964783373,3.936804269403865,9.598183151319006,17.478280520036833
0.016,-32.016298609848036,-83.51542795831995,7.086927833020354,3.6720650366063126,-58.269285468805435,2.190005006749061,7.94478276100574,14.52355759022737
0.02,-28.635973853015344,-70.84823315986526,6.3456840326782356,0.7308947365093559,-50.98189440745017,-0.03088760849902883,5.523535780297436,9.912385442270761
0.024,-24.426122255929386,-58.16371430878138,6.497637395655772,-1.572665747264466,-42.53556960904547,-1.6611067917792752,3.897427792728706,6.682829243948618
0.028,-21.669016089502406,-52.1827038233196,7.83327549043625,-2.358743659921714,-37.435521492178225,-2.141918546375223,3.7391380133604457,6.678702678133163
0.032,-21.271023422892256,-54.25993711590206,9.692890759390252,-1.6132241862850378,-37.37310004457291,-1.637172606220588,4.583844228186081,9.758542720389642
0.036000000000000004,-22.655190525474325,-60.808147451819565,10.953631700016473,0.008977159640409127,-41.055197704220745,-0.8101353553123545,5.353822418832124,14.163108906684442
0.04,-24.398048303549785,-66.27627413278123,10.820323545683863,1.7094478817575975,-45.49791480706119,-0.3379059041444634,5.2603442434104295,17.713583418139933
0.044,-25.14107056316351,-66.63851281835773,9.416571618091638,3.0391451181587,-47.83298612748439,-0.5030841496904941,4.45224813977859,19.06538659496755
0.048,-24.28274049789593,-61.42083966783244,7.780570213210154,4.061155385358717,-46.65611426173032,-1.100542615055815,3.9774805907151176,18.30307111599234
0.052000000000000005,-22.148032200827686,-53.3890378259689,7.267795839541947,5.1273344770822575,-42.35905484052893,-1.6741722488771984,5.085918404939207,16.632190821401423
0.056,-19.662797813791826,-46.46290701366419,8.735044745826826,6.486929664066309,-36.522094535286044,-1.8724834190934416,8.343504965675663,15.481493422821927
0.06,-17.811114564346667,-43.349800251836484,12.006523518712413,8.02403778037882,-30.929914131580603,-1.6645458959081907,13.153483310440322,15.620730049710232
0.064,-17.16980215896581,-44.23893385212952,15.958905850134983,9.318579236198588,-26.759015872224126,-1.2855636657787386,18.00119694860041,16.816225065906792
0.068,-17.747628023831794,-47.16461094301087,19.15360086596226,9.965961905598334,-24.319685821280842,-0.9830564728446234,21.26739423324028,18.145587875632486
0.07200000000000001,-19.14332290795039,-49.57634446927079,20.612749043032892,9.908422540597655,-23.32743930335897,-0.783498620376804,22.091415083475056,18.669461528907277
0.076,-20.84537139672358,-49.988217454599436,20.290262445961417,9.54274560880998,-23.363859920565204,-0.45686975267955177,20.77346735338068,18.015349885862292
0.08,-22.478520490885444,-48.71847747988184,18.968501995948486,9.502444526625453,-24.199355944054332,0.30227574070033825,18.478481592420394,16.524904337817134
0.084,-23.839326683203126,-47.32589811710852,17.71143073353869,10.262552594962642,-25.748325221715305,1.6089487035371803,16.481022716462007,14.947209604867567
0.088,-24.771146995026356,-47.30485231597686,17.23908807932088,11.83934481701013,-27.814047697332825,3.253989490173524,15.462085951042297,13.961487776030253
0.092,-25.032241005266542,-48.99128788609531,17.605079781558487,13.794199318257768,-29.913008763693824,4.832739550422502,15.291792623608728,13.87270735725258
0.096,-24.297969721073343,-51.368205671443945,18.331646619707158,15.540619658228849,-31.370844913589224,6.05662000742268,15.375433118355772,14.638384367050492
0.1,-22.34324421519807,-52.8188849632256,18.825460483641905,16.726632819477203,-31.684207481524197,7.014076452273343,15.254151388370076,16.10843093145968
0.10400000000000001,-19.276092355326256,-52.20094318581897,18.746410018253144,17.408106140762357,-30.871760366609834,8.143406054290324,14.981147453134724,18.195675540062894
0.108,-15.675606055825938,-49.566586591652,18.078243656109194,17.88905447100413,-29.593524638648347,9.902032724379012,15.013081273304238,20.820836973076098
0.112,-12.543900141363736,-46.18421758660796,16.87528069802572,18.323788322336327,-28.978044044968385,12.326289091340755,15.672947486995923,23.66595998816291
0.116,-11.044310480032465,-43.92013364742601,14.9445846797544,18.377513393220823,-30.209277105064075,14.786099059430626,16.61062764603716,25.98332641752347
0.12,-12.101297364513101,-44.37574963951647,11.76910966464186,17.232367865757936,-34.05209417731048,16.170035951328487,16.71334798743331,26.715670068161614
0.124,-16.00790493078196,-48.174238235084886,6.799546989260492,13.984356853319952,-40.46326531690919,15.416927253874348,14.597094689697542,24.923997743561642
0.128,-22.211884580944115,-54.70406203177522,-0.017135929538312666,8.246961488024112,-48.44892140520865,12.147174164070407,9.46929065142686,20.35495566764888
0.132,-29.398462961922036,-62.37940707334252,-7.821050114019727,0.6070333041013214,-56.253985427138275,7.024530445304606,1.8481608708877104,13.812809496433772
0.136,-35.860813988411394,-69.2274784589898,-14.854263414399611,-7.3601137022583885,-61.8320052131445,1.6202089258505339,-6.318379652099225,7.077115609350358
0.14,-40.02226770929087,-73.52708186549899,-19.01045878846145,-13.583631933736143,-63.46691900361748,-2.182979146125149,-12.2966080767834,2.331751506831324
0.14400000000000002,-40.89542423992509,-74.21164289910024,-18.687217613401543,-16.282364224269713,-60.28522242025858,-2.9711830193371043,-13.689886078304198,1.3316005010010485
0.148,-38.32304700919457,-71.01122247849923,-13.508901644888113,-14.646664352295517,-52.50724876957065,-0.35431918747747204,-9.466380675521236,4.721356246455343
0.152,-32.926487492340414,-64.418682407115,-4.541971027711327,-9.086623892146804,-41.381118683854766,4.973018593257052,-0.3904545193125273,11.836152441436866
0.156,-25.80525020989586,-55.5395406892402,6.123094593689871,-0.9436621937836662,-28.8160849557639,11.651691549143834,11.334991849708786,21.048425435595277
0.16,-18.14477508944691,-45.86316478935288,16.188440771475285,8.139722934750637,-16.85121964201852,18.312497666084937,22.98735171925216,30.45593712626976
0.164,-10.868048673595013,-36.894598318136076,23.955695190675613,16.837754571894493,-7.084862158874898,24.090246457552325,32.33313019377795,38.54955096038793
0.168,-4.478538646622212,-29.764440495075178,28.7558566040058,24.455542050326386,-0.30041488931459526,28.768991072039967,38.27951790861937,44.577866213903576
0.17200000000000001,0.8610685679223025,-24.99440961893424,30.86719544611657,30.84865964245651,3.554063803789518,32.56228078019285,40.943084273643706,48.5334570184051
0.176,5.114320604256193,-22.508351361854295,31.079360833488494,36.09626195733199,5.070144698057675,35.72958342501488,41.24778836807445,50.88755909463066
0.18,8.157011901025726,-21.872185464801817,30.180996844999754,40.15948851512337,4.926334671880909,38.27326095642343,40.32874019724875,52.24100845322698
0.184,9.742311657214486,-22.534357037367727,28.663401865568403,42.74374593744437,3.5905816535538975,39.88916473934762,39.053125420620745,53.06117297581363
0.188,9.6395178071607,-23.99178511827506,26.717238754897494,43.419370862241124,1.2704137415640275,40.14865498761776,37.81664906694823,53.57502573476552
0.192,7.8525696472393065,-25.855276119891585,24.43614855075731,41.91174017099888,-1.9285566140332548,38.7948634852753,36.62348554715322,53.812215641070225
0.196,4.764166475083471,-27.858331565661956,22.020637430333466,38.36210805104025,-5.7957738272986035,35.96398277391734,35.29905603885015,53.70675126503954
0.2,1.108568633927348,-29.833952342735415,19.841891846910187,33.41826543264938,-9.896128838482525,32.21978262754203,33.7206168925635,53.21535204577208
0.20400000000000001,-2.2264327777028257,-31.62926319967545,18.32265390861454,28.085009192442442,-13.565453475278446,28.38743856129679,31.94261308376906,52.37842265027484
0.20800000000000002,-4.503223773413197,-33.04443409815747,17.728872067615214,23.404897504213636,-16.052488251781938,25.284390244484143,30.20301327257596,51.32821569820567
0.212,-5.388037849081229,-33.845028490898926,18.039405774496913,20.140065736377267,-16.744218101352658,23.488956024024674,28.856085602768303,50.27642883509725
0.216,-5.045605615111413,-33.853034238102055,18.958183532887233,18.580954728606457,-15.378619740465524,23.22069671610791,28.252024222276418,49.47724648106623
0.22,-4.012470236062086,-33.04086105146922,20.07382467478294,18.544667791489985,-12.148384367362382,24.347683710430374,28.61995532813944,49.15802062163539
0.224,-2.883692126398387,-31.518947811694318,21.051021003007918,19.533451919973288,-7.616651422199254,26.472131435227425,29.960650663043907,49.40744583862238
0.228,-1.9999554641425448,-29.48548498799215,21.73665263677043,20.962015130172517,-2.5449013535563836,29.040805283440477,31.989441663269076,50.075313777704196
0.232,-1.3012425389674718,-27.184345206715932,22.149036096112468,22.355550954497744,2.281450975286475,31.459309665313185,34.179136283028356,50.74921297286278
0.23600000000000002,-0.41020042319337335,-24.834339547121544,22.38049218241997,23.449252961376033,6.225924689957992,33.203739007615695,35.91304069519822,50.849456520136755
0.24,1.073446193075938,-22.60211516657489,22.480291018351238,24.16532283211211,8.88394001397262,33.91845318837204,36.68860274449264,49.81042016226638
0.244,3.238890393826864,-20.63647886718718,22.40342451385402,24.523280206288916,10.074450773714034,33.49520934671068,36.30120244660509,47.3069693403188
0.248,5.694273044319857,-19.105948395916243,22.043267209067437,24.5524260332308,9.794404103182785,32.093977140882316,34.90545482962523,43.429336198184274
0.252,7.702363663758206,-18.158363213624853,21.319329342410242,24.270413354173286,8.198701573050812,30.086519607816854,32.92641910613406,38.725525024312674
0.256,8.585039434263535,-17.82248909048417,20.260628563609203,23.741564486842776,5.617103669664402,27.945573798519945,30.86842726111945,34.0961169913478
0.26,8.140111232669142,-17.99108119189225,19.016513023270363,23.15158361483526,2.516071845934107,26.11320165623397,29.113008158391267,30.556502506892457
0.264,6.8244181472042555,-18.500163094698905,17.793297685023276,22.82558618302778,-0.5968137970367025,24.885517112984644,27.81817758468526,28.9460481145793
0.268,5.573444741532626,-19.231465097947307,16.74328707596328,23.13118437213842,-3.2922336773783627,24.349842075046126,26.927988048791462,29.655015615053117
0.272,5.313263825661693,-20.165469841145637,15.860258168151404,24.267512707034484,-5.316509074827536,24.36849224560524,26.259018817781453,32.44216723262275
0.276,6.424625458040623,-21.36238550024541,14.955066735894547,26.057278057189137,-6.637186429683084,24.616232032107973,25.61486045005074,36.42801315981842
0.28,8.453683207497875,-22.929836491088395,13.737804917174003,27.896115115044097,-7.457029110496592,24.679850964588923,24.851797058524426,40.33109713931003
0.28400000000000003,10.277127421810633,-24.962157201753598,12.000962777888503,28.947664733315833,-8.144122459676964,24.20203689169398,23.907727220548736,42.89864384818998
0.28800000000000003,10.662177821962018,-27.45478863274502,9.787254870326365,28.510010478407935,-9.08009821920416,23.01221258024725,22.78625188154558,43.35312419460456
0.292,8.958429055800707,-30.186545408594384,7.45335116476906,26.382014366300496,-10.442017600590475,21.20031659266283,21.539970841050263,41.66263667527005
0.296,5.520047891475883,-32.663342380604604,5.576086860878263,23.017261253842662,-12.034889304238618,19.084196416221857,20.263787054851264,38.48644201062871
0.3,1.5613558803794376,-34.26906075134366,4.696895327349296,19.337414503948253,-13.351076959337206,17.07158719825702,19.073048644321943,34.79535153537472
0.304,-1.4739566868489646,-34.557749722947165,5.04681848348622,16.29714981462007,-13.83309603712155,15.476019142300629,18.058775030189054,31.37010080466348
0.308,-2.684680266010673,-33.521399070312555,6.381107601983331,14.416579635080552,-13.214359798223995,14.361553641236696,17.216532185340952,28.432555231653623
0.312,-2.1636297402174023,-31.631458826056814,8.03551755470744,13.551063052655763,-11.713566834559174,13.511176542773,16.399110127462336,25.62645245066119
0.316,-0.8482291961577175,-29.596715148139083,9.229856387214454,13.061557110502463,-9.940571559498494,12.564130546504202,15.346889273433135,22.376765547493505
0.32,0.10387029082312438,-28.022432285495483,9.459771560603713,12.28164063703207,-8.599702953655424,11.262398662834357,13.801724722644167,18.442012415627914
0.324,0.049343726246888764,-27.14419725006553,8.781638308355468,11.00883597023676,-8.134019950001402,9.663475158225083,11.678662202447981,14.308558034534599
0.328,-0.7539946045585566,-26.77564448459748,7.8005693978583395,9.690540180822268,-8.514581576214368,8.166557457754607,9.170874433500444,11.108205061993885
0.332,-1.3447874193113876,-26.47240496252175,7.335930184974927,9.152446462867943,-9.297089615270124,7.299879067359825,6.703189478650074,10.027852434360966
0.336,-0.7129703444877578,-25.826514800412838,7.931083669274017,10.019493312098803,-9.927683315386844,7.376487776582053,4.7408294445958745,11.52101837863438
0.34,1.467372535222239,-24.773926103033432,9.476147424170904,12.184262327017336,-10.158315005820896,8.234664707796128,3.546896717513846,14.81774196896913
0.34400000000000003,4.491483864245083,-23.722451902205762,11.174161498487365,14.671287792358385,-10.300464078667574,9.247552595431443,3.0235373340326532,18.09709417928798
0.34800000000000003,6.90391534018022,-23.377495540157042,11.900572761856722,16.026311315350426,-11.110055265611777,9.643082005971792,2.7498281492812566,19.328602358232274
0.352,7.266001834478402,-24.318684066379433,10.780773163597019,15.038423549663662,-13.314526181489327,8.953952395539318,2.2026749550656177,17.35781432052022
0.356,4.967616819134719,-26.57943739548398,7.682713076370874,11.402158479169088,-17.04117963031888,7.337919433979323,1.041070797862858,12.63756386542127
0.36,0.5977613728500728,-29.534687845468397,3.3531237293060485,5.9488748274134196,-21.53612070155475,5.551820632630779,-0.6976820309935192,7.157203929567004
0.364,-4.344572483523507,-32.18470364197492,-0.8925337558619049,0.2974526612201771,-25.389935293501594,4.558035026061134,-2.615140806821273,3.517061836695575
0.368,-8.208700390178365,-33.6530942015205,-3.7668369811427738,-3.8819160520990863,-27.173497324088544,4.968457956359998,-4.176167462095918,3.5969038365788037
0.372,-9.979074799073942,-33.588344014182326,-4.58851149724012,-5.598383256270381,-26.138087469240077,6.655401226553522,-5.011295619291786,7.525155348051612
0.376,-9.660029612733297,-32.248968139717476,-3.5435565956663595,-4.881062780452567,-22.590553192907123,8.773302654088184,-5.121586076913218,13.530389763441235
0.38,-8.100432228278123,-30.290211623821506,-1.5085901400844932,-2.577355272268619,-17.76618607440298,10.223066830910284,-4.857039218513364,18.796484314463214
0.384,-6.413797276727564,-28.395172836797542,0.4407538260155661,0.2179966680398593,-13.254015988088213,10.306767352073848,-4.681999606556019,20.877669013812465
0.388,-5.368419669659943,-26.95891199433879,1.554194617694975,2.733635791598658,-10.270852639147506,9.181787873212443,-4.881406002748008,18.912670167570468
0.392,-5.087856053999303,-25.975514213953943,1.678156545348429,4.762728650204963,-9.158828262367592,7.818555866337647,-5.400337308144572,13.97089484442131
0.396,-5.165545164940795,-25.14479608076033,1.1918772759315743,6.508144429542199,-9.338437705333035,7.472374383559327,-5.887095452345875,8.389042930662072
0.4,-5.08251821262229,-24.16151466180247,0.6758596519808862,8.19042109914733,-9.75760033541144,8.968537636266092,-5.922410679572295,4.509816986864735
0.404,-4.624080507198414,-22.991520573255798,0.5328975980078212,9.713828418009712,-9.563274341985448,12.217425611349654,-5.300667565228196,3.506744816852006
0.40800000000000003,-4.028012267421218,-21.937886072425272,0.7812860803910553,10.6276408168751,-8.594712744094409,16.23584912608044,-4.186875483911763,4.946349152616676
0.41200000000000003,-3.7844840434813705,-21.431887998600814,1.1092842934065175,10.399515998862398,-7.425045942003635,19.65561116426261,-3.062726855195706,7.243508802083397
0.41600000000000004,-4.262088143626215,-21.70696506913066,1.1083475213065412,8.806202844377026,-6.965353207171006,21.421261425777175,-2.489752923007245,8.690657449286391
0.42,-5.446165969512549,-22.62333939706491,0.5197269196185061,6.15816736772922,-7.932699565092662,21.27532590068313,-2.816880414401794,8.424361249576123
0.424,-6.947489845340215,-23.74452316267366,-0.6389632479430247,3.2136185860483693,-10.469572640869274,19.788180417159765,-3.9723154981390962,6.822010341527857
0.428,-8.257169362724198,-24.593058935751742,-2.126814268798057,0.8183783016538655,-14.102563451004698,17.936716487335616,-5.46496124209375,5.120616614125538
0.432,-9.052525991890889,-24.876060905299482,-3.6374836787824734,-0.5118862198432907,-17.97702115504103,16.50590664630272,-6.590717289458553,4.559832424579781
0.436,-9.354187921365792,-24.544268922218635,-4.944983680969472,-0.8209555704222566,-21.198509857060458,15.685668713698306,-6.73548800055687,5.606769036412516
0.44,-9.462116700774004,-23.712244869350798,-5.956909644362668,-0.6259016723754485,-23.130045907050658,15.0867199120039,-5.620183526977598,7.710907761545968
0.444,-9.71586232228492,-22.512287789980064,-6.654916405262497,-0.5694100132178619,-23.513370573255997,14.122134848032601,-3.386454098136028,9.709586246258823
0.448,-10.22990736473389,-20.97563681341751,-6.9896407377488,-1.0177761358538646,-22.406583769146437,12.489055067634581,-0.4988076416948388,10.605683831634451
0.452,-10.765071951821028,-18.994957016966964,-6.8185360989961055,-1.831405918497353,-20.0221413727578,10.433881437386844,2.4820999076473527,10.221821955609812
0.456,-10.816810541673703,-16.392873840851166,-5.941958546667479,-2.4282312284971113,-16.595804569399206,8.641509951286025,5.130977146420719,9.329917383319298
0.46,-9.889582717640451,-13.088603901870897,-4.225268997810076,-2.0983283672179596,-12.399616813719831,7.837395562625716,7.2879311467750085,9.191416613977708
0.464,-7.778632565517455,-9.232561360700856,-1.7140071764316644,-0.36625286560888526,-7.814688127507452,8.367517386217514,9.045142103811486,10.831406625343789
0.468,-4.71620833337829,-5.224570305627708,1.3090514985062782,2.766629557856618,-3.379267482875889,10.003747556538201,10.592590238459252,14.428437165689957
0.47200000000000003,-1.2917279516407234,-1.5659699838870438,4.362827597866271,6.813310372472301,0.297309774673181,12.080506643009358,12.013956790556449,19.193829623472084
0.47600000000000003,1.8165071228318084,1.370968606803558,6.908879525421867,11.011949857383684,2.74207710426208,13.858806390647715,13.165082975481937,23.77725285626184
0.48,4.13773850820894,3.4810168726427264,8.528786003135565,14.643409012837765,3.8041073638704574,14.897241147284603,13.725906807264892,26.982059250850853
0.484,5.5931238379605475,4.910993506892055,9.08097538906702,17.304069094153988,3.709453159618306,15.21799087139425,13.415610744071728,28.39060360188614
0.488,6.485916838866615,5.926031553368375,8.76560345040923,19.009380645199826,2.941782826773988,15.19429926640396,12.25145480440483,28.546375814039493
0.492,7.321032911132306,6.781692134009177,8.07803316608613,20.09986279857776,2.034305297157175,15.259112154079503,10.690530774621266,28.62678506024531
0.496,8.536957694549528,7.656573902696437,7.649573524541665,20.992295572577632,1.3723378858670685,15.623067982321118,9.520336996438118,29.776689786796396
0.5,10.237862075418889,8.591289234446549,7.991345126664896,21.884088122435855,1.0462464281586108,16.16303686638321,9.507485969736763,32.46821322218466
0.504,12.06509783000547,9.441083907925758,9.25114224656295,22.55769222626509,0.8350993895176089,16.521783438654438,10.961226168976282,36.2220179167839
0.508,13.277954954635334,9.864405806731611,11.080713675997913,22.385475933277803,0.32245244911609916,16.335438742366023,13.452279360904868,39.83577301027162
0.512,13.03609858017603,9.394297410871218,12.686728749007216,20.551313849617372,-0.9025770189979312,15.428352553366267,15.882296921497527,41.980505726580304
0.516,10.803281258616835,7.6283747268842035,13.11333914809336,16.440531779392586,-3.017730184802076,13.882871768596942,16.957564573418267,41.884843238965004
0.52,6.680120986786733,4.452000284546671,11.665998931840022,10.052305915616444,-5.840096070907407,11.981405632759333,15.857438874277022,39.78014248760064
0.524,1.4978638487659737,0.20358467738333275,8.295122869666102,2.229763906989888,-8.850422226989167,10.0769812168719,12.738943065975946,36.85873095809029
0.528,-3.385892986719682,-4.294514738359339,3.753486543107897,-5.4363638812629915,-11.344303989872401,8.47565125564256,8.769060713948647,34.76355569296993
0.532,-6.529619575276229,-7.890188166861435,-0.5922771141274552,-11.049006722411605,-12.647136163316759,7.396434176397179,5.616165241079443,34.835006124005304
0.536,-6.941529800129956,-9.46000433457914,-3.279912744584635,-13.075517530658999,-12.350262581725474,6.977660493918165,4.608750015351234,37.44367709406879
0.54,-4.471814126795152,-8.369912743923692,-3.369062718906889,-10.9457701088877,-10.489295438928025,7.306166882377738,6.004559380060073,41.77469806020463
0.544,0.12088422534043275,-4.821635338286228,-0.8575501357749999,-5.300488654267724,-7.575064035221317,8.426494505268465,8.805301188652493,46.190952079799445
0.548,5.480368632657019,0.13543428452624084,3.32390482169842,2.246402740736471,-4.429752209162984,10.314586688616146,11.269471472781788,49.0273627452716
0.552,10.228925780379313,5.014324734911952,7.751648023269809,9.752219902372758,-1.8462450712906957,12.835558712748707,11.86940574627306,49.44433971744729
0.556,13.545733187651422,8.553452281890145,11.179881273486444,15.710521995691579,-0.20661367012905885,15.724679594853797,10.16454537215941,47.90325128426821
0.56,15.454630136336618,10.267568171750213,13.091882257745851,19.5735168056284,0.712694345142836,18.62068789151226,7.091852512691503,46.00884352752246
0.5640000000000001,16.68163465072712,10.596218105382718,13.841550838412445,21.78758563591566,1.6248517230015977,21.1464964105362,4.485776706075285,45.77212500105725
0.5680000000000001,18.149793585517045,10.5608323633503,14.321737726803008,23.339122155133623,3.338350518655375,22.998245615512133,4.041209957473484,48.652100070632514
0.5720000000000001,20.366926104917866,11.114405215428746,15.337673193956334,25.04403030344099,6.259454611950559,24.00466964191787,6.300113653432845,54.817714541102305
0.5760000000000001,23.04675788911436,12.555958886936196,17.06173000895751,26.983351508544615,10.072955891711445,24.14027911434914,10.261318247470172,63.025948338278795
0.58,25.162090039806344,14.30617721083695,18.894833997238152,28.39864773467059,13.770786603847796,23.513893214417976,13.860425517258136,71.20359705783426
0.584,25.430244969957357,15.181005806690905,19.82329338185218,28.108423496004775,16.053378997831715,22.34840570442111,15.06594333446617,77.42615792177912
0.588,23.001599289856358,14.040778151221048,19.07677850229129,25.224950185038665,15.93431612416282,20.949297552294865,13.006158566053955,80.76947023161506
0.592,17.991909851735272,10.483302573469132,16.7072048590627,19.781155460825403,13.283582125434123,19.658312692864,8.502129950130438,81.63472263919016
0.596,11.583728567765775,5.2021570801400685,13.732143278302601,12.917033961509105,9.011802344853777,18.793898738398184,3.699067472365982,81.38631217884813
0.6,5.597126646012271,-0.24564355679433447,11.713629647661435,6.491934946033211,4.727109711429421,18.57946225358205,0.9665654347882082,81.54066835674803
0.604,1.733864270411459,-4.1396798309122005,11.996678441395431,2.3230596977386995,2.040760393583355,19.07628732080684,1.6890678039296745,82.9693368818489
0.608,0.8699912138960144,-5.3916045210595485,14.997118277232403,1.4318411585691138,1.8564285263042848,20.152558155340557,5.594809413584699,85.5498358554953
0.612,2.735899826616219,-4.007894482182792,19.910221502920137,3.652490205494132,3.9833068030224013,21.491121973025656,10.939587968278033,88.34642119767022
0.616,6.142858429434682,-0.9787620691087113,25.01504198388716,7.794157643591575,7.288749251707145,22.66607063926108,15.440054429315182,90.18587001676065
0.62,9.60567883155818,2.2753117154404663,28.41101473786449,12.239544779605694,10.258194608876465,23.26940867719145,17.399569881041543,90.25432909047368
0.624,12.045762316003447,4.604057621533684,28.834300635705915,15.680246631775105,11.693984964758783,23.063228144739924,16.467638196862936,88.41355231005696
0.628,13.20348038019199,5.593969240063416,26.138985949480286,17.601288211227427,11.193985899899417,22.09348419359503,13.649583258312305,85.09953805588043
0.632,13.589031215259865,5.61515261387251,21.25546386835049,18.31236094402732,9.220937039375485,20.71163712857856,10.644365290204632,80.98567379392603
0.636,14.06180134402814,5.497053096092827,15.711084207239423,18.57821230075899,6.786807335136359,19.466935323738426,8.9148453983629,76.66808450859367
0.64,15.28608446250746,6.016188573346653,10.99139884614982,19.095899017826753,4.928796989110538,18.91395631963428,8.9959516455732,72.58781474782222
0.644,17.380131910578484,7.496490283387516,8.069670366549587,20.12833268393507,4.26973796804856,19.394418368185143,10.382718335189338,69.18378790092538
0.648,19.915887640546657,9.70469506976832,7.26331127581966,21.455058515501037,4.851926466226644,20.88951748822683,11.962025606978386,67.03955140710127
0.652,22.21863912411152,12.051099630033377,8.373067871118337,22.601450562736545,6.2731551099717535,23.015929034650753,12.680119634997823,66.80877541601353
0.656,23.76817124725619,13.947216913908449,10.936496259088699,23.17595673650345,7.999016451795001,25.186585419254698,12.073887578026074,68.89630578989477
0.66,24.435008594071974,15.06582649199055,14.399252777104778,23.08460431684631,9.608451446932804,26.87023416306397,10.427349248405676,73.05515388419576
0.664,24.427301357510828,15.38109768244982,18.140739615045106,22.492399414580177,10.852736863371376,27.814565886096716,8.524974612513802,78.19954290338114
0.668,24.0176325867086,15.011451573888223,21.414976046827917,21.57673703237009,11.539207992269496,28.111060983170773,7.204559405216514,82.63217850959859
0.672,23.260769793675536,14.028912157621846,23.349437785219266,20.259944884123172,11.388616637468601,28.054114260616643,6.951348506443537,84.64343298983272
0.676,21.913197456879743,12.397061101467557,23.118398267446764,18.126098370061413,10.037167049345669,27.87484779973579,7.726109916397036,83.22092194949505
0.68,19.606337738747584,10.054168366259773,20.272682457090355,14.61245812027812,7.218393255137812,27.52019671453627,9.07930237756591,78.48944782769513
0.684,16.18115989351122,7.097807388513729,15.079827170204453,9.412405321602705,3.056305989199984,26.641745116460697,10.467714351612358,71.65862854348029
0.6880000000000001,11.97538826431537,3.9437450641064515,8.662076435063568,2.8695319523281455,-1.717305645672809,24.837899490602126,11.608184118149893,64.49732898360912
0.6920000000000001,7.873054384446732,1.3526008517582113,2.7984440785165248,-3.88603469817798,-5.787515482505739,22.026289785118138,12.681583465079825,58.60623706908086
0.6960000000000001,5.0536150153963035,0.2727201860634523,-0.6020661424037144,-9.186645701519353,-7.599214535602641,18.69550194719318,14.281734226580511,54.81467609633887
0.7000000000000001,4.542434719569883,1.5080522149713715,-0.17282346175727525,-11.391685700359176,-5.9458345250750995,15.845540815993786,17.103447208020043,52.9751028574683
0.704,6.760658499110605,5.326179425067437,4.354235932908978,-9.555207986305447,-0.5686236650436172,14.57444279248341,21.47755120559998,52.15229254861356
0.708,11.279573249505347,11.17883220049697,11.939599632073737,-3.8951994568177497,7.520801803526581,15.482648404031693,26.938422856620946,51.03216800705195
0.712,16.894954173263613,17.697221082485328,20.47638919876374,4.157177733872572,16.191177828712853,18.223924334044113,32.04931334980313,48.320424242783474
0.716,21.992490800173982,23.02414823161439,27.415673035415523,12.371455934707342,22.8272875872197,21.492829015819552,34.66260901387227,43.017163598553
0.72,25.055769707660602,25.383129947832458,30.57240859460478,18.45970289223908,25.221500649994482,23.54028567791704,32.65326319444728,34.59705892814759
0.724,25.133544446958695,23.69168734800769,28.815586021656713,20.847246131846703,22.350539820381698,22.991797807971352,24.89008716316721,23.168022204008366
0.728,22.12874647392698,18.004722884063085,22.421694765908057,19.193902659239427,14.762602630582194,19.570306693302427,11.978122820408657,9.63363607727706
0.732,16.831473451576244,9.607576300318385,12.967093526766291,14.467111536973164,4.41796025380944,14.326253440224377,-3.597353199861459,-4.2416256329124735
0.736,10.697509563069048,0.6816822128400872,2.8006975656675763,8.547399635796296,-5.970536651866837,9.222670703221638,-18.098793751292646,-16.061680470605552
0.74,5.418647486255281,-6.391706592734408,-5.7065514695802335,3.5470399052749144,-13.84677857197039,6.272180791972119,-27.81341586967767,-23.387000450826918
0.744,2.4032405332526423,-9.83916822800353,-10.865282287682305,1.0966640807982344,-17.61783475455536,6.659768471396433,-30.433641409303107,-24.540672494601154
0.748,2.3317065743053718,-9.083868764651413,-12.074812741473295,1.8687249790023088,-17.054458101552655,10.300180515470402,-25.90996408867261,-19.276496118852265
0.752,4.933537501204,-4.8649194623326935,-9.832622927668353,5.474265477596873,-13.172252371185607,16.01774867635072,-16.362131181926145,-8.992133782197243
0.756,9.081373195858077,1.1615994324681083,-5.3883112167570175,10.710935738789317,-7.688144182020039,22.219545632665813,-5.068292771506606,3.682261725692456
0.76,13.190764251142014,7.1326166142776515,-0.20429859522892002,16.045213665498693,-2.318656127422969,27.68123623376505,4.982892720685811,15.796631862738082
0.764,15.801097137717704,11.679003872081296,4.545747541136478,20.140538103728318,1.790878119679121,32.02480440558395,12.264386981588643,25.09581727919499
0.768,16.12441236979498,14.319373955199126,8.266807354704042,22.254096062202848,4.316867831302147,35.66510399850836,17.05532888715146,30.675092133996827
0.772,14.334823153388527,15.422861181897588,10.95780449624553,22.387297445193724,5.663655786745721,39.31427954830747,20.843711735677857,32.980339743701165
0.776,11.478238009126528,15.843415274789947,13.018109743625246,21.178777430686523,6.649775405402579,43.37190831120597,25.173151817647067,33.22425753864093
0.78,9.035834044379897,16.434837892290147,14.983523366374897,19.623160955125684,8.135996196821509,47.573099314213664,30.64046595399435,32.592756568649634
0.784,8.3282165136456,17.701144122254107,17.318048399275483,18.731555850170764,10.754246705865398,51.08539261302508,36.57531224539326,31.684592013700808
0.788,10.019168764751555,19.716977741094922,20.312491028003848,19.244591814866254,14.786127191404432,52.977104861457974,41.537633386615596,30.43293059504026
0.792,13.914594962264403,22.28354254635275,24.063101723559726,21.466348901850438,20.170607224717628,52.7715738869457,44.27713182636961,28.46807056976752
0.796,19.12214718795974,25.171606955987897,28.474419344230455,25.24023608217749,26.577582285592598,50.766830031754694,44.54722749604673,25.62104270619443
0.8,24.47009940016858,28.263839354439654,33.26552283104155,30.06059019195638,33.47465391109296,47.95648168384071,43.29929137799877,22.241352355135746
0.804,28.989943430665903,31.53429199771176,37.99867039360785,35.274546619192165,40.198071399536275,45.60696531125643,42.164430510495436,19.155956667252894
0.808,32.240976289280525,34.917849861163006,42.15627703782698,40.288815387794614,46.047179649648854,44.72463896074521,42.534135605188624,17.314977020221477
0.812,34.3604912521252,38.20907260759549,45.27703249358402,44.703080907254275,50.41800401381579,45.66495390581099,44.796581884938234,17.335710925524836
0.8160000000000001,35.85842356178421,41.09235168321334,47.10413499184054,48.33189234218443,52.96271839319866,48.05384084404466,48.165194615644054,19.23096056310908
0.8200000000000001,37.27486269583409,43.27169077837891,47.66571087317169,51.13899995592175,53.69225060230255,51.01178254750505,51.16798632694071,22.458776408537233
0.8240000000000001,38.90802006186823,44.636778097512945,47.263083481176835,53.16385141836261,52.99247147370889,53.548934645268105,52.53886929596359,26.245851717068717
0.8280000000000001,40.70982162890175,45.319937506831906,46.33259531634616,54.46316925205818,51.491837757410906,54.940781875034986,51.92730663444206,29.94551303635069
0.8320000000000001,42.38999079726432,45.61691381958346,45.257758858568735,55.11348167437731,49.85201856852578,54.95104628461104,50.049066769989224,33.26419322788911
0.836,43.65593174529664,45.840214744845156,44.2485081790787,55.26082694433873,48.57750212943009,53.84630766898749,48.24201111243093,36.248847641396196
0.84,44.4443778953281,46.18092291294013,43.355776314909974,55.169574370966274,47.91306222311775,52.24133012428274,47.7066235300241,39.12693200202273
0.844,45.01847301123547,46.67480062222273,42.62323347437882,55.211152895096745,47.87772815629651,50.85557580733007,48.897730416013076,42.1060626703412
0.848,45.85034733156823,47.247043744869586,42.22924067645641,55.737680952356584,48.34480998054505,50.26688774061972,51.36113118192878,45.18902981303961
0.852,47.36216560715411,47.80761349264668,42.51338195793005,56.91133400158097,49.13536244409036,50.732814654172216,54.07616734089976,48.11812583824644
0.856,49.7004458550382,48.360103304960774,43.86453997072121,58.61424745297927,50.12653144770951,52.13945843046372,56.08728201776961,50.48097561827478
0.86,52.65919115937754,49.02677315706137,46.50442330460808,60.49728651822201,51.29929331852324,54.08210856503399,57.04018114776352,51.85764506096416
0.864,55.79228013588573,49.98162146654127,50.294616552724364,62.16189460784983,52.73198584606365,56.0527478084619,57.3226476180605,51.97325328242982
0.868,58.67247014646557,51.36571680288836,54.72262058225678,63.40956972407926,54.589144302854805,57.673669868246236,57.780591336104806,50.8635541635407
0.872,61.1677271383345,53.26724620016253,59.120869650008956,64.4274328955733,57.12561930395606,58.865006063036844,59.20658781095773,48.967799869896
0.876,63.54819965905028,55.752743166138316,62.983430158535015,65.76081740478358,60.64994156770669,59.85655262949069,61.88149008968901,47.05352504860707
0.88,66.3211163280892,58.870846026119665,66.18383897025404,68.0468414984773,65.38850934059579,61.03924108529526,65.40067574727368,45.975440229383366
0.884,69.86720379871946,62.585377311889346,68.95112437702755,71.62834746470557,71.27815774648653,62.72643640312634,68.86778248271423,46.31500905184589
0.888,74.09647619037997,66.66350014157683,71.62166047284126,76.26677036648977,77.79175768894129,64.96744486086726,71.33081702935641,48.07318045504053
0.892,78.34048423413975,70.6021156878632,74.31696739185764,81.1258488838223,83.93103428266335,67.50979522141694,72.21502006556022,50.592319553390894
0.896,81.58912604478292,73.69507137835183,76.75345938927236,85.06733903370906,88.47029766517781,69.92637948624792,71.54262532907603,52.799465185431586
0.9,82.99496257106892,75.27145350270746,78.35394232403536,87.15405101944646,90.41161180831864,71.8446309861954,69.87590931657189,53.73350804208667
0.904,82.37189004928678,75.01463628377743,78.61670319179879,87.09808656679735,89.46264802487329,73.12738041364707,68.03485173344984,53.10201927643243
0.908,80.38770617945875,73.17562787425322,77.50551632771482,85.40441643422963,86.25830038636161,73.89901996607546,66.73336692923829,51.52033724908097
0.912,78.29726551351195,70.52687411022026,75.59121075096934,83.10836408363534,82.15484598028775,74.39473797428354,66.29001107099839,50.23978811253426
0.916,77.33998488262836,68.0679731485302,73.8306527643245,81.25695583037486,78.67993989963429,74.75592269734375,66.54640958992013,50.53735815156665
0.92,78.10496710798566,66.58669687386362,73.06638038892356,80.39813395439973,76.85976919204779,74.91410386983739,67.00237212024115,53.05405317718987
0.924,80.2262987789918,66.3102774819481,73.54022482478462,80.359691968412,76.78433756336824,74.65806761034855,67.09240546730268,57.44335324385588
0.928,82.60741210402671,66.85558406612802,74.74350752285227,80.4601644954472,77.67285571738677,73.86186566178253,66.48490888968217,62.5855391614723
0.932,84.07059813687965,67.52803551703016,75.73835489137917,80.02686001058714,78.430944100656,72.71452286093995,65.2822296922692,67.26438403755787
0.936,84.06567120067893,67.80950759706184,75.78023689753832,78.90955587942341,78.40184989561266,71.77262577431281,64.02555839701688,70.88087284250628
0.9400000000000001,83.00672745983672,67.72267912446017,74.8621238586469,77.66833336664183,77.85124851693081,71.7749798743746,63.48682888301653,73.75013917667934
0.9440000000000001,82.04295472466708,67.85236482812928,73.84300181551669,77.3133650883093,77.8861338339168,73.27455729985923,64.3458089107844,76.76672734604244
0.9480000000000001,82.37551127544452,68.97735236946363,74.02556556316642,78.72637517431076,79.79462518582068,76.29329759790244,66.9120364645122,80.62451569233008
0.9520000000000001,84.51737776334608,71.5324166821888,76.3957700676969,82.10177028286313,84.1816203102868,80.21794151311587,70.99437821909612,85.1000068331723
0.9560000000000001,87.96496300574336,75.26250832798792,80.97836976222283,86.7665260382879,90.45298608842086,84.0283926147406,75.96431424069692,88.93138275216643
0.96,91.4996206540834,79.28879225912465,86.7047093958322,91.51733260333611,96.98647188803068,86.77367398435058,80.9966829267214,90.46622827649458
0.964,93.95072938479132,82.58072565165548,91.91332759154477,95.29643972295526,101.95032343666321,88.04408083794851,85.38190529479357,88.72665799740071
0.968,94.94041583505066,84.54513036559945,95.20396231318693,97.79981919371357,104.29901726400044,88.16893653349257,88.74957372422887,84.24259877541999
0.972,95.15406528216931,85.3924978295546,96.1699722535858,99.64163339388415,104.3707472795619,88.02875897101899,91.10123135860613,79.07412246937429
0.976,95.94151319163848,86.0411630039066,95.56551616041156,101.9392537578384,103.70014093046052,88.57484371580404,92.67094341234133,75.87700715235496
0.98,98.43196363482366,87.54780045686118,94.77241000499839,105.51421197308787,104.06076173861857,90.29462717071056,93.71182945613327,76.43135350163811
0.984,102.73844866461422,90.439475413546,94.92844702219418,110.23202200628248,106.35402162154537,92.94209818566515,94.32894606007085,80.5763733447402
0.988,107.75017304179164,94.34479990686668,96.24964641255076,114.91368471065493,110.00995348502215,95.69963077744933,94.48677410095138,86.21892618082438
0.992,111.66055692580517,98.14625807407106,97.93899122915559,117.90462715724266,113.2716229207208,97.66507765551614,94.18483481013459,90.4601124716396
0.996,112.95405025865784,100.60423000866331,98.74064892489821,118.00863715946628,114.25658162789227,98.39315088017588,93.6498005157573,91.29110106248572
1.0,111.26571445967647,101.07269662727856,97.79980049067069,115.23481546397966,112.16015254588592,98.17475441893748,93.39172536594106,88.85057345110818
1.004,107.5927049226284,99.87555012054258,95.28127369778326,110.88053481297356,107.85738529443393,97.88888760184045,94.04755126489454,85.43853643535385
1.008,103.70878363179122,98.09993165953813,92.33763598491726,106.85420896263088,103.49210882740272,98.51747680106268,96.077729789984,84.22134461732821
1.012,101.14636818914914,96.94795184176485,90.46366786690487,104.62527519517721,101.29582604759196,100.60340530464441,99.46686628857879,87.38914485689338
1.016,100.38470663899807,97.07144898379806,90.64827085120669,104.4278650666514,102.35233034343742,103.94927303246709,103.62555179307469,94.829011031768
1.02,100.73729868954206,98.28520051704913,92.83903507557693,105.22043113549978,106.03804631930632,107.73888025079214,107.63627398917697,104.13509742004226
1.024,101.02100247074713,99.85332144784616,96.07565896717506,105.48219455123353,110.52764686237674,111.02253099333666,110.75513331352886,112.06659866729115
1.028,100.5527300683516,101.12802296338498,99.17926579939581,104.355622909217,114.02570969819749,113.26515916363405,112.88161760421212,116.54137645498759
1.032,99.78618470509082,102.08206179834326,101.51112910886184,102.40563649872729,115.92347027084588,114.6230749797196,114.69135878011184,117.92931538495259
1.036,100.17082424027694,103.39924415993471,103.33516470540553,101.49633830246353,117.17725990189786,115.78550131966631,117.3013114710161,118.80335180610155
1.04,103.24847913091708,106.0032367477263,105.52478944004338,103.77423113898976,119.62422099890318,117.48568079918005,121.5874107805846,122.22682993278113
1.044,109.52912858351146,110.30407444919524,108.79596965472456,110.3131058698932,124.64532043884037,119.99167508919072,127.49780127604072,129.56990348874115
1.048,117.89050649855994,115.67773612613519,113.0266538514029,120.25068164443746,132.04865361285124,122.88532628406847,133.81392973159245,139.23908782061062
1.052,125.9501873877291,120.58400652483124,117.1566944257861,130.99311903590524,139.92560476795438,125.28387504771126,138.5979155266673,147.20260885815514
1.056,131.24854190626866,123.3165997528356,119.75009150535345,139.4144800743402,145.60370702766272,126.36745504715554,140.1199912350512,149.10599587733395
1.06,132.5534058633516,122.95336701024166,119.88242283263708,143.39093522356688,147.13011297874618,125.88613627383529,137.80003159904845,142.81783975745066
1.064,130.5184731180052,119.94291635582772,117.7790257541127,142.8018576765196,144.3871858742575,124.33084108519643,132.6384568741396,129.89603621631431
1.068,127.23472083709203,115.89315142046485,114.72434007529819,139.3877879832471,139.09943584688926,122.63244468725952,126.77177319280531,115.02068420710748
1.072,124.8983454252143,112.62525464111468,112.2348554334394,135.53426486002218,133.70369487000858,121.53765910770926,122.33161190377223,103.60430501966539
1.076,124.38795792949986,111.04915370935532,110.99464773003524,132.7081361310395,129.78048010945417,121.0449328250993,120.23401463509254,98.88769135521625
1.08,124.61517841058003,110.53008394275639,110.2422303585522,130.49256445742435,127.02103276457137,120.25540007381096,119.58226344345098,100.17852096527167
1.084,123.06914513549464,109.16400089522108,108.05405981176705,126.81253852167492,123.40261784222821,117.74733587894116,118.08475069503584,103.25962421573513
1.088,117.26726229744463,104.83932361050029,102.42998778142282,119.24223184824586,116.49058496692828,112.30302515792164,113.34260753698072,102.79057880205073
1.092,106.26732495912302,96.47936483425815,92.55814065068898,106.61938468633207,105.08132440632403,103.59285256838803,104.27931935150855,95.33349864227239
1.096,91.3576477699462,84.759181951536,79.50257317995784,90.00158718470084,90.19318655207803,92.42161301690658,91.89401352804816,81.27667953741366
1.1,75.50720322252437,71.85572673813635,65.86073992160209,72.37957229526296,74.76972331994011,80.40527899456629,78.88528406484147,64.61380633579574
1.104,61.87849011442131,60.3466755518632,54.51614813373794,57.26452209749277,62.220186997354176,69.22521755124853,68.28058836355876,50.67517475237855
1.108,52.24293149977393,51.86755391005249,47.16761931906308,46.93570426529118,54.611955799075076,59.85632791184071,61.822906648611934,43.11681223086089
1.112,46.20145608720395,46.29907333581423,43.47313551405091,41.344665311467224,51.55955126625986,52.17895627736789,59.0387031964965,41.894318610931805
1.116,41.628641509724275,41.95876039087125,41.29250777608104,38.275602010642615,50.44961636893163,45.14613927024811,57.50172880371156,43.31413501249153
1.12,36.01913864797643,36.64716064992035,37.87720897421559,34.641973298513676,47.84987561337789,37.403249730952666,54.130899213383145,42.10268857189112
1.124,27.935492831220472,28.935542742201505,31.33514803042658,28.163731296602236,41.30065305435346,28.010488856155916,46.79678181754025,34.270662174927566
1.1280000000000001,17.71577584179704,18.9398629018076,21.548043384575976,18.48793468945405,30.49081360564014,16.899966500244773,35.33495163366297,19.18375134913549
1.1320000000000001,7.112981343920637,8.187749106915362,10.099493382966557,7.199162219082837,17.254306993169394,4.874463347066012,21.47516150576803,-0.22323145874634065
1.1360000000000001,-1.855325551070564,-1.3080410734880843,-0.7029911701749825,-3.2300931736424445,4.4649697610743715,-6.820706064836486,7.7825489430592825,-19.13709741432922
1.1400000000000001,-8.136656817690437,-8.228174233221125,-9.132992612000862,-10.898421667688353,-5.519286787340434,-17.0962076662081,-3.737769737779672,-33.43417398572092
1.1440000000000001,-12.179647688672958,-12.636865418018715,-14.883398854293546,-15.456207846131747,-11.944384598295983,-25.45329434209907,-12.524568351796006,-41.635054707269774
1.1480000000000001,-15.526936849976664,-15.844067547806844,-19.03102572405055,-18.115683487292927,-15.78033948906932,-32.061997316978704,-19.399902091199692,-45.24783832002686
1.1520000000000001,-19.783687842038944,-19.570497526391136,-23.237925102299187,-20.783305864040585,-18.937310872285707,-37.511135886667034,-25.7428612151607,-47.469432164321915
1.156,-25.61622623518815,-24.927203856819688,-28.72585175847098,-24.901181919552073,-23.109780239477004,-42.40902286693381,-32.4944816488005,-51.127512447204026
1.16,-32.408427083464176,-31.834500926530836,-35.6481804314451,-30.715470424848718,-28.95167126450133,-47.08616130491919,-39.64582895414969,-57.102645092218154
1.164,-38.72655235723687,-39.15453683325177,-43.1467956683764,-37.344711370279356,-35.95097932186491,-51.53410818345765,-46.4177486270969,-64.06538922583422
1.168,-43.299371906897704,-45.452632262497445,-50.019588372590306,-43.55653166470438,-43.00880763290252,-55.58386552577849,-51.94464755191984,-69.58362160743127
1.172,-45.906714753191864,-49.912347078022776,-55.5393199106536,-48.72200044152896,-49.28330054226126,-59.187392288565206,-55.999626262708716,-71.87067347376615
1.176,-47.61160324941102,-52.8215756116233,-59.88390309641318,-53.3162844147937,-54.72045420428685,-62.59703926745078,-59.206540284696075,-71.0887342913611
1.18,-50.220297082660636,-55.382282612793915,-63.96018768450267,-58.66658929281175,-60.014009954488756,-66.32328360339307,-62.61744273451404,-69.44477698243372
1.184,-55.2920567540782,-58.98221761976174,-68.76429344783878,-66.10773113819641,-66.05021271415626,-70.88770335102072,-67.00676610282244,-70.07321036180201
1.188,-63.27050985554615,-64.38502624952844,-74.69890618118006,-76.06835954707367,-73.22957242004759,-76.50834414103338,-72.36807484512474,-75.36301240321518
1.192,-73.18689447878569,-71.28521962237164,-81.25030843290142,-87.61462659871586,-81.0696833191314,-82.8826116820519,-77.92746274358387,-85.61810250700637
1.196,-83.08460672794808,-78.45937006709164,-87.22424921423453,-98.73521258176015,-88.32815819385814,-89.22264409134914,-82.6624209314732,-98.81163926252884
1.2,-90.91607031590775,-84.41155738821908,-91.38610885320168,-107.22661008995874,-93.59511804659542,-94.55757355802689,-85.97095963623724,-111.56050361082816
1.204,-95.41852102161374,-88.12156663823771,-93.11332407803297,-111.68421220139226,-96.00537461887052,-98.15691960861386,-88.04411004362737,-120.75843115221414
1.208,-96.56091050226951,-89.50912855599199,-92.71905655169712,-112.08082474204957,-95.70807828786792,-99.87811904130922,-89.73332316555661,-125.01491214756243
1.212,-95.37558858662487,-89.37540729290458,-91.26728452220868,-109.63172564425395,-93.8177946310634,-100.23877444282789,-91.9845824084091,-125.1338096178215
1.216,-93.34040761981305,-88.89688596413089,-90.0176894260835,-106.09249773565443,-91.88740305483498,-100.1723339025948,-95.22641813831251,-123.49141006485206
1.22,-91.6825066683923,-88.99855946603384,-89.84375989929185,-102.919537350067,-91.21788446404389,-100.58847465406143,-99.13445887752096,-122.71765940641035
1.224,-90.9386514842563,-89.94874595415195,-90.93291817436875,-100.73531449897337,-92.34383590691095,-101.9464106041496,-102.86954996286386,-124.38295523809757
1.228,-90.93957057515036,-91.37615661455857,-92.87800680629152,-99.34194657091803,-94.94344737791653,-104.05868500350789,-105.60598982307965,-128.3651167034077
1.232,-91.1501628082051,-92.65731839342016,-95.06379837055147,-98.19885825660276,-98.19221490901191,-106.23984975204803,-107.0137465761527,-133.158824793627
1.236,-91.1137034441781,-93.39017766839925,-97.07972241301559,-97.01818541978855,-101.30822374243417,-107.71309475212092,-107.39448839059332,-136.865683903452
1.24,-90.7760639570879,-93.69940881026196,-98.93582310234433,-96.12004956598503,-103.99280380248047,-108.0610629038938,-107.43604872854485,-138.27889603682343
1.244,-90.5385049324932,-94.20234589040638,-100.99041521385834,-96.35380641316488,-106.52988661282416,-107.47603382806301,-107.76775607065974,-137.46734388457116
1.248,-91.02658483688447,-95.66361100919994,-103.63951558463577,-98.62937265058963,-109.49653305750189,-106.65789939523529,-108.58578899058466,-135.55986592059162
1.252,-92.7424037115452,-98.56699950410712,-106.98718861662564,-103.36206254769559,-113.29112344267742,-106.43143214748852,-109.59034796274318,-133.95084282297103
1.256,-95.77722455057665,-102.81669942699546,-110.67882996245999,-110.15482198122618,-117.75381885263732,-107.29518216647739,-110.23897048274011,-133.45756812827494
1.26,-99.73534974352606,-107.73792957867681,-113.99611428246317,-117.89297869735037,-122.12791170376249,-109.16396445067949,-110.12233080817805,-133.93658455323384
1.264,-103.8819476510298,-112.34648789830544,-116.14581760568626,-125.16967493217362,-125.37217041000395,-111.43102885141525,-109.22518966368989,-134.5372950389792
1.268,-107.43030439153426,-115.73788376294397,-116.58196921581111,-130.8017259095036,-126.65362243918662,-113.31204015134244,-107.91213669247463,-134.39143325279838
1.272,-109.83530940915716,-117.41566809761844,-115.21768893198805,-134.19338994173222,-125.76519213916663,-114.26724489804747,-106.70189750307509,-133.282645625457
1.276,-110.94462336241122,-117.39557972404782,-112.44895592150851,-135.38873652528855,-123.21886675956785,-114.26111978321478,-106.0023315048993,-131.8455715207765
1.28,-110.96432166466548,-116.08280542950524,-109.00958045707011,-134.85077622101016,-119.9904772706227,-113.72079419713373,-105.94282883834785,-131.1660602541706
1.284,-110.28657790487432,-114.03117551896139,-105.75277908153794,-133.14795480564544,-117.07347138546129,-113.24114503501005,-106.41796849470393,-132.04433644303936
1.288,-109.28466847065738,-111.7297294465202,-103.43561658900126,-130.7168995061238,-115.08884518807463,-113.22260436805482,-107.26044556286615,-134.40352478888053
1.292,-108.19260612532526,-109.51201487347907,-102.5576917168919,-127.80434142048944,-114.15022875315071,-113.67092603563106,-108.4020703121405,-137.28365941871016
1.296,-107.09847331274523,-107.56156596419714,-103.25317927650394,-124.54301336178196,-113.9778012694469,-114.25082455817574,-109.90540280691584,-139.3984472668053
1.3,-106.01268779446127,-105.93896817496261,-105.21781924594507,-121.03785113774393,-114.12043841662899,-114.53064543283472,-111.81851223395734,-139.89035347255958
1.304,-104.94282002814998,-104.57570567652192,-107.70806312439163,-117.3989475613239,-114.14017465232018,-114.2604791301419,-113.95534670543475,-138.83647968880723
1.308,-103.92807462168184,-103.2728111403153,-109.6850075547136,-113.72831484689686,-113.7128833023371,-113.5084804828839,-115.78494114722707,-137.18246161517527
1.312,-103.02876302901313,-101.74806847926584,-110.11234629226465,-110.11275520953586,-112.64714330575998,-112.58995524131569,-116.52861009255412,-136.094147444599
1.316,-102.27716177364982,-99.72883725586462,-108.32513540380705,-106.66438075167116,-110.8700500029804,-111.87487792785032,-115.46192062998216,-136.17406371412108
1.32,-101.69191838891129,-97.13775318836406,-104.38252708372829,-103.63978163164757,-108.50531038700046,-111.6145158737927,-112.34261761357084,-137.09370912446684
1.324,-101.39481107350457,-94.30344692469316,-99.25127509727918,-101.57394432217097,-106.02602427218835,-111.93540109490823,-107.77944208939061,-137.9357388432236
1.328,-101.7256761506078,-92.02559064169054,-94.63364757816908,-101.25493026405547,-104.30530094025835,-112.933945634868,-103.26703863819785,-137.98463526107298
1.332,-103.21207110860632,-91.36056073207419,-92.40037772157166,-103.4460374672858,-104.39948172291497,-114.74390047541965,-100.7361777594324,-137.40817489283654
1.336,-106.35423138399892,-93.16691937384621,-93.83147865929641,-108.46511549825118,-107.07607063762407,-117.50495350097844,-101.77641977943586,-137.3497686743067
1.34,-111.28380988002209,-97.60307994627237,-98.98744293657455,-115.8207135711782,-112.29068227217158,-121.18940354188635,-106.81482768975366,-139.26302893591128
1.344,-117.44129174887985,-103.81662190779025,-106.49853998978278,-124.11964942392888,-118.89057717106243,-125.38576247208039,-114.63270415231091,-143.83992922412472
1.348,-123.51679322262498,-110.06845253208394,-113.94231054523925,-131.38327182651028,-124.81126483925527,-129.2141096098003,-122.53984945609591,-150.19511802270245
1.352,-127.79334254015703,-114.32027075076076,-118.70938012686202,-135.7065322700928,-127.79547596284465,-131.50798843131997,-127.25636240720905,-155.9138074188595
1.356,-128.7863621810102,-115.03520807073983,-118.99972319599874,-135.97896366325585,-126.33190271262083,-131.23812068871302,-126.19379951772044,-158.07451425711952
1.36,-125.9104221211619,-111.8323143216503,-114.51798529236748,-132.31582475093091,-120.35918476287043,-127.98821551055516,-118.59088572789096,-154.6839912098294
1.364,-119.82027344096696,-105.65684856999724,-106.55167554191121,-125.97777829232837,-111.35519353094332,-122.21404710713978,-105.95818914650772,-145.72372785443258
1.368,-112.21444550024444,-98.38463764240532,-97.40301364516836,-118.8062061071414,-101.74908653826333,-115.11214550895602,-91.56679089252793,-133.24552637412853
1.372,-105.13365076444916,-92.02401073298279,-89.41903500671879,-112.4148429566203,-93.90197194927896,-108.12784199558882,-79.13947529964298,-120.40505471570395
1.3760000000000001,-100.08191286888359,-87.88483345734403,-84.07302552495185,-107.54451231374878,-89.14553635549782,-102.36239209694031,-71.35042386959776,-109.98949683210594
1.3800000000000001,-97.40233662139417,-86.10910790531307,-81.49949865172039,-103.87778236484701,-87.33806229266338,-98.17327222300628,-68.82152545259214,-103.25550457126337
1.3840000000000001,-96.222408522759,-85.7646475367228,-80.66284030781662,-100.38253574912233,-87.1155838665536,-95.15234136421532,-70.08471427724544,-99.6776218426894
1.3880000000000001,-94.99645140693974,-85.43075967856112,-80.02502404221195,-95.98824280780627,-86.68253465277303,-92.4867612740909,-72.5064330534833,-97.668922049721
1.3920000000000001,-92.34826197379516,-83.95320676431311,-78.34675438434988,-90.21737512849086,-84.70916983272127,-89.48404877719622,-73.63895727280305,-95.73428449500352
1.3960000000000001,-87.77434145034567,-80.98209534735906,-75.2396306900755,-83.47480215911219,-80.8903170366957,-85.96099778913049,-72.30844258602701,-93.35701529368816
1.4000000000000001,-81.84740391796004,-77.03502644903892,-71.21128310702534,-76.84471715682957,-75.9142613430613,-82.28254563794144,-68.92149577102464,-91.07625381513571
1.4040000000000001,-75.83570584746121,-73.09575321960801,-67.24483166712798,-71.53126043814609,-70.92885462837148,-79.05929349247708,-64.90691199293724,-89.78917902009744
1.408,-71.00681535830881,-70.04649459008397,-64.19620457005749,-68.28636951728186,-66.88245267326056,-76.72506441901533,-61.68175095694096,-89.85512626258969
1.412,-68.01336264670135,-68.25108384260147,-62.33375853499547,-67.10982886843703,-64.09257317927495,-75.24595243003569,-59.76737549304016,-90.58910855691647
1.416,-66.67662784515414,-67.47072002339883,-61.24629895547423,-67.35828912759007,-62.218762519241864,-74.13250563578367,-58.567376760162006,-90.48855035264205
1.42,-66.26408070122852,-67.14007320751716,-60.15835850804524,-68.18514832309484,-60.6206255860825,-72.76023844096744,-56.89547043438688,-88.05287189471346
1.424,-66.05636669436171,-66.8044456117068,-58.457453383294705,-69.05156803101818,-58.857512625151685,-70.80815905975032,-53.86027538601775,-82.71087207927485
1.428,-65.81850344987288,-66.41877058202772,-56.09206073653695,-69.9865742700922,-56.99515757817062,-68.50949162599682,-49.54104689370797,-75.19666816798417
1.432,-65.88610496287583,-66.32613341574142,-53.61238374381719,-71.45610385157943,-55.55354358904606,-66.57644362180508,-45.033676158480375,-67.13427582889562
1.436,-66.83626966801603,-66.93913384843836,-51.84903809096522,-73.9416459386266,-55.16126970459845,-65.79315327586664,-41.804472604935654,-60.17378314120651
1.44,-68.97269866510032,-68.33884424443113,-51.42032389137967,-77.4712251484907,-56.132383664122244,-66.47808493155571,-40.78950562877435,-55.151364460292825
1.444,-71.94403237253391,-70.04249403624726,-52.33780650601875,-81.39869728520353,-58.21191166693825,-68.18462866221671,-41.801912564735176,-51.78829881353522
1.448,-74.74365881007907,-71.1215626892299,-53.94276835900018,-84.57600886365981,-60.648127931710405,-69.8304459908777,-43.61643117112362,-49.084496808747645
1.452,-76.1237736916919,-70.63911122397622,-55.22437501848253,-85.83853081982306,-62.55538750671349,-70.16391222515449,-44.668129959436556,-46.11825955110544
1.456,-75.17616254806853,-68.14285485293294,-55.32619952402274,-84.53496214870484,-63.32316120561336,-68.37371473716848,-43.949266987256124,-42.71663010952034
1.46,-71.77007405470977,-63.944232127529176,-53.96759951288277,-80.83216280275428,-62.86294875899057,-64.54539215627665,-41.60247873836124,-39.60622967368545
1.464,-66.60292652797943,-59.006083641907026,-51.55257405690463,-75.6289229645663,-61.56505348653445,-59.69525266133678,-38.8352616047905,-37.98484626504069
1.468,-60.853615473264654,-54.502319003823686,-48.91635733838939,-70.1086145843301,-60.00247288096125,-55.33713090809397,-37.19567363429087,-38.74548805406448
1.472,-55.6530973719091,-51.29204400490198,-46.8585205346335,-65.18420607535336,-58.567131535410226,-52.78104409699699,-37.65515873797449,-41.84750915623226
1.476,-51.662611097985064,-49.583942603694595,-45.74881784767422,-61.1468730373972,-57.25451032057936,-52.51360741039025,-40.058025137557706,-46.22572950139511
1.48,-48.94810840197897,-48.950596428800054,-45.40081348311287,-57.68475536042206,-55.70236551625021,-53.975912485266235,-43.22405038550096,-50.2546047718497
1.484,-47.161556373328494,-48.64578303215967,-45.25489064623707,-54.2337697693838,-53.44589012700271,-55.856851346447,-45.64099020523645,-52.508093104948784
1.488,-45.88612980295693,-48.049275737430435,-44.761683641983836,-50.44312283584168,-50.247383319437176,-56.74038906933856,-46.320572602024185,-52.38227602180996
1.492,-44.915821343747666,-46.97842485721594,-43.717540610204196,-46.48091483414191,-46.31310093726097,-55.795548070605946,-45.304471546329296,-50.274034910333285
1.496,-44.30265350151967,-45.674668394865876,-42.33550329436093,-42.989691124769706,-42.24082338885364,-53.15522478803541,-43.524039569218075,-47.24453991910559
1.5,-44.21255379340073,-44.54631156456526,-41.05746744913631,-40.75214109545777,-38.7681603488918,-49.80379496331261,-42.161936543770935,-44.41815905681506
1.504,-44.71594590759014,-43.850505240649,-40.238449693824805,-40.27195793728333,-36.455026178624394,-47.04950161155102,-41.90880450057739,-42.438624369846366
1.508,-45.65717592040164,-43.52186382281707,-39.896487516582056,-41.5020846466432,-35.468696081325106,-45.84468577594271,-42.53420050934801,-41.23777078867715
1.512,-46.71336691550641,-43.275811447975684,-39.7102033573301,-43.89722056355822,-35.60452257767429,-46.32194675590472,-43.051573365042714,-40.220203842774936
1.516,-47.57462965435843,-42.8737636337255,-39.24473840700011,-46.737352884545544,-36.484434525233155,-47.787786250319186,-42.37019479353876,-38.724839065900596
1.52,-48.09906578234768,-42.34243285212051,-38.24464056863508,-49.49772747822226,-37.794799466476434,-49.14823276487732,-39.995829952513304,-36.47855234422968
1.524,-48.32900211555352,-41.97455414834985,-36.79486418581928,-52.03270794157288,-39.40782081600537,-49.517882068619656,-36.37572469258157,-33.80273247603327
1.528,-48.36576218112532,-42.105141332122,-35.24331538118622,-54.46891212325136,-41.32313194058406,-48.690016762091545,-32.67565750075664,-31.472833024563442
1.532,-48.20674701264397,-42.822017076909106,-33.94653081746401,-56.899350556299396,-43.4971387124333,-47.21682269032681,-30.114589543429247,-30.31171394429839
1.536,-47.66406087635005,-43.798523485816986,-33.0105212912631,-59.09402379489438,-45.664816708687795,-46.055428514220694,-29.266552081968257,-30.7362836791508
1.54,-46.434678098719814,-44.38083789371285,-32.19159394259805,-60.4269654127811,-47.28731102909023,-45.98491638250198,-29.71193699435389,-32.49725893397772
1.544,-44.28581051587753,-43.884142408667685,-31.012542070287964,-60.0918742255144,-47.66770644775988,-47.12418618938318,-30.229838561455836,-34.733387864474935
1.548,-41.24763172119674,-41.95106320893501,-29.0353329412128,-57.50812556426263,-46.20998792784485,-48.82730381289002,-29.45409102571466,-36.33768426912502
1.552,-37.68120805869876,-38.766548886869714,-26.124793442736518,-52.68615953343851,-42.710656372718404,-50.02872258178104,-26.640085696111782,-36.48894163274963
1.556,-34.15262676652674,-34.97254965623506,-22.525302726630798,-46.32721967376801,-37.50323568228214,-49.83875116087438,-22.113447247265867,-35.05848144073025
1.56,-31.170784188287143,-31.34041576587697,-18.70969436649466,-39.58591512980638,-31.385699665413085,-48.05819789567613,-17.161554052228894,-32.67691959335207
1.564,-28.94393906436926,-28.403420631605513,-15.121345960457802,-33.62401551446692,-25.366322937576115,-45.304859193627635,-13.438403038777324,-30.41303328063441
1.568,-27.30664636088295,-26.28447780190072,-11.992580528125472,-29.192923182214145,-20.362948699802473,-42.65997532167239,-12.179250175096968,-29.213504840707174
1.572,-25.87674756517663,-24.810968834872256,-9.368021397905068,-26.46293418861933,-16.998346764217786,-41.031909557583276,-13.634914891626977,-29.397884276466357
1.576,-24.339457607911754,-23.78668172881771,-7.293206108938648,-25.15248494835214,-15.52790983781233,-40.60904995363671,-16.986362255103813,-30.480068920824124
1.58,-22.701412946273194,-23.23920078608535,-6.024086948943477,-24.855884323565988,-15.91217388921359,-40.741221313543065,-20.76550514273913,-31.438612126810767
1.584,-21.383650146544824,-23.485596241833264,-6.108343420947676,-25.386159416273586,-17.979686738715827,-40.368868063538685,-23.59500324733017,-31.327172450110083
1.588,-21.05786591206379,-24.940775031791418,-8.19028561812138,-26.89594785620011,-21.535937157377703,-38.74343086309091,-24.818764226572966,-29.85257400941191
1.592,-22.305893435586768,-27.803748469351376,-12.619471959021212,-29.71620472984705,-26.368578316620187,-36.00570529647666,-24.721905182255796,-27.58173422254913
1.596,-25.264697230346883,-31.804951139190507,-19.077330612804417,-34.02491482472578,-32.144573081368435,-33.24913123889746,-24.262711046444565,-25.65094151703488
1.6,-29.43535584870415,-36.17357586988874,-26.44934315839805,-39.53990274066064,-38.27796312413011,-31.96019371023249,-24.456764241387646,-25.101741724643944
1.604,-33.767810408324294,-39.86173852731008,-33.07251844948132,-45.42497388247284,-43.88859552822669,-33.12076303525282,-25.767811767029343,-26.23029957702238
1.608,-36.983268183445034,-41.9014718794715,-37.26169463870792,-50.45804883368419,-47.90790088329777,-36.47994676064991,-27.789139831797,-28.314503817684454
1.612,-38.00379996087577,-41.72022671361265,-37.897391224164494,-53.3900293739207,-49.334336168351,-40.458703460360994,-29.39258554013577,-29.891346167776646
1.616,-36.32463389585246,-39.27288398094606,-34.824511020424325,-53.352516419288804,-47.55306927361744,-42.829653252771095,-29.286818944738116,-29.492131222486933
1.62,-32.17203073037308,-34.95465305813195,-28.861319762087078,-50.12954538824397,-42.57139613476102,-41.8375331644711,-26.65039418786546,-26.414996226580115
1.624,-26.389248713168854,-29.37708815055157,-21.433047791797435,-44.19252340446201,-35.05007561289949,-37.14865199036649,-21.53252345801957,-21.09249997254301
1.6280000000000001,-20.120825374513515,-23.160632443868963,-14.024715355041735,-36.522016491701834,-26.121513880119892,-30.079891844936355,-14.82555830817546,-14.867026380092284
1.6320000000000001,-14.437169473119866,-16.846016419062835,-7.70783000990923,-28.31874135335329,-17.072428886087437,-22.95277171010457,-7.858704955109715,-9.313037147585419
1.6360000000000001,-10.029241878615721,-10.89295708233658,-2.92703881279067,-20.705546533667075,-8.990380991787788,-17.90252800091548,-1.8509323004800535,-5.481121085889754
1.6400000000000001,-7.087766172109696,-5.716019765744932,0.4039549006947709,-14.508462433012028,-2.526538466745478,-15.80037532130882,2.499309707813154,-3.46553598688115
1.6440000000000001,-5.382745992326818,-1.6825927398622298,2.6153472018986577,-10.154376255258285,2.150236792418582,-15.908156294346554,5.098710335345459,-2.5389902805982274
1.6480000000000001,-4.483841529545316,0.9418407531047706,3.9903790468524676,-7.674618785634266,5.213832964673202,-16.45415800565752,6.236683896755494,-1.7302782879705774
1.6520000000000001,-4.003195689107088,2.0669097769750806,4.619517025639652,-6.779683183098314,6.943852152259751,-15.779241777505376,6.2348574210300285,-0.4725338425123482
1.6560000000000001,-3.7283173850482854,1.847133356210179,4.461422609353576,-6.963367121918964,7.556334852632972,-13.367364589827048,5.237359143400681,1.0829146537471388
1.6600000000000001,-3.613399452800877,0.674588053964726,3.5467265980523734,-7.624077552465678,7.169090384794799,-10.14655625317755,3.27597077567043,2.2452473083903897
1.6640000000000001,-3.6695491356204,-0.9186585520683366,2.1598672813915982,-8.209936492925408,5.875881156109244,-7.897947755747737,0.49110566754279716,2.2788058799123974
1.668,-3.8395925657041516,-2.4016771847855125,0.8544677926902295,-8.352546523553428,3.8683716593222925,-8.113270275920513,-2.6732924165080476,0.9178547485862509
1.672,-3.951869789243574,-3.3915787058213027,0.27906683848414104,-7.94759250158404,1.4977160637608904,-10.979387846193276,-5.475604191729872,-1.423975547979353
1.676,-3.781483759452385,-3.746046969656163,0.8919924628344233,-7.150395328666491,-0.772547619024408,-15.114817579000373,-7.132443148471793,-3.8687271960516227
1.68,-3.1746739731861453,-3.5616025177650954,2.717308086374942,-6.271625007199873,-2.499122657488442,-18.213126852675487,-7.183922056719894,-5.546521236319677
1.684,-2.143859083435018,-3.0736581768060205,5.292120061352762,-5.611017084482228,-3.390031198176075,-18.22728609189835,-5.733112504154633,-6.032629645189445
1.688,-0.8722046948205389,-2.510861036775168,7.834202198318053,-5.308304619293267,-3.365681917798611,-14.428597541773343,-3.4039979476037843,-5.490235845336429
1.692,0.39227700379342423,-1.9664252257662156,9.58760175637235,-5.267430138420423,-2.518493632866921,-7.748083547965507,-0.9923677963142836,-4.447434609362972
1.696,1.4838765116110153,-1.3525803217225985,10.165948223994747,-5.206680793845408,-1.0110042383103064,-0.26127230391284684,0.9656187793825666,-3.411710951320856
1.7,2.4087260065462033,-0.4533328273482766,9.71566296716992,-4.811656460640734,1.0152464553866594,5.848242305124586,2.434459214571689,-2.582013784915034
1.704,3.312201056647609,0.9445909306396061,8.81769502476891,-3.914945076992808,3.464439944019432,9.25651714095693,3.7919114935139078,-1.837122601140436
1.708,4.346109280357268,2.9049627476915703,8.171304703389978,-2.5968932445484825,6.240112048606534,9.904531919954024,5.469030263649984,-0.9703297111882421
1.712,5.537938321011097,5.268737047396826,8.250646183307254,-1.1258354771143786,9.18432973054405,8.730401939428702,7.575923973074168,0.0487181279786455
1.716,6.753772580470468,7.706955570609352,9.118985159440854,0.2319986774773497,12.069285480887629,6.991384697046669,9.76158581096388,0.9849224543286255
1.72,7.802729726205143,9.901662560882869,10.49478201236252,1.4381520550050482,14.6748789978883,5.630554670793572,11.42707238578987,1.5140896121956757
1.724,8.614293320235447,11.760928829500699,12.013237419260804,2.793716050528019,16.911797765395022,5.012642128769585,12.146107030077474,1.533564666249731
1.728,9.362291448911492,13.544129830123893,13.51359441747627,4.842796267375888,18.90662457212511,5.074603463015592,12.013037823802733,1.3772699094442942
1.732,10.413085431155196,15.76138208341581,15.139826753546004,8.07363352466382,20.932861420285008,5.654638051197253,11.65680981931655,1.7354976125170651
1.736,12.10390285612084,18.87677561313194,17.194072598687853,12.570284033826283,23.214219230582785,6.698873779811038,11.883551551902201,3.286239633365767
1.74,14.480194419204054,22.972415085956527,19.834901073056244,17.81554671512822,25.715001556010975,8.20324884024376,13.17010381325963,6.266734111755795
1.744,17.161412773435586,27.565601388522737,22.81648011887046,22.785552855979404,28.049193367929547,9.990540424434585,15.311741119361614,10.251607542621059
1.748,19.458088701947418,31.728914757091843,25.4659023358563,26.341114174287213,29.60061061837223,11.561757475177728,17.459715292456167,14.304122748926602
1.752,20.689138079149416,34.46199999890996,26.944262974506273,27.734804726193033,29.792852137939917,12.218424846301787,18.545852635736082,17.455196366376185
1.756,20.548706244557252,35.15467213350985,26.68502842948419,26.985508294362262,28.392267275801714,11.441065902086848,17.86363091068779,19.240877462325443
1.76,19.3141974079972,33.91374512880611,24.76203103645821,24.91558785973757,25.687473183865222,9.290681110098376,15.473828383483124,19.981196747990907
1.764,17.751308042707024,31.5631541116054,21.94794079613621,22.798737920886197,22.42685557567893,6.550036578573781,12.192944251019071,20.606551413307898
1.768,16.732632252278563,29.283005433524522,19.37787443000707,21.76056706590043,19.512896120407277,4.431660581634787,9.150135242962278,22.084623664988612
1.772,16.7692503277558,28.05547577919424,17.982950273071765,22.238523713701397,17.5968372243251,3.9907070347635454,7.1923134872795345,24.79592451966164
1.776,17.74261993964501,28.23404934804512,18.03196518319328,23.803734137751235,16.821292077136604,5.58913618778206,6.520101541094846,28.248320660641184
1.78,18.969462304410627,29.437154100462067,19.018459387081748,25.414776230988537,16.818235697824093,8.676050386977295,6.7043632995737426,31.278534417189803
1.784,19.56866595834981,30.816132033781287,19.97998410348555,25.975359465081056,16.96634520628504,12.040708170548896,7.053792992157469,32.64929693493286
1.788,18.952825972288338,31.558315648160715,20.09227866319361,24.920282523179594,16.777530848822607,14.399885704606277,7.106841156999508,31.712947913500102
1.792,17.153031380186803,31.30002061279447,19.1683692002498,22.50346890923447,16.153778993413653,14.992691220455526,6.908351576215864,28.75554784290216
1.796,14.808228243786289,30.24874100942452,17.780893893245775,19.64975877660072,15.392276134169151,13.875057400848164,6.92502165125552,24.83300537685136
1.8,12.836187560944381,28.982172702915705,16.93459480465299,17.463116503030506,14.953986075335706,11.777022019618016,7.667826664652239,21.196707539158524
1.804,11.964932287617557,28.069420786961018,17.467259206755443,16.660636707005324,15.141913007151743,9.641963335947366,9.268895381591392,18.635773532354506
1.808,12.374921505757811,27.755616209325126,19.527370201423764,17.232388651369547,15.897408463399188,8.127016003752942,11.275564769569428,17.11730106644245
1.812,13.62286440052958,27.86979464901742,22.432334491638358,18.490696244294668,16.823158429790055,7.33880653559936,12.805040824619937,15.925194054205349
1.816,14.880308375106324,27.997371926169762,25.006389821569428,19.474754011563164,17.43223088944069,6.915384951837041,12.996589137586852,14.21366835174922
1.82,15.349418109115504,27.791172439405273,26.20417419432033,19.471629536805267,17.469851004512748,6.355102599069141,11.496810030101187,11.62906873024258
1.824,14.633684664640896,27.203562601905105,25.651862999323384,18.359671539372357,17.084817871451378,5.367760432927753,8.686804438828403,8.601841466155747
1.828,12.893298655609215,26.50667145911757,23.804035597443544,16.61486859948309,16.744735999396653,4.055629477648836,5.542440389373041,6.152696752506017
1.832,10.710477966797043,26.065730332112253,21.60974106352205,14.987617041742851,16.895428634535165,2.8393607300095027,3.1650891657518514,5.308757657441674
1.836,8.765085103935235,26.02039576341849,19.900049552514247,14.056995905437361,17.57031964997259,2.197132430575948,2.2277480329612445,6.471460063779887
1.84,7.493300234360504,26.085333888922833,18.85428949192101,13.914748225822223,18.196660019810224,2.382259758805958,2.625638305029497,9.11519324740948
1.844,6.900084725511988,25.62163764214438,17.869581992081294,14.148684946292633,17.759888107893858,3.286587478241927,3.5140230938495733,12.003930026472517
1.848,6.621963718247571,23.97787026901733,15.932475036354845,14.131026153305356,15.304017856390601,4.517229073067938,3.729015107453961,13.825609560259181
1.852,6.189466591798919,20.89807608002775,12.279963224078529,13.42654093733654,10.512143610732892,5.622755322858211,2.3988139333150684,13.890069985371156
1.856,5.3420559752048575,16.76789768591334,6.974484013836445,12.08780335778465,4.060417079594117,6.353072482364951,-0.5566417748832464,12.49066962683537
1.86,4.231814818845123,12.55176886618392,1.0546024071300053,10.669365201538767,-2.4711179367395744,6.810492800135762,-4.295748310541057,10.720255977681518
1.864,3.399000790338505,9.422087074204683,-3.851884540721585,9.948077971916064,-7.144224062192734,7.399542088334783,-7.378481913914584,9.833835842757253
1.868,3.5264809273330684,8.260621986193655,-6.258160098959252,10.507201727114989,-8.428054132655234,8.601790676235396,-8.397111695171589,10.516682721363395
1.872,5.092269445469356,9.27990930622309,-5.496461272357919,12.429931854956067,-5.822100307113487,10.704263352432463,-6.604084933806007,12.488841968170163
1.8760000000000001,8.101389238469892,11.953078643244226,-2.000519710908975,15.254671888609664,-0.04226736750388227,13.583762213826049,-2.263017691724599,14.651492147873796
1.8800000000000001,12.04018669193647,15.29381162420259,2.945383539104114,18.20781189172294,7.316145254552339,16.689885170673733,3.4711253989107718,15.69817598361442
1.8840000000000001,16.079596606389714,18.340926827402654,7.847427570609852,20.58829062512723,14.468848887029708,19.269496227740092,9.08096209235191,14.854197212138388
1.8880000000000001,19.422247355228137,20.580296421351704,11.66516157842807,22.066670868723122,20.131639693626767,20.67148043364068,13.327868518330433,12.315502731660672
1.8920000000000001,21.6038222076113,22.06109796521423,14.138598884047951,22.723754553868275,23.85555645967952,20.586853909651836,15.682102645367195,9.127753397575361
1.8960000000000001,22.59690840966323,23.173335831982058,15.654709094949794,22.847277849480633,25.901838794738524,19.156644349364797,16.369799721749587,6.594561131263617
1.9000000000000001,22.682430110095083,24.244443828133626,16.780573477794405,22.641251717704108,26.805107853362188,16.896906332574872,16.066392564578564,5.576944305663346
1.9040000000000001,22.191865758174572,25.221664845034866,17.77866870912112,22.051084975187223,26.92212809790135,14.462408707771829,15.425317404194175,6.090867615999741
1.9080000000000001,21.29663983192313,25.656751212044583,18.411893113727274,20.820891182293508,26.24736479409239,12.408076704508858,14.740355904395983,7.417905660306133
1.9120000000000001,19.967988724193674,24.99279117202059,18.12632258859867,18.753853500908917,24.560631191498942,11.040485665471351,13.921361072711079,8.643117265626643
1.9160000000000001,18.120154095993712,22.971339178567177,16.47422704823566,15.989959008407823,21.760124878994702,10.415966206855956,12.737420355640097,9.27251048553444
1.92,15.806364500112977,19.88145814700829,13.470670728932419,13.06825696415217,18.092000216963697,10.436867615733718,11.088709460537757,9.513181919443014
1.924,13.300573944473399,16.456424515206436,9.634473930529566,10.679432068461665,14.081107051690651,10.942497012035346,9.087406458659643,10.025934249104466
1.928,10.97041019218068,13.447489713935283,5.6773442301341674,9.222577319068478,10.182863212459779,11.716029150578834,6.869924034209362,11.295723202030786
1.932,8.991311299950212,11.098118853849883,2.028580337904714,8.429500567951436,6.373438359508327,12.422170261471365,4.274504814047759,13.029218329906143
1.936,7.116726933357313,8.873639824837483,-1.474494000606228,7.336258816207192,2.0133201587705116,12.569227202802722,0.6772585082053411,14.012348599499092
1.94,4.710141375961939,5.683360276251733,-5.489436610332177,4.7092089439602205,-3.8252913507990343,11.596372373588565,-4.7899714337963815,12.607916580667734
1.944,1.104451339676416,0.5400998744994467,-10.670226768877,-0.24629121834323087,-11.6725953373425,9.11233507767065,-12.654762467518594,7.673979136301568
1.948,-3.86552643781215,-6.67452235118526,-17.035412277920386,-7.262106913410207,-20.983446549783366,5.193787732021519,-22.450950926381665,-0.5958251421434397
1.952,-9.480434021590554,-14.801269722035613,-23.596628760119074,-14.844328230251449,-29.919417733743558,0.5644232092536186,-32.4206147299501,-10.419324752261673
1.956,-14.194942818940035,-21.64860994172841,-28.52742262799802,-20.733929842272573,-35.82306161016413,-3.506334240004435,-39.87066489888821,-18.974089229961464
1.96,-16.200283868769475,-24.837020979690806,-29.855349873253545,-22.815236652103067,-36.24341890081905,-5.61232686006133,-42.1294080117259,-23.528672438722424
1.964,-14.262185559694444,-22.857002876164643,-26.365300414827743,-20.050477909923757,-30.05064207282294,-4.774767300371423,-37.702813420267375,-22.620369037405908
1.968,-8.405896170511369,-15.804745633507537,-18.25407492213435,-12.977785538903845,-18.07057357966187,-0.8936836582770411,-27.057914597438867,-16.681898905528215
1.972,-0.06370753106693883,-5.420466403870705,-7.179621151969968,-3.514274240168106,-2.898086616965429,5.153700775581456,-12.591190647012809,-7.795486230115785
1.976,8.441734919721966,5.602668016349526,4.344497956430587,5.831629969600726,12.048492955692836,11.839041406956312,2.233445015214784,1.2711928880598862
1.98,14.845013951039618,14.688967847367621,13.908829668095223,12.940741169007197,23.782946758948583,17.58706922978763,14.175673097846811,8.243624843984435
1.984,17.856797649936198,20.31289983005854,20.060465283504982,16.796674078970682,30.73000655920214,21.374085481048496,21.34305267362606,12.153974789875065
1.988,17.582011357623742,22.36848445544092,22.65757132744966,17.62094252040606,33.00210218368784,23.02342814021722,23.633066189168403,13.437160549276086
1.992,15.236821608843456,21.84974222515848,22.599035468486818,16.441309996688688,31.910108834209495,23.080092809917005,22.360668187727697,13.365576217832313
1.996,12.364418646679951,20.100056175314876,21.133863560841746,14.398372256788207,29.047408692073077,22.368268212437215,19.351766036110803,13.201783295080531
2.0,9.99255325906961,18.078373273515354,19.154948843570764,12.176600994851015,25.46785147478704,21.509713903590637,16.019271932650554,13.557975961934062
2.004,8.197929430440126,16.025871091683257,16.851362630805852,9.833787778180522,21.369122572994456,20.665155056735784,12.901254867069838,14.259310789197116
2.008,6.283944995946058,13.640909123462734,13.846075786266283,7.037645114123734,16.361023273727824,19.603849165428073,9.793317495641531,14.679562281628932
2.012,3.4048048472454866,10.552571803697901,9.670625409026343,3.496962480550337,10.05630174011003,18.022654363920083,6.281243000134509,14.27598235446203
2.016,-0.7501290757491006,6.757560203400772,4.25964817136537,-0.6942320819998713,2.5934105490005095,15.885327449885153,2.2751686228434664,12.968768264806386
2.02,-5.631431599740608,2.742534552168763,-1.8377822984289196,-5.00567888812202,-5.223174641846526,13.55114230000072,-1.7971977006022826,11.160085098759737
2.024,-10.036200398556502,-0.7501450459044463,-7.629241577822768,-8.698390711757156,-12.206939669550593,11.619519835201572,-5.210189673496643,9.441112682497078
2.028,-12.701166391655079,-3.1203516619016227,-12.102177160100837,-11.163649244435192,-17.28621227207441,10.59658927437431,-7.381147867586606,8.215223370498279
2.032,-12.942769768190374,-4.223149262712923,-14.648005327088867,-12.173215628118214,-19.925714126099138,10.59346678271504,-8.230601406841743,7.488726014144959
2.036,-10.986118598161283,-4.404289682719536,-15.253782122952089,-11.915945226729036,-20.24597176556972,11.257695469450482,-8.21939793763022,6.934854516265659
2.04,-7.826176144099918,-4.2573389748781665,-14.386105723470337,-10.84509632945128,-18.82380123071448,11.9683791808784,-8.05240949324616,6.155627030260803
2.044,-4.737509356254122,-4.271232576243392,-12.674532541369672,-9.462054997398127,-16.348968657458045,12.173442505853927,-8.252982497671837,4.945187329105465
2.048,-2.720793909011263,-4.588870969271738,-10.604525171231217,-8.167735803686355,-13.355089599175926,11.661535341457238,-8.88843837161403,3.390974152687704
2.052,-2.165762772211565,-5.015530744889475,-8.379571486012537,-7.225414249766345,-10.159210950705301,10.60883380280029,-9.588204650734951,1.7846405999471244
2.056,-2.8462509610894813,-5.231100099691048,-5.9903809136253585,-6.789773421602376,-6.969549241654022,9.389271136802563,-9.825250416797644,0.42914891600594274
2.06,-4.177831861838058,-5.0477769616354635,-3.4036077128430406,-6.934905025586886,-4.0248481114444985,8.290283141690452,-9.274976707292808,-0.5142304814180534
2.064,-5.549529478732893,-4.542467050193409,-0.7150908271460139,-7.632619227436635,-1.6240926220214078,7.319749572383444,-8.023728422675958,-1.0442907710694271
2.068,-6.5507779305244185,-3.992166465194032,1.830473211772869,-8.710862967433059,-0.01515758314485538,6.2283525258471855,-6.5185572238569875,-1.2359557147510714
2.072,-7.0330020899646115,-3.6942558331415967,3.9390022090567527,-9.861905210303576,0.7444309359436829,4.726713139497406,-5.32173323164443,-1.145706605464511
2.076,-7.048325434018807,-3.797576655754483,5.399379459693819,-10.73798428213945,0.8221847615604929,2.749585227533771,-4.839425752686566,-0.7933721836961922
2.08,-6.767719528408179,-4.260369981761414,6.138500027199825,-11.116887510092056,0.47989403981137,0.5859401014790819,-5.192687820694573,-0.2374019955905169
2.084,-6.434731905927038,-4.945867270855388,6.168393291650773,-11.047703694489883,-0.15345077478332314,-1.23125940352611,-6.284654969260373,0.3233574729783868
2.088,-6.334619033927993,-5.761848028409759,5.479968786720747,-10.867122172898235,-1.242981921474211,-2.2148583868802234,-7.972490235430541,0.5254253866596628
2.092,-6.747955824598193,-6.7501951545978045,3.9777880318599728,-11.050764399808486,-3.2224689314957686,-2.223497942454742,-10.204287680406651,-0.046798060397122754
2.096,-7.852144382003189,-8.054679330244653,1.5293118539414081,-11.962665923077338,-6.550628492793749,-1.5885493271061932,-13.01159763285068,-1.661713752050673
2.1,-9.607971235298919,-9.7967263202097,-1.9006556635388279,-13.639812625639024,-11.378816633584393,-0.9748358572101097,-16.37098761659763,-4.2588302308286075
2.104,-11.707666963364318,-11.938365034345225,-6.104866335140741,-15.726070201715402,-17.320224134192358,-1.0476012640096997,-20.037584009444345,-7.3870012100815075
2.108,-13.648617724888481,-14.21813308607102,-10.588042939530169,-17.60580304477844,-23.469293304900248,-2.1294743634948645,-23.490137386481365,-10.32909766955072
2.112,-14.931715878771683,-16.218997419994366,-14.672291556094251,-18.669444326464827,-28.68923753547938,-4.026630534848664,-26.057234449554016,-12.353290283660499
2.116,-15.285503205289842,-17.526904468140174,-17.709316177399614,-18.57360740267677,-32.02124929845991,-6.128439496594638,-27.174357207491994,-12.987210168816091
2.12,-14.78973749903571,-17.894625049652404,-19.294241282363146,-17.37028660801525,-33.01021836024347,-7.726148524664495,-26.643114369547902,-12.20378034032592
2.124,-13.819841169706251,-17.329397861307598,-19.36677500208475,-15.448644942659257,-31.788656462706285,-8.37088045466453,-24.738681974182327,-10.448421072316705
2.128,-12.843979466519613,-16.07325934501887,-18.166334816449307,-13.350919967204845,-28.91117190679529,-8.090851319731883,-22.110870224460996,-8.509819940806665
2.132,-12.182097725684798,-14.498056146537692,-16.074336605370377,-11.55656336770312,-25.064545774782573,-7.350285176241414,-19.514706452573137,-7.258303327757858
2.136,-11.862299529023858,-12.968206218079558,-13.444585921094472,-10.333201423386072,-20.822320176299627,-6.785997658653741,-17.505659564784537,-7.336611576577525
2.14,-11.64873451244057,-11.722731744516977,-10.515307242176846,-9.698307679848313,-16.543775982290754,-6.876028690856856,-16.244725146050314,-8.888613582715607
2.144,-11.21419270149272,-10.806491823544093,-7.426578216934331,-9.46765043404207,-12.410163269062423,-7.705014347171073,-15.498147379644934,-11.422054514873253
2.148,-10.346659496254688,-10.063720951425012,-4.30512736286812,-9.347458268751097,-8.515407236257033,-8.940577613122969,-14.82027408599697,-13.892629688495617
2.152,-9.082450616795995,-9.218999805405929,-1.3501092132241865,-9.039033914955553,-4.942277635384016,-10.01347681147945,-13.814146679486385,-15.026296412740521
2.156,-7.684968350770987,-8.00893539015999,1.1568982248552402,-8.32546758906119,-1.7742707910929312,-10.38713228695724,-12.338415587531927,-13.803833178374589
2.16,-6.500701833788298,-6.321337758419077,2.925774122982716,-7.1402518167747075,0.9234884098550538,-9.777104574476652,-10.57691091568995,-9.92432508382035
2.164,-5.786718197770824,-4.300854587453614,3.750097106711678,-5.617878321572789,3.079275427822722,-8.22818417237977,-8.964279321488902,-4.041335545765833
2.168,-5.591204118367386,-2.3373319860764923,3.5733568234293216,-4.082028742389184,4.549801447672962,-6.0373577376058165,-8.002465799538186,2.3948531253445253
2.172,-5.7452710118550385,-0.9293215879624768,2.4921902782025427,-2.9468335120161555,5.061665832570611,-3.589847593810191,-8.054681127727235,7.678243510878474
2.176,-5.948457715976929,-0.46708215490389193,0.699591661974182,-2.5483982606776863,4.24328061483493,-1.207713707118728,-9.192360788613314,10.555207125866218
2.18,-5.8850422526547845,-1.022606262718,-1.5839083529511981,-2.9580387938026433,1.7917010166727323,0.9234104955801286,-11.146990061236465,10.780122684308935
2.184,-5.32162458988978,-2.266762400149446,-4.148320149045162,-3.8813063275542845,-2.2843281543589455,2.739903071616709,-13.3707087387902,9.229558854003699
2.188,-4.1593739829068,-3.5725771636667787,-6.78191645546076,-4.724241316835787,-7.472175784738965,4.2331484113149145,-15.185051900766211,7.49218851285741
2.192,-2.4412094134231666,-4.278103581184951,-9.231470450644565,-4.818982593810688,-12.770452302508374,5.394040062506065,-15.966716369197911,7.1167311008944125
2.196,-0.33022033593215383,-3.9792488542648243,-11.181878052270235,-3.720044348003853,-16.961253059779438,6.209062900662957,-15.321605621602657,8.888137495938281
2.2,1.9336719181153512,-2.6951022435687264,-12.277491740901496,-1.4174316678502237,-19.031850325771074,6.702601944293974,-13.177639243050862,12.510129992688235
2.204,4.089114848096642,-0.8196762626564578,-12.188753198301015,1.6477561262929612,-18.541319126044527,6.981095168237516,-9.782875399888326,16.836060173307487
2.208,5.924542205044418,1.125753759862846,-10.697471578100249,4.78543654399914,-15.736322416342205,7.236031515947161,-5.604027548032491,20.505379764176723
2.212,7.338984687965194,2.779295085446165,-7.766270528253244,7.373125977908558,-11.369989901413646,7.679802728444201,-1.1608528049871438,22.62655939586557
2.216,8.367142498441353,4.098949289574875,-3.575973598984092,9.119942681662906,-6.331886281055404,8.439798207009744,3.123075870927778,23.14071535684502
2.22,9.158739693180905,5.316729370473695,1.4866473835056127,10.150359579096175,-1.288076919551031,9.478827141156671,7.007748893064672,22.696426361820613
2.224,9.913716160287095,6.724269358834249,6.888005509629409,10.873180006595476,3.4748155829514644,10.587220124278247,10.437395851836754,22.139689401481974
2.228,10.799735943493033,8.439709890071413,12.036871180031767,11.71681690561735,7.948926495259343,11.472429225158066,13.454590902717655,21.94682584787779
2.232,11.890555884502419,10.299817852882825,16.396225977625818,12.893594444721998,12.150113310925235,11.91297228416056,16.087820071800138,21.956801437885588
2.236,13.15478164170031,11.945868237227955,19.590085769736447,14.317277482965835,15.902296233205846,11.893003126842132,18.275287761305776,21.54478976628434
2.24,14.47910202188632,13.039257529140627,21.463773724758425,15.69155266174846,18.802853838514466,11.642730663301563,19.85318708034265,20.110080973380263
2.244,15.725335211102447,13.472713318217757,22.090842962628983,16.714594887866156,20.398744950266632,11.54955775232861,20.629913538321944,17.580190914890863
2.248,16.78609399592301,13.443595026371327,21.7171356915253,17.262131073360592,20.451297758146723,11.97424524517146,20.504309050822485,14.602926248377571
2.2520000000000002,17.62239617188675,13.336577975561795,20.661866639579046,17.45164668056691,19.104956285104777,13.064272223379135,19.559477679694282,12.299711600704086
2.2560000000000002,18.283471310095138,13.500952501943289,19.221424440633655,17.568732347671357,16.85282746037967,14.661526721833752,18.077311292468266,11.7098444937169
2.2600000000000002,18.89764477258177,14.05782751910533,17.60531699271985,17.90481949274988,14.312004647135382,16.36231747726015,16.45796902040115,13.235232144466408
2.2640000000000002,19.631689884226716,14.851761679923584,15.934448550405193,18.60927109939621,11.95347705957289,17.71212588832111,15.070438563578364,16.404656358231932
2.2680000000000002,20.620465274802427,15.56286948005129,14.273398227873429,19.62599381116911,9.945313617842999,18.43232217046784,14.098307018321862,20.08591242078228
2.2720000000000002,21.87562625813166,15.887606671278093,12.661020446925932,20.734686412451197,8.180533843499859,18.556168918810272,13.467528701854746,23.046339819878767
2.2760000000000002,23.223523961103183,15.683078870641339,11.124241420418002,21.664137038747356,6.4613233337011025,18.402933975258065,12.907957720829586,24.56680063553904
2.2800000000000002,24.328791309757037,15.00579897595236,9.677149542450849,22.214874560542967,4.7126550173942405,18.395499289846384,12.128903126696912,24.780045897910213
2.2840000000000003,24.817688849639296,14.049305859555432,8.324598403392173,22.336984344122698,3.0913878518210822,18.819029486538852,11.027293658083806,24.567543331435218
2.2880000000000003,24.468771140351237,13.059148365859642,7.095491865162614,22.137316427332905,1.9448390412013055,19.65771532701308,9.81761929643585,25.076641970199944
2.2920000000000003,23.37267254575653,12.277119702288871,6.100905807106983,21.821658212445442,1.654878073548133,20.597266265441476,8.993279845892516,27.109981596157354
2.2960000000000003,21.955771584134254,11.924831439841086,5.572613848980723,21.596712557771752,2.4681192949816193,21.194127248825907,9.108149215763774,30.692140645385052
2.3000000000000003,20.8155181378184,12.194240656688152,5.831097777981256,21.571209248201058,4.401361789426602,21.120430123681786,10.47734260293629,35.03183740241184
2.3040000000000003,20.429256518879242,13.199394560770486,7.157108464273023,21.69768166848391,7.24244944247269,20.346921121892592,12.953146928676858,38.87122200711508
2.308,20.90196755060458,14.90861387464301,9.623298765107677,21.802650272343527,10.633983288301238,19.168007165081917,15.919074451728306,41.06200267736017
2.312,21.907156815278142,17.090654709840152,12.970986897405112,21.704054744378197,14.166125496602064,18.053548756275518,18.533009085073104,41.09169853160017
2.316,22.881502385376677,19.348320542555655,16.630572977921844,21.37467697067939,17.45071764760729,17.411319109890997,20.120853878085086,39.318017667784375
2.32,23.376934316397467,21.25393194087121,19.901010902488252,21.05407447082962,20.167696955780514,17.393664463526875,20.51198135110792,36.81151510417908
2.324,23.361896237162682,22.51695775156287,22.20545715419638,21.205504896314096,22.091177121159262,17.852711905162778,20.115391808653726,34.89094834888499
2.328,23.287145416106114,23.10730117128969,23.308438041003114,22.309795008854223,23.1283990747354,18.456010091848384,19.69609189436801,34.5915859835992
2.332,23.831671813980165,23.22252977637754,23.35955732360094,24.563459675816432,23.334237376900262,18.89287716665308,19.935649183987948,36.292021496909
2.336,25.465107721446998,23.115384748353904,22.73856411420269,27.639300337824807,22.877686997399962,19.051144356243867,21.019046722179496,39.63402565319336
2.34,28.081979129824276,22.894455038552564,21.793483698029092,30.681624470937095,21.949439329831876,19.065129285032526,22.497183568588127,43.72705805740691
2.344,30.944422729155804,22.425949004739664,20.62087398938513,32.60100312598951,20.641773341228657,19.214790144263247,23.50255824846738,47.53361402232474
2.348,32.998993158767576,21.422884801816622,19.02426777056064,32.56371634162531,18.875112119624646,19.731889156809416,23.215915155058156,50.246165105327464
2.352,33.39560835175655,19.6553172450665,16.671016254664778,30.425149328462055,16.408503538477646,20.6317706072698,21.315171537635138,51.49472333064614
2.356,31.92108423064144,17.154192157906664,13.35890583492801,26.86186344310181,12.968626379561954,21.667546808081966,18.161012253212903,51.344626561711266
2.36,29.115615907312986,14.277816735826889,9.241548747762351,23.10359506758948,8.462843274968918,22.441713389183633,14.628645203187375,50.150640799026405
2.364,26.005953618248554,11.577667930063456,4.876168810745696,20.36940082058794,3.165203162965497,22.617481764952572,11.684195283432246,48.369168964165965
2.368,23.61351761666924,9.550171621531433,1.0641859882466633,19.29101681476783,-2.225347226226006,22.11429558265297,9.947657215280287,46.401698712344114
2.372,22.518950378421437,8.424991426794463,-1.4252898265077079,19.642765666982314,-6.708025269205734,21.176487424839365,9.498758942845143,44.52479013537459
2.376,22.706048099805912,8.118318934041156,-2.10912190603176,20.52686398125678,-9.257544303578868,20.27582167912351,10.011770043180832,42.87978861397414
2.38,23.72701518617282,8.36724138638425,-0.9143417071733779,20.90330295896888,-9.157721529799119,19.890787331753586,11.083631535772383,41.49745602068242
2.384,25.04014729395817,8.946097058984776,1.8648703422548465,20.171895381127513,-6.260408100697305,20.26688917969682,12.52789795090041,40.33468826279909
2.388,26.28803674921062,9.806768990804926,5.713262286248153,18.4737270853754,-1.0660890978326165,21.27832055775798,14.433804902399402,39.31217339245313
2.392,27.371337382873776,11.054249493362533,10.064002926529668,16.563192514987065,5.414770761120451,22.472966271189875,16.97895629273171,38.38114005178409
2.396,28.315082708980867,12.782683097247059,14.408781394848631,15.337010928621055,11.963814922653626,23.275353359163205,20.12471079692932,37.576218628788865
2.4,29.075402321641945,14.903715947008493,18.34031269770918,15.312557880266468,17.511219677723545,23.25056675855592,23.433087594905942,37.02615070292177
2.404,29.4661638469305,17.103814745444026,21.562078468644188,16.36794988101275,21.42031219778528,22.30356453304944,26.153618398722415,36.8875226940786
2.408,29.262832414031664,18.969424169843307,23.8877582138677,17.868653536721013,23.588266780537083,20.72376831591987,27.55103736784497,37.19562338503761
2.412,28.394933538753776,20.179524974246362,25.240062293969686,19.066778097458496,24.326903916370895,19.042930214324088,27.270280096048168,37.717720832428085
2.416,27.07668168023622,20.639078583636035,25.643300885788108,19.52202774726169,24.11391593355853,17.789399943983426,25.517400094195068,37.93185691138956
2.42,25.744748408635246,20.45046170696321,25.180871275406673,19.281000725545823,23.324515024215543,17.25311923112986,22.93588356151622,37.182862342291855
2.424,24.82169700594443,19.745171374979407,23.93682781724914,18.73554740864097,22.074719602941116,17.373912309525622,20.251077721033084,34.994857118802656
2.428,24.44509250866622,18.510159542125336,21.95018872710824,18.27580271585356,20.24348664018845,17.789861519939905,17.89459777336117,31.371401855913064
2.432,24.34211977942357,16.55026521577281,19.231712018464577,17.984510586415013,17.644884652100586,18.01842577886009,15.83515200333511,26.90352647669215
2.436,23.952366718777284,13.643710418233582,15.845453945030897,17.571147104174088,14.241544956214852,17.6793344858811,13.708562097209779,22.574191825179696
2.44,22.735826473296243,9.798033729250847,12.002453593881512,16.575294041767165,10.264014063548416,16.650551387131145,11.159967064682178,19.31399700746556
2.444,20.494753863581423,5.427557916315209,8.10893618034953,14.705127352209956,6.167774755388223,15.112015766809236,8.171080472296808,17.544639488711255
2.448,17.525392055953034,1.315904848453897,4.712595666083928,12.086449470281934,2.46279171614583,13.476378079809592,5.181656006548906,16.957029661716433
2.452,14.492898479615974,-1.676981730996431,2.3360654460134356,9.250854087570815,-0.4980591736602946,12.23240933095235,2.92123452732028,16.680572377300223
2.456,12.100842631415276,-3.0098229824924374,1.2738839186145583,6.869108742786011,-2.6355208605677944,11.765509590896272,2.040184940004906,15.769851978368024
2.46,10.740653888400175,-2.7310380404902617,1.456976260009128,5.391856777485032,-4.092319130614555,12.225777260233599,2.7678328565529,13.75550380353775
2.464,10.309072302764548,-1.4698405199852687,2.4640643265090034,4.80921490600474,-5.050279153166684,13.474737109900389,4.7830576872662505,10.943920173072684
2.468,10.293259779684831,-0.1218917124441532,3.7011933177844867,4.674329028982584,-5.516618848513417,15.122455652217695,7.372316356802003,8.282027876615075
2.472,10.054726763835902,0.588563892236948,4.662647287357402,4.3726130606594324,-5.239113974460906,16.653294565727037,9.783581721224778,6.847845463669046
2.476,9.165572655186224,0.44091871459454524,5.156890072911779,3.4830857618277378,-3.813177684543689,17.602547443628737,11.571103995967633,7.249809917659604
2.48,7.615337420602373,-0.2339546286358427,5.383002325961911,2.0278894070720526,-0.9373557481342232,17.720895641705965,12.755912485309182,9.267337269229984
2.484,5.797619462361126,-0.8096882041082836,5.809039763490205,0.4794319426700895,3.3093520526476823,17.062419071714658,13.7217740444205,11.926325392991203
2.488,4.294659019943538,-0.759712940801478,6.9045614576353955,-0.47839140431528904,8.3329616646364,15.950140160699902,14.895140832293691,13.963422274225877
2.492,3.5741669928818283,0.020306963187408655,8.846797500042385,-0.3021143678020053,13.118158429659275,14.827465251176818,16.39772215393714,14.415840510803037
2.496,3.7625370873258817,1.1490612043529609,11.355150889492279,1.1362756862532706,16.546478749812422,14.05564839180147,17.87300281657008,13.03511003669064
2.5,4.6022908027143785,1.9852179271308614,13.752040213227247,3.491756843822486,17.81197171414385,13.759152540305877,18.600435714451578,10.345684133008717
2.504,5.599451177025458,1.997568811764154,15.238333886234159,6.123257932510683,16.745539486581038,13.805802822607347,17.861095308965105,7.358987697802604
2.508,6.277112804918261,1.0811393532227385,15.263447390208512,8.404134154725284,13.907938199596856,13.92998858025203,15.374104657925272,5.128030608227164
2.512,6.390594330423255,-0.3748195050601453,13.795162873044205,9.992007833633807,10.38557966528424,13.91158566256604,11.560360796265059,4.352343270075835
2.516,5.992247960477471,-1.7022172229700345,11.342893461376434,10.910138026257641,7.3642607949210515,13.689851505137767,7.461251187022981,5.174212806967262
2.52,5.309884484333452,-2.3395787976668316,8.686977276602875,11.39799807404927,5.640294599623303,13.332522855811021,4.29639209027323,7.18146092501911
2.524,4.505394073373964,-2.199080529426851,6.421629961703957,11.619928615209687,5.25745225838341,12.866980156709133,2.8358612488868857,9.535563191450365
2.528,3.4604697009574465,-1.8048736960257656,4.55459044806571,11.400376226846447,5.440946785843721,12.0881197159149,2.903911558686559,11.152289527729408
2.532,1.7305462907754645,-2.1150897819904912,2.4089010386297787,10.173054320113579,4.877691246818927,10.508745946530098,3.319571059404325,10.936402739022014
2.536,-1.267677685454828,-4.08041795529698,-1.0578838824492323,7.220161966106502,2.2666239297000175,7.541340320861536,2.378572496547804,8.069397827026933
2.54,-5.902475010461785,-8.133638250272384,-6.62434032994895,2.1153639286584394,-3.0559670757336335,2.8551704752185287,-1.298272606221417,2.337291686122171
2.544,-11.984248121841574,-13.860525277376269,-14.172829260379558,-4.853559590172722,-10.678066926427505,-3.2742646049093764,-7.942661320099887,-5.621350501316101
2.548,-18.614787563504706,-20.004326478784378,-22.399569317111514,-12.520182708244988,-19.055065677839593,-9.844927268394486,-16.274571207919735,-14.292922496693336
2.552,-24.35064018947969,-24.83545035253269,-29.08932408310727,-19.07227117112143,-25.911972904360027,-15.356356403151949,-23.838324241326518,-21.60397567323207
2.556,-27.65250396468241,-26.755158538544492,-31.91604428171013,-22.649126706430252,-28.995447594093775,-18.328668402496305,-27.950312838784612,-25.561970614145594
2.56,-27.4370312722142,-24.887406245827265,-29.44141009100167,-22.058111196936125,-26.899769278242275,-17.885132397446796,-26.842251155324675,-24.988800360772075
2.564,-23.486836245910354,-19.409534758443556,-21.835997020165223,-17.27542848769201,-19.639382311267013,-14.112719026309605,-20.461582032687147,-20.01602332443963
2.568,-16.53892888290443,-11.482032368580576,-10.952450723428797,-9.481741561909075,-8.71252372105937,-8.020246293580385,-10.523829285141346,-12.0895551841636
2.572,-8.030743955522894,-2.8296665838926174,0.3157645878142148,-0.6062237473881851,3.3776493695045247,-1.132955097346894,0.20531029647600008,-3.4420756027957395
2.576,0.3739415849527177,4.849470612367668,9.123161744708227,7.416152176728474,13.963147823055692,5.069041687813751,9.043705478568654,3.749630469226304
2.58,7.274781568123672,10.40428627048675,13.720677868516987,13.329276330271568,21.07747840934121,9.609168619223965,14.40199943853031,8.144428451955719
2.584,11.849680995047493,13.474792607628274,13.995928222140492,16.869185479038606,24.00186541875587,12.180796557610847,16.20049082660171,9.601300503126367
2.588,13.92313616401384,14.412500979701463,11.295225913718014,18.597742768820467,23.30529233818811,13.016419685447545,15.565468662809053,8.993664128746786
2.592,13.83833430193613,13.962659765287526,7.665690741627259,19.397612394779685,20.406709386772604,12.606625508706657,14.023022465540862,7.63054388559658
2.596,12.240358304576603,12.888319277657615,4.9156214907658295,19.921499703221343,16.89194937714501,11.452263623394629,12.67250730901742,6.584286228955989
2.6,9.867367271676585,11.701680420572757,3.929153806260615,20.282948812165614,13.890013923557035,9.959723775775728,11.763455514695352,6.262489824753175
2.604,7.395761520923543,10.580751239258234,4.510977166268503,20.126249072093856,11.770718379411392,8.46338242548245,10.814260967568316,6.388731962090333
2.608,5.33405722871089,9.463419990959665,5.744437273035828,18.97436142419224,10.241817091778103,7.271117807414612,9.138868460706817,6.329516258050262
2.612,3.945609438170777,8.21986370796867,6.606124756507711,16.617963092085347,8.727973390620946,6.635423477841869,6.420117738066438,5.5412062839063765
2.616,3.2085474381774475,6.807448318074876,6.499137200104428,13.312320869020368,6.81629092305684,6.644719573415841,2.988755092333804,3.8810672593567688
2.62,2.84337383275556,5.3344237075943965,5.46298055643183,9.67853509149245,4.535296946385415,7.122054408688655,-0.3160649083970384,1.649443894459182
2.624,2.445503164665979,4.030738546204475,4.032863819225895,6.4125568563104025,2.356127180425574,7.6440392660056204,-2.571896887903904,-0.5901478693535864
2.628,1.6847409184372282,3.1581983131493416,2.8732083589463855,3.9797869091967186,0.9373441174916479,7.715016768122041,-3.2185641408104857,-2.298561150252681
2.632,0.4889348620324654,2.905023768156525,2.4206858818323553,2.474704146809472,0.7631420009558951,7.025777990766528,-2.2875807489422186,-3.172345518230486
2.636,-0.8996794842933014,3.3017611193452012,2.705325652065312,1.6929224499820066,1.8588367924514841,5.63775573754674,-0.3269580997950925,-3.2288537757558515
2.64,-2.0330840701815305,4.191435923923336,3.391273789194088,1.3367294856088847,3.720300878683929,3.976016273406458,1.8726902613925631,-2.760088578313116
2.644,-2.485817838887897,5.259302044835522,3.986097496889556,1.20657909289298,5.4957192236977335,2.6157687234544937,3.598720099401362,-2.20635022364786
2.648,-2.0822352091624907,6.12926882799411,4.088769815363321,1.2606459435605757,6.339091678229352,1.9840389140294974,4.418824738547528,-2.0179689256797246
2.652,-0.9953447676543874,6.4929265476175715,3.5572395977720817,1.5288037900559175,5.763418853092617,2.1524969000920464,4.204943166803332,-2.5455485133488764
2.656,0.33957091813226725,6.22934818922181,2.5478496162872943,1.9710903582772517,3.838862336283455,2.8332796676772887,3.066710836136508,-3.9531808997808184
2.66,1.4346855363046416,5.450236492730255,1.420126913795002,2.3920988666450285,1.1412226109123367,3.569427725660262,1.2535155651848982,-6.162985975821357
2.664,1.961103081951478,4.433877355648065,0.5655088094642906,2.4878524975283653,-1.5256314743658095,3.9977449579278073,-0.909980076989541,-8.84810940747002
2.668,1.8395848216850936,3.479787460825719,0.23435155302718158,2.000038860669747,-3.48897855556379,4.008797677668554,-3.0670092737238974,-11.513848065101683
2.672,1.1772157137129398,2.748128669437847,0.4227574554747662,0.8746367529765848,-4.487905667375571,3.7235756294467137,-4.882490776722989,-13.6667720892965
2.676,0.1269254144281149,2.1820344412451504,0.8664851281571373,-0.6777248420348769,-4.73616129066977,3.3256137523922007,-6.131301304743602,-15.013220481207554
2.68,-1.2159559997826364,1.56351807270903,1.140687045711502,-2.261292725796011,-4.7484079869418565,2.8762484897374634,-6.771345240857272,-15.597515748675505
2.684,-2.8117953958740145,0.6683247406128885,0.8316466416758885,-3.4754463534870865,-5.0404890107140545,2.249728187677647,-6.9651572075695185,-15.79923873246571
2.688,-4.570106168915572,-0.552793997819208,-0.27843329539905426,-4.0918867674377,-5.85564728168697,1.2311156766195381,-7.000990366911992,-16.161436384289118
2.692,-6.242116020193407,-1.8950362314376434,-2.0984965862503486,-4.142257239348055,-7.067374610456454,-0.2919295669121311,-7.132715310364347,-17.1145740849488
2.696,-7.419893311557189,-2.9754186195027614,-4.238681016029659,-3.8722366849701757,-8.289061102092091,-2.1872775827050646,-7.441341765359539,-18.751809536813198
2.7,-7.671275652589429,-3.416195457031563,-6.133434128203362,-3.5919293624588136,-9.10128356709265,-4.079056974250307,-7.777229807914409,-20.761089813157014
2.704,-6.768124836869447,-3.0560390461903353,-7.250731661314376,-3.525737287230413,-9.284039572336042,-5.510171241520311,-7.855974831864387,-22.591585816478982
2.708,-4.847462701416134,-2.031113552945044,-7.278154088401152,-3.7143256050321725,-8.890544532855984,-6.154483098001492,-7.436965345050794,-23.739333746785633
2.712,-2.410715971378977,-0.6951885845378456,-6.224160601652329,-4.024921524917545,-8.164468498194537,-5.9568349370765645,-6.495845155397092,-24.02873418201216
2.716,-0.13551995074567458,0.5780504145504892,-4.396246399796837,-4.2435878837807195,-7.359236798017264,-5.114839147075145,-5.283828380801424,-23.692361165616603
2.72,1.4070467612782522,1.5859547809156993,-2.2785301586125115,-4.201382994475125,-6.5935355727692695,-3.9417873693587353,-4.226753791180727,-23.230993383333953
2.724,1.9713100206381569,2.3462294481939807,-0.37348745655367566,-3.8782465386448166,-5.850022774960735,-2.7102482712352867,-3.729356307285798,-23.126862420348516
2.728,1.6895982825380997,3.0018984666423876,0.9388409595610483,-3.4229013512772326,-5.0911526647144,-1.5762883795168818,-3.9797269359155507,-23.575002148480962
2.732,0.9311092267812455,3.639480016188827,1.4718447326301884,-3.092164359739627,-4.40451914672758,-0.6200056662769384,-4.867204583983494,-24.379125536050196
2.736,0.08246220558771711,4.167013481667709,1.2440257956628784,-3.126794202175006,-4.046764343393988,0.06044220183184734,-6.0404119304364485,-25.07829776639528
2.74,-0.6302434235681176,4.333388220638199,0.4339956547926249,-3.6239524410348167,-4.337984197965625,0.3008301655240757,-7.079978297007074,-25.20867590727312
2.744,-1.1923950254340525,3.8781349480998415,-0.6913063505094215,-4.469033882334543,-5.46326872164741,-0.08290169675956349,-7.682162271216384,-24.558522862164864
2.748,-1.7147777501054406,2.7237510615741485,-1.8531020738976167,-5.3631822152415225,-7.297667459772811,-1.1662924164561446,-7.773575030674465,-23.274367242557673
2.7520000000000002,-2.3005264541734505,1.0627080015631236,-2.842331118453785,-5.953483607848966,-9.402109803452959,-2.7905763033008952,-7.503865563821137,-21.772741674031295
2.7560000000000002,-2.962155655470042,-0.720370763506935,-3.5840685775269776,-6.014971430532569,-11.210107350182625,-4.5633234033580266,-7.151371077229442,-20.527822570020817
2.7600000000000002,-3.637292290412688,-2.248608568017744,-4.169126375981023,-5.59545482623821,-12.316733576752085,-6.010484840246136,-6.991202210116398,-19.862334200704936
2.7640000000000002,-4.276271591866589,-3.3489092125093975,-4.822475821713624,-5.0382564633628135,-12.699347172333091,-6.797986933597258,-7.185456613169663,-19.85137080826098
2.7680000000000002,-4.923859349723216,-4.118868464238176,-5.813332833163713,-4.855066525373559,-12.730073154433967,-6.893088799137331,-7.740958744559521,-20.36416108297726
2.7720000000000002,-5.731657447226098,-4.836339902519967,-7.342041787918333,-5.49629762195741,-12.969225227922152,-6.567609061593885,-8.539370556904032,-21.182184091175714
2.7760000000000002,-6.8736398438736614,-5.768284319407485,-9.436396907396329,-7.117277942218834,-13.834973692378753,-6.227068195483753,-9.393839828531554,-22.09450561452786
2.7800000000000002,-8.44031821358044,-7.02608235751336,-11.923234752810117,-9.47917331361532,-15.353271716900963,-6.176399236054294,-10.117881290355626,-22.919599004577776
2.7840000000000003,-10.370545306017902,-8.548876183690936,-14.475828703959905,-12.034745297474728,-17.13414962736806,-6.455463333812531,-10.573482550451217,-23.47217339156896
2.7880000000000003,-12.465017245072431,-10.20058597498246,-16.712753836487423,-14.165405486653299,-18.57296043703991,-6.853286745097648,-10.683077369094008,-23.549863802649725
2.7920000000000003,-14.469987189763515,-11.892056331793356,-18.302398276395024,-15.448872154761602,-19.160750397669517,-7.0809848548865375,-10.417415208387638,-22.969775086276968
2.7960000000000003,-16.174198054786757,-13.613083858963137,-19.034886046920292,-15.82390551642493,-18.727850781770712,-6.9897340887728205,-9.785166721007272,-21.670966875071827
2.8000000000000003,-17.44851141353911,-15.322142947360362,-18.83707839794738,-15.554096418325798,-17.476389337564797,-6.684311460754543,-8.830399617374269,-19.809430255078496
2.8040000000000003,-18.21740584597842,-16.784374767531517,-17.749723554344655,-15.02145687720133,-15.805374584072752,-6.452532265424452,-7.632776484330179,-17.748669462436283
2.8080000000000003,-18.40012082496878,-17.497488739829578,-15.898249868975654,-14.477783599404347,-14.046600242023032,-6.553306621946376,-6.310113694700931,-15.926267344677854
2.8120000000000003,-17.89337097810767,-16.83888425931832,-13.48937926368751,-13.908650920681339,-12.301446106740514,-7.012404203996539,-5.020588229089526,-14.659555304429887
2.816,-16.640106877487824,-14.40914626037079,-10.828972870864959,-13.098897083148813,-10.484433678842606,-7.569033219391713,-3.9475820563509387,-14.016644812981667
2.82,-14.744238923587545,-10.379323170344605,-8.310174979673434,-11.842804764449511,-8.519843820229653,-7.82268023393317,-3.2510935494692603,-13.822405536094266
2.824,-12.557813656510689,-5.623177876421437,-6.348583471365146,-10.168870521708868,-6.556692858286624,-7.489899070219963,-2.9973237515278015,-13.796415573138802
2.828,-10.655487840087517,-1.4814821868263834,-5.265727862756535,-8.426026193745884,-5.028667404560224,-6.61354657130596,-3.098330801780776,-13.74986285930845
2.832,-9.66118320036685,0.781860785750041,-5.1620748915511285,-7.1477752974564055,-4.489580726375493,-5.576490839494909,-3.2997749355665746,-13.678086242691279
2.836,-9.986167180053371,0.5803739775714121,-5.854275925093361,-6.768788613464153,-5.30235130434221,-4.9017311531629275,-3.244953883619928,-13.704887458817211
2.84,-11.61196347466057,-1.6648479156309577,-6.9273571453205705,-7.36003269839955,-7.363479450633463,-4.954803755459579,-2.598925013978487,-13.903310527095982
2.844,-14.03956417144002,-4.681954082450147,-7.88893262922744,-8.541121260503246,-10.052095013392545,-5.7252103752268795,-1.189034132333859,-14.12715268840077
2.848,-16.447229880605846,-6.92916604320942,-8.346310261886913,-9.635180366658346,-12.445403885568226,-6.824332733945198,0.9018351572246956,-13.998954635689643
2.852,-18.010407353664505,-7.327862460366191,-8.126569160983081,-9.988689354474104,-13.711221025056602,-7.708818062307728,3.3517758584603143,-13.092341311461496
2.856,-18.238775692899935,-5.771950598846729,-7.279727962122138,-9.289757459150337,-13.474257556605835,-8.00548257802393,5.730691139773853,-11.246582770477744
2.86,-17.16170248893991,-3.134219900696394,-5.974742143516778,-7.700314268581678,-11.935993546849431,-7.729818690192133,7.672141727411827,-8.761102891099654
2.864,-15.288948727939442,-0.779422596372342,-4.368647535275386,-5.7449028751960896,-9.704206607707306,-7.277502271951107,9.019161722975241,-6.362483304616944
2.868,-13.353800816901412,0.16694160632766852,-2.5287208039221696,-4.016262390691281,-7.416634712328801,-7.187384032225282,9.874466806375722,-4.89270321715685
2.872,-11.989930018116638,-0.6200777823578392,-0.4666151778171752,-2.8814209866893634,-5.4027250057916945,-7.832256183452955,10.50916113006815,-4.885846766845589
2.876,-11.48079387101484,-2.5466771112935476,1.7627774835488026,-2.340247049965683,-3.5563971880344525,-9.216069385422088,11.198448659246196,-6.2662163542763665
2.88,-11.688318989475647,-4.47115133931743,3.976651705361064,-2.0979793915134906,-1.4907523426151101,-10.990262859712857,12.069035088932424,-8.353513391512479
2.884,-12.170997042943327,-5.347611541546371,5.86982403337845,-1.7822534337669822,1.125761562719731,-12.662221958353939,13.039479049366946,-10.179233846196894
2.888,-12.406765796534955,-4.771598564004535,7.136511604583347,-1.1645749428868157,4.2743367781765755,-13.854654734851465,13.875485981396878,-10.941970046453207
2.892,-12.01172164863442,-3.1522566610941567,7.6333897041635055,-0.2606444158080876,7.502360997124356,-14.458271921526602,14.31504146805878,-10.356554932958716
2.896,-10.871550578971437,-1.4497949023946148,7.470892341222907,0.7210458444737924,10.097895446531993,-14.597239675211767,14.184554113570812,-8.719667310948807
2.9,-9.15691355513195,-0.6510266390337165,6.962846853266683,1.5206037206507972,11.422533160681496,-14.458412793444495,13.443216744350138,-6.670538044107161
2.904,-7.2466778141583745,-1.2880432130879171,6.448197487355401,1.9552832212760904,11.193490791415798,-14.125654386357382,12.145853118172226,-4.839991676171621
2.908,-5.607549668597585,-3.2441350409005736,6.081003044427121,1.9622011178640832,9.574659179173523,-13.54185337847207,10.377548793326241,-3.583423723642227
2.912,-4.658645809328618,-5.906003652983145,5.74175434949359,1.5561700462512817,7.046134799238985,-12.633766587747004,8.227794646928032,-2.9466479637774228
2.916,-4.643260633018144,-8.525044189212963,5.134223163908132,0.7730486994366856,4.160632746284932,-11.488759976711435,5.831772320357686,-2.814276644337042
2.92,-5.530743475501708,-10.564405307146671,4.01674964426104,-0.3425606319800636,1.3369632663476523,-10.438512648381675,3.4442211982992603,-3.0996502671289363
2.924,-6.985697856363458,-11.861064159570219,2.4264523837516094,-1.6913212160270632,-1.204342324480308,-9.96158051867451,1.4728637587527373,-3.8058624576058264
2.928,-8.430320309367858,-12.543609368238435,0.7512309226962657,-3.0560975510950357,-3.346455594394456,-10.425403925344881,0.4047969794303299,-4.914148150171513
2.932,-9.221964158329001,-12.823253660062619,-0.4247623215093199,-4.105584414806458,-4.94069694767677,-11.825875243797327,0.607973810753947,-6.209473997948862
2.936,-8.889143498268595,-12.800023169056658,-0.6153398461675579,-4.48595592469178,-5.73627450083643,-13.688352796927575,2.113440690773473,-7.223560852717583
2.94,-7.33690851841277,-12.400262243561883,0.29708145816562137,-3.9724882863866355,-5.439793668104471,-15.225684034728602,4.507061026421184,-7.403663352091371
2.944,-4.920065487890156,-11.46140696892553,1.9909662391638676,-2.5939182032586245,-3.8682520800671227,-15.689050264218395,7.02223101266361,-6.443442200602476
2.948,-2.30978459512437,-9.867449043855345,3.887808119902502,-0.6384989331502311,-1.0808844439106906,-14.729134327355496,8.829769446844125,-4.571549995165924
2.952,-0.2066733387109707,-7.649404711648231,5.471455097567173,1.4751416911660726,2.5892783037122626,-12.564597933984487,9.40222713113485,-2.5767278021742186
2.956,0.9677473449504532,-4.9972128460270255,6.551089061703237,3.39251521441696,6.634066897606772,-9.867394802467743,8.749253655297593,-1.4941341148819447
2.96,1.239235045309897,-2.2018813868725147,7.301193394899428,4.9678225442272606,10.530527454227013,-7.434060799183499,7.4050944582088505,-2.087855649745052
2.964,1.0106145373639492,0.40923294420133516,8.053312376915812,6.272857751106869,13.861851603626178,-5.820186505029028,6.151225894441382,-4.402072400112729
2.968,0.789329238901928,2.5061345276419047,8.968663181431168,7.462233790735468,16.343893807740642,-5.135951976814795,5.592514205910902,-7.668824961056998
2.972,0.8737544341039438,3.7723857163206844,9.821419397972932,8.593385757924466,17.773116693350232,-5.096407389273054,5.836746128621257,-10.655179882719722
2.976,1.179707008305968,3.9559951651450547,10.060524175176624,9.52834436986069,17.98921690435924,-5.256185320901068,6.464789750328009,-12.257362296041038
2.98,1.3076833254006033,2.971372727638027,9.129422803433215,9.981331882824065,16.90980494472791,-5.285365726959412,6.799502688704251,-12.039241138490297
2.984,0.8051705476464122,1.0019208000628623,6.857551255042665,9.691542422983844,14.62522009478704,-5.123197537961005,6.3325151704133305,-10.407078355264048
2.988,-0.531428850212933,-1.4671269819940562,3.6766526446110106,8.614955552608535,11.491978792425584,-4.937786578903797,5.069327843611859,-8.325402467321737
2.992,-2.492957701426235,-3.7499784719684612,0.5172865129276261,7.01716919686686,8.128510550441717,-4.943518827738217,3.598561815693756,-6.742937688162101
2.996,-4.530473561294912,-5.191291328331715,-1.5807862322008077,5.405381077273319,5.270836492285923,-5.209216857338333,2.82696804369084,-6.0623874216030345
3.0,-6.017985810867458,-5.426213688244502,-1.9369891567396849,4.332459868659782,3.532102400825579,-5.590676076575733,3.521886159083124,-5.971745319510205
3.004,-6.561298853300286,-4.547037826969131,-0.5355350701481711,4.167359816799376,3.170036428653191,-5.822205134353453,5.893144356571042,-5.724136177462924
3.008,-6.157618632007825,-3.044343224857357,2.0135655318505883,4.956191857117119,4.010390439897378,-5.688904040818329,9.453320546704106,-4.684100432210812
3.012,-5.136462834950066,-1.5548821896522327,4.804201926599717,6.42747479380256,5.552623316905738,-5.165894447664186,13.21765644200616,-2.801381243281753
3.016,-3.938303193472393,-0.5497197106359977,7.051847867283811,8.115473418513972,7.201375626100173,-4.4434056567315565,16.126587536099237,-0.728379376942712
3.02,-2.8692590974376913,-0.12438540822262212,8.376805862132926,9.536658602532327,8.503022342925476,-3.815793419057627,17.475121197532985,0.5113997265025318
3.024,-1.978243486480551,-0.01875262903206476,8.819744073630005,10.33954628687735,9.258019401107731,-3.504638770114525,17.13131081091484,0.11009588909769263
