Timestamp,O1,Oz,O2,PO3,PO4,TP7,TP8,Fz
0.0,-1.5347723092418164e-12,-1.2505552149377763e-12,2.842170943040401e-14,1.7905676941154525e-12,-9.663381206337363e-13,2.6147972675971687e-12,1.1368683772161603e-13,6.934897101018578e-12
0.004,5.9498302571659,12.218146464486267,11.444384681150154,-2.109982315224073,15.214674216037906,-9.430270301885571,-1.8255102355741997,-12.891577032845817
0.008,9.831088845833449,20.911937030530737,18.698963795389318,-3.9878373125674216,25.3201491254419,-16.0585296335895,-4.010694677930076,-22.774169051377953
0.012,10.580801037541391,24.128282213715124,19.54282282172943,-5.442706997952541,27.580206954226014,-18.275181307461025,-6.567669195121539,-27.70872319849127
0.016,8.59924125916325,22.251859387423536,14.671740341670102,-6.372792605723362,22.754556204481844,-16.27944887855483,-9.046353310463758,-27.46364577711779
0.02,5.440798503146084,17.625986201421,7.160947263995041,-6.810143051665648,14.44552554070043,-11.837599356856913,-10.753026741800795,-23.47287475643384
0.024,2.9258370960772595,13.257881302830185,0.7899335389111855,-6.913291849748873,7.081799839134391,-7.323815295994223,-11.14851833295262,-18.12186596414108
0.028,2.2152067674722957,11.367407432659093,-1.813471582036641,-6.880827983011159,3.7325689686147143,-4.553256741666587,-10.169431471507949,-13.695939354569987
0.032,3.352663425350954,12.528204461458472,-0.2218643691632849,-6.815946569094223,4.928369132480952,-4.01222620900819,-8.259659619060699,-11.474384434482886
0.036000000000000004,5.478981678635364,15.765561209432576,4.021815214336755,-6.615256886652446,8.997045850485847,-4.844071993037119,-6.088885390404812,-11.36638936386521
0.04,7.509963331251072,19.412539320703218,8.609890961933957,-5.976189894965756,13.512605284825383,-5.5353911621011775,-4.162498932943322,-12.223295342425104
0.044,8.792984641662372,22.087064922494335,11.834446754607484,-4.557658276609317,16.81634371353158,-4.87232876713108,-2.5738987943063876,-12.609107912231025
0.048,9.35612223220619,23.24860779100186,13.318556562279355,-2.2342434450905557,18.71940570291946,-2.639552400614207,-1.0761489723446402,-11.624761317369575
0.052000000000000005,9.66681481059203,23.13798988689726,13.818366220437042,0.7171855177137445,20.125578363163896,0.29159979164762717,0.6005550135595286,-9.366600322088061
0.056,10.142328440793051,22.31310429680073,14.39911947212181,3.6465677396030287,22.018684366502157,2.4904055624670036,2.4241854057534056,-6.798761671425382
0.06,10.804753781587635,21.211531133827236,15.615795696772068,5.8086642825097385,24.6178333842127,2.7937658980901006,3.9800722036162597,-5.130871542497516
0.064,11.295716618066137,20.002540653816737,17.22027185133078,6.757726589610002,27.23000780103999,0.986953850095972,4.731391683726088,-5.036323305368683
0.068,11.220051566935126,18.758813694205855,18.504780659277884,6.619768644865616,28.832842375127342,-2.0380451013447214,4.447497497052211,-6.188525746137316
0.07200000000000001,10.543988056455646,17.704939642112976,18.9431727209122,6.052941558231026,28.89444951997362,-4.739414713653844,3.4725138701585365,-7.415254097154957
0.076,9.702663155872187,17.239268912729557,18.608576588774355,5.862424032548688,27.781922381410112,-5.759807868809901,2.5708992220643268,-7.426993388780943
0.08,9.302075204662742,17.643199816712354,18.02591086602422,6.447916770860786,26.44340168134613,-4.704884135169777,2.3595767349092966,-5.735950024325803
0.084,9.581275610011062,18.634411774537654,17.562088983291517,7.412693764805198,25.547564961878265,-2.440969246379723,2.6580405376948875,-3.2012330404124896
0.088,10.03263282432539,19.165403371893717,16.83776305269535,7.614204537345444,24.7457234648995,-0.7390105794760871,2.224562526957243,-1.8209905310374097
0.092,9.512963678708786,17.74822012535884,14.678346121523788,5.709125570408617,22.665557783640395,-1.4230724918201645,-0.826842854603342,-3.7964941271126236
0.096,6.871959763237442,13.245132366625825,9.779182857263265,0.946032690523225,17.75495245087305,-5.437057591197743,-8.010779092050427,-10.317453353495807
0.1,1.776077451837864,5.725785249435546,1.7335380597316146,-6.21601652362088,9.505104035815378,-12.281560225613305,-19.36064764426294,-20.712570581246098
0.10400000000000001,-4.798061427825786,-3.1849822062374358,-8.242289922816667,-14.02882183697966,-0.7751046622429385,-20.082113305392397,-32.8752427488551,-32.43666059678975
0.108,-10.749873386456215,-10.758718858599707,-17.433676500831425,-20.034853654199566,-10.188216625896274,-26.290602484443127,-44.95014687946002,-41.991457448484994
0.112,-13.692539892624637,-14.259758297838204,-22.65296266011208,-22.053416439125698,-15.442889001772357,-28.712733781478903,-51.70579823920923,-46.37294007775233
0.116,-12.0419650813825,-12.155888926273263,-21.675036129502587,-19.098868313891074,-14.397549935368744,-26.39715301917795,-50.61770090664274,-44.34018876114982
0.12,-5.780052345028366,-4.816209093532521,-14.340880286471233,-11.791581193805015,-7.108644941844872,-20.00349890838271,-41.66044781057522,-36.89351964867916
0.124,3.481772180756195,5.61996497337492,-2.7357317029270405,-2.078394297578143,4.138747577421981,-11.486329262105926,-27.368776621328664,-26.728271747717486
0.128,13.178550107548318,16.15109775466661,9.673159953302545,7.580698246696386,15.845210883222649,-3.260465776923013,-11.772256309580541,-16.97080205638821
0.132,20.855138331910553,24.134898008946067,19.509179112051612,15.146275247262338,24.81202017998146,2.7459588081856054,1.2649910818064143,-9.866379243426309
0.136,25.071405464179406,28.21982673595852,24.815519113237514,19.60605453352065,29.362657309596358,5.7171425832777345,9.479599731166928,-6.0797039860364634
0.14,25.746440848391956,28.603180242154565,25.601800855750582,21.031314628942255,29.71645686569653,6.015878564051832,12.761909108428938,-4.872873026006346
0.14400000000000002,23.83747285308698,26.55507756216187,23.412850862267987,20.171895665450364,27.40966051373971,4.751241722244686,12.672773920965597,-4.901554116233683
0.148,20.648991194315613,23.59250011668786,20.2609648616924,17.894505739929627,24.231096047558395,3.1193293295898457,11.304320652459012,-5.097481409905527
0.152,17.207166924734338,20.792342656424353,17.582286412546324,14.797925528130094,21.33244233703178,1.8529499921298225,10.16607622853735,-5.133689103170013
0.156,14.000134224438966,18.548006010135225,15.760270606386143,11.162239941038507,18.95573479204998,1.0171152887330095,9.655209465485598,-5.28593477788138
0.16,11.126097129141726,16.782785111013,14.346125057203011,7.156002964667692,16.784166990314077,0.19235195471901534,9.267948729949865,-5.898649428844465
0.164,8.60030043986734,15.311692061914044,12.68951161179217,3.072905613886178,14.502809601775311,-1.1145201462429668,8.290396449174352,-6.884646282192193
0.168,6.558138148254386,14.083089584129766,10.515966104092087,-0.6072258121520235,12.162467594935066,-3.0969874386111087,6.452584731849811,-7.635753683533267
0.17200000000000001,5.206228870631776,13.16280604307704,8.108060661670692,-3.378887641252021,10.135908388306603,-5.514725331091199,4.142326318824303,-7.424428817530384
0.176,4.596547700120595,12.540407456765934,6.046045430685183,-4.9627450496448375,8.767179272150031,-7.839851403202374,2.104728179332767,-6.010980449759586
0.18,4.455765570145616,11.990775077324315,4.755382739772813,-5.444085725523536,8.041742812658356,-9.552843302373276,0.8947657659514334,-4.0014972948004015
0.184,4.224843712510335,11.107213406230983,4.185759643404879,-5.1880538029263334,7.503465875131553,-10.380916450804193,0.48684505025750013,-2.652657260128649
0.188,3.3523399372824656,9.545678505960836,3.8510487829618683,-4.579919939388844,6.527869598906761,-10.353471773155547,0.29534221466985855,-3.185227911733591
0.192,1.66872950711479,7.324264032801011,3.1999766658208273,-3.7722825651365497,4.775176952253105,-9.687934393204841,-0.42687195033624903,-6.022158894069889
0.196,-0.42022078806598984,4.949498610135947,2.0548685791394803,-2.6304108333755494,2.5027827658748834,-8.612237208943156,-2.079091662207702,-10.433080648936652
0.2,-2.0782475694475124,3.2512603296681846,0.8027173949076314,-0.933441128735808,0.5135930195544347,-7.250063576777734,-4.432864268496701,-14.829615885920248
0.20400000000000001,-2.5008250212385974,2.9404421260293248,0.17502047016114375,1.2966169414175965,-0.3147160297077676,-5.623471392186161,-6.748936191972803,-17.546739522721964
0.20800000000000002,-1.4211787348555163,4.159483953565427,0.744342293837235,3.5713223661464895,0.381217239047146,-3.756423470818504,-8.211244084674604,-17.68431094537482
0.212,0.657806866408805,6.312621335620122,2.463913414912838,5.0130319979032265,2.135918452401768,-1.799420750405261,-8.416049195666119,-15.543376786085219
0.216,2.669340312567442,8.300386807814789,4.553121848336502,4.7433529441944415,3.8365605801383253,-0.08031316413860168,-7.608865617205311,-12.415205594261579
0.22,3.5398030044066218,9.065649467497508,5.8257981747538,2.3808359283433447,4.329164987657862,0.9780969361781899,-6.532717468230317,-9.84682316157432
0.224,2.760014568414249,8.116096402558924,5.285123917674127,-1.641935411325278,3.0594138779122204,1.0538984830297977,-5.989820891808108,-8.791008502478235
0.228,0.6480511066802137,5.7463248610916935,2.6594663467911914,-6.169271228164973,0.39048438691895626,0.11570712800084948,-6.386015928487609,-9.143167686283505
0.232,-1.8314461615000255,2.8630868256565805,-1.4007145291087681,-9.805242534829517,-2.5757313488781506,-1.5023262515583156,-7.500831457949971,-9.89691211932086
0.23600000000000002,-3.60633854524076,0.4907579605756496,-5.586821680620346,-11.54810317130034,-4.610523954163966,-3.185981470245224,-8.616380922944018,-9.793238328587904
0.24,-4.0680991966341935,-0.739159343625829,-8.51588562415202,-11.24469698148954,-5.026425708442105,-4.27177285997368,-8.926397611302377,-8.082691889539092
0.244,-3.34686376271236,-0.8372464146924585,-9.324041150596031,-9.61776044123934,-4.010439311163907,-4.328333046210673,-7.9873226847267915,-4.980130507475224
0.248,-2.1551463659612864,-0.33725456716996405,-7.996727646126203,-7.856249138553608,-2.4541772845807373,-3.3548872920973736,-5.974992172366569,-1.5792223455118801
0.252,-1.3227857547323083,0.07514838715701444,-5.305659148676341,-6.991796847814271,-1.4079419491528142,-1.7863206437925783,-3.621085262039628,0.7230089178433445
0.256,-1.3115878048574814,-0.04977893992565896,-2.413031737750714,-7.400577438416349,-1.4888642594890484,-0.3009560081402469,-1.880259433542392,0.9501075842354112
0.26,-1.9767892698858986,-0.7155741501232455,-0.3414193198611315,-8.6807182652866,-2.5534695891755064,0.47281352157642687,-1.5012880561047268,-0.9904172223468777
0.264,-2.6947041178905238,-1.5378452844236108,0.4515079325838087,-9.932154100381979,-3.8017342714646247,0.2218071614154269,-2.7065636022110766,-4.310554062135907
0.268,-2.7540434312949174,-2.002866889274742,0.2002808404189409,-10.260986325804822,-4.249746007264662,-0.9340409874484976,-5.1253912138864735,-7.76850028601325
0.272,-1.7707462869583424,-1.7614902952129796,-0.37256077341106675,-9.217998340475674,-3.300434006375667,-2.5207134691800093,-7.989425587887808,-10.253958517617093
0.276,0.12822390239375636,-0.7783863248580474,-0.45484246956152674,-6.946759764265153,-1.0777365461983663,-3.9468177997980547,-10.4736943249236,-11.223655392266437
0.28,2.449696986934441,0.7443295154509428,0.468457134622156,-4.008197312003404,1.6666509180611229,-4.798760535250949,-12.02206459508011,-10.819505447143001
0.28400000000000003,4.6837951378936395,2.576065543241043,2.4092892125562457,-1.0229971912505107,3.9906296167079063,-5.044083774392902,-12.520660407336663,-9.655836730740475
0.28800000000000003,6.615968305848014,4.62502905485178,4.894724230757049,1.6294383707061684,5.250185391475952,-5.031114045161985,-12.257863408714229,-8.430592762943206
0.292,8.380367584323949,6.92882643706082,7.161764968805983,3.8867686647230357,5.344917232419334,-5.280403598128032,-11.716321527248738,-7.570778709993874
0.296,10.230438856497358,9.486682097283392,8.446631631626246,5.848068945645309,4.625724609891677,-6.185146273264081,-11.31729915885171,-7.0818247817244355
0.3,12.208503422768331,12.09402450619666,8.275565910745115,7.5321398580733785,3.603596254695617,-7.78818813440671,-11.240153835455317,-6.652375462535474
0.304,13.94892720581197,14.317225331075974,6.661186248283798,8.736720755410943,2.6743092704965647,-9.758478890168362,-11.38399663639973,-5.906020625133806
0.308,14.769378845475558,15.65275991451324,4.128646645694289,9.104805319296588,2.024060722487093,-11.568250524781206,-11.457099688677545,-4.629249873268236
0.312,14.020072214813354,15.781746356672329,1.5475724312919965,8.357287804617044,1.7184543337051537,-12.75957586768277,-11.132661081973424,-2.850662183283248
0.316,11.488741739363604,14.762115548666998,-0.1749639401417653,6.53383826834704,1.862488191236821,-13.15378832393344,-10.187494440954424,-0.7576510446874636
0.32,7.623938013840643,13.049668941085201,-0.4199612651952407,4.07240193831808,2.7006063936569262,-12.907397862404878,-8.57015074286619,1.4522568483271243
0.324,3.4138915520645696,11.304682913685951,0.9105084009830762,1.6512156714150024,4.528259500671879,-12.391745047413224,-6.400910330058537,3.660076721817177
0.328,-0.046696572163682504,10.06993486189765,3.3336860186743706,-0.1289404929111697,7.437894452922137,-11.965715810691108,-3.9417454312207383,5.801505388045143
0.332,-2.0754222974887853,9.489544465677,5.924825498007976,-1.0339943544507832,11.052360130832199,-11.768361039171396,-1.5560254847091528,7.770095217150356
0.336,-2.7176709138968818,9.229707745004134,7.6245621071719825,-1.2900943030515464,14.449319722020505,-11.64611106173038,0.3357358841280984,9.319118494668146
0.34,-2.6561332979410963,8.68286907352865,7.626471905883932,-1.416992406050099,16.420788207834107,-11.25831107251588,1.3205521274437615,10.045730271540378
0.34400000000000003,-2.7490407971822606,7.356248338239652,5.709247793384407,-1.8800292044020352,15.993294501950118,-10.291352348635428,1.0933247182701962,9.509731176829064
0.34800000000000003,-3.473282894189879,5.214057387003436,2.3585032117215405,-2.7711355668700435,12.93596001350818,-8.662079311804291,-0.4210721857870112,7.454939793424273
0.352,-4.610174281810032,2.754982388383553,-1.4072481528179424,-3.7183603264398926,7.9491426020172185,-6.6026298875576686,-2.992229027574467,4.013782651186148
0.356,-5.362848974232065,0.7788263996704927,-4.429845788644002,-4.0733394161338765,2.4184626919858374,-4.586124918953374,-6.11612516489663,-0.22975793208752293
0.36,-4.835904604286725,-0.0073819288571712605,-5.846510536479286,-3.2680887038160336,-2.1334243530130834,-3.1373745798066466,-9.16736438832936,-4.386819309886505
0.364,-2.6059357194283166,0.6681985198533766,-5.388375013698919,-1.1413171941693463,-4.6465125255760995,-2.6205752681635204,-11.628524840141381,-7.577027084174915
0.368,0.9473327014127335,2.5319198847378175,-3.432149138800014,1.9499175144089804,-4.896378616179618,-3.0876197133445658,-13.290576888763098,-9.263227725384695
0.372,4.755368981031552,4.938947898358492,-0.7971965110092469,5.302695625438332,-3.4822905871982357,-4.227527450786738,-14.304576150132107,-9.417872248746335
0.376,7.565683195719203,7.223314111585751,1.6138772675359405,8.211900201296203,-1.4633186756137775,-5.4488507028604545,-15.036887577365405,-8.457268833125909
0.38,8.572044815615527,9.045005332588062,3.1761228347409087,10.284094161338999,0.18385992894855008,-6.080053266769482,-15.803289793486329,-7.002309936924576
0.384,7.809390856603613,10.518464010457592,3.748049276564302,11.544082141034096,1.0024878103328092,-5.62238114778188,-16.626855462756566,-5.58948761617421
0.388,6.0852759324934595,12.046777000618704,3.6351742263993856,12.281751296135894,1.1704757656453921,-3.9604279081033837,-17.17243601927362,-4.4750633557464425
0.392,4.486677827501126,13.952215267299948,3.3473682596563776,12.747534357172867,1.2587132386668145,-1.4418896236254568,-16.91987175719305,-3.620360221376359
0.396,3.748484280077264,16.134767526264795,3.294577041788898,12.904913890857301,1.8033058621006148,1.2278707728846712,-15.486463586666332,-2.8318162462078362
0.4,3.861227466387618,18.003683430435217,3.596916877026956,12.407280170167041,2.9721863701901157,3.2408606581996082,-12.91040101992985,-1.9627094710572237
0.404,4.140722454283832,18.746328276120153,4.10135376794517,10.831720141830033,4.5045058483109415,4.00194716455826,-9.721142055719838,-1.045525925364018
0.40800000000000003,3.702507310018291,17.795235565442226,4.561886002013125,8.030995324476294,5.923627088891976,3.38335900059451,-6.7376069871836535,-0.26690148790476087
0.41200000000000003,2.0344601537112794,15.211117260103833,4.844641075051868,4.3791905205609964,6.853084301578406,1.8011586214938688,-4.6841937040171615,0.19828699531399252
0.41600000000000004,-0.672767526813459,11.742394433658774,5.027892262437717,0.7409310914481466,7.229475569346505,0.058452922545257024,-3.8397075196935475,0.3823902754543269
0.42,-3.617197755226016,8.527731533973565,5.347476928722244,-1.8520625476622854,7.3118192277974,-1.0037750974256596,-3.916384222562783,0.5997506698608959
0.424,-5.8363641410705895,6.577990327275302,6.024053012564423,-2.6605554147214434,7.487974723595585,-0.8951463196613076,-4.236974734878004,1.3209390307515605
0.428,-6.738069570784319,6.303340310388762,7.072149961403284,-1.5932524903993226,7.996630795970987,0.28857358956975077,-4.129929695722467,2.89764920489597
0.432,-6.394125274447106,7.335637183058907,8.218432607645127,0.7433950649783583,8.738010782662855,1.9151371241282504,-3.3066713063230964,5.29905409948833
0.436,-5.428699861237419,8.747801056424692,8.999621124921873,3.3448504785443447,9.294481901637482,3.1355253190995427,-2.00010004394062,8.016739098773996
0.44,-4.585631946258445,9.558864815741003,8.997199177723473,5.296526065904118,9.170893583636143,3.305296010285474,-0.806007695602375,10.186765767422457
0.444,-4.250802834860906,9.243477459877226,8.090627542229527,6.196013046019289,8.112947479674858,2.2959618203476566,-0.31989138024937347,10.900376924229931
0.448,-4.21591034254152,7.97769864157101,6.578055465720581,6.303286197680563,6.315137606486246,0.5528582434567397,-0.7754644738645311,9.582151742903534
0.452,-3.8355154819062136,6.4833025097264,5.064627833566874,6.341022132053013,4.3692235914065805,-1.1230013756180597,-1.9008733836715237,6.262658909688071
0.456,-2.4709695190831553,5.5760773748764905,4.170327999379992,7.062176225696703,2.975304311011996,-1.9552965106295233,-3.0699474205589468,1.6222864748056054
0.46,0.06537453019154782,5.706730571978483,4.223338337120026,8.822483911948211,2.600556827638343,-1.5541812242859123,-3.6465624657557782,-3.23031033638199
0.464,3.3296892994364953,6.745218254907286,5.1064027793181594,11.379509562726867,3.26515243440258,-0.08645422750805665,-3.3133748269974603,-7.151819892485491
0.468,6.4340226423091735,8.111631205238723,6.335112307265376,14.014204770643119,4.563526223091571,1.822300950808767,-2.20213451773634,-9.345505602706453
0.47200000000000003,8.472325686682098,9.133848558533714,7.305390061297544,15.88024935157398,5.877179056036994,3.393189360219367,-0.7744858058204045,-9.572875174309047
0.47600000000000003,8.940361389637928,9.404233905225738,7.584312539193888,16.389652393316737,6.654857345534879,4.047084325209198,0.471793931156526,-8.13204900539813
0.48,7.936006890615772,8.953594367264486,7.099480538352395,15.437905480722407,6.639923244576039,3.627109530391863,1.277506164514989,-5.6490504984435574
0.484,6.052352267764718,8.161501426208474,6.137015599144888,13.376689110630082,5.9448049444720255,2.403714650622078,1.7130918957698213,-2.79670195478775
0.488,4.0547899527939535,7.481256691032058,5.156132001991182,10.78100011732215,4.9558389494739,0.8879620853658707,2.0640393000514905,-0.08084280744333228
0.492,2.5345395870151606,7.1531311355479374,4.53055071973472,8.15901476241686,4.131705460315629,-0.43214017222317125,2.609944604669181,2.244894224332711
0.496,1.7120488399623355,7.0773836678311,4.3690208164969135,5.7679582343374705,3.81024835691278,-1.301848978102953,3.441295539239718,4.1373699848850265
0.5,1.4654030613764917,6.9252500198507505,4.518326114638285,3.615773240279168,4.129748175563577,-1.7777511645876984,4.423720397583793,5.634811177842948
0.504,1.5085887981126689,6.388516179526846,4.724519324053631,1.6094084772707902,5.052248907096555,-2.1590945860534703,5.306661233139494,6.721644435623148
0.508,1.5881324522974865,5.407209741886163,4.838987476765169,-0.2605690788511765,6.441546657990898,-2.8091778800694556,5.892677483973102,7.277490755644067
0.512,1.5733512282602078,4.2228835329145795,4.919191670409305,-1.8377482005990942,8.10796259949825,-3.9529911074839674,6.139873979350568,7.125941760527439
0.516,1.4350779577894173,3.2393439160985054,5.173169047002148,-2.859782865716056,9.8078063946665,-5.5350196407418935,6.144806785086303,6.15858636456187
0.52,1.1819847264971486,2.804859509267544,5.798113784601583,-3.1136955611414123,11.255815272135123,-7.208586659480716,6.029128669553074,4.450318883757973
0.524,0.8173251721707402,3.0373444429573055,6.818832878029411,-2.5917257972728294,12.178096894321584,-8.470732480883044,5.8190699663309715,2.29252438485355
0.528,0.35461724423453234,3.7828629147589936,8.028771642709444,-1.5466922088436377,12.39373509591303,-8.885785407009053,5.415201260698268,0.12389808003354119
0.532,-0.14595072151860222,4.697169646732732,9.058941270438254,-0.40765067627626195,11.868542280083489,-8.296122248603524,4.66451978194641,-1.6040447507684803
0.536,-0.5707648009683908,5.3903146790665915,9.535683959696257,0.40357731067160785,10.701062432027243,-6.919247206169075,3.4753158525643357,-2.569749733163917
0.54,-0.7869747739734976,5.576364758336467,9.246293310450255,0.6571847942666409,9.061275503731736,-5.2822591584238126,1.8938197816653428,-2.68393214044454
0.544,-0.7095811011106434,5.1631345409196,8.222507277440286,0.40493087014624507,7.1077124368887326,-4.008117508351916,0.08912111367430953,-2.1178119723203963
0.548,-0.3492750237576274,4.273183243189351,6.702504722089316,-0.06707934500002466,4.94081571371953,-3.53573755004345,-1.736566063745613,-1.244834974526384
0.552,0.1969629169534528,3.195828709792522,5.00436098127409,-0.39588925482405557,2.624196012914126,-3.9027805574025933,-3.4355284721393673,-0.504162358992744
0.556,0.7968723509720803,2.2852290534646045,3.391319902117857,-0.32722217764364814,0.25268387476421594,-4.712653750434583,-4.930127135945668,-0.24476398435945157
0.56,1.3425942885398854,1.8459017766303987,2.0064243110929283,0.15970299063496896,-1.9754182112485523,-5.325087533912665,-6.158811842662544,-0.618069784924046
0.5640000000000001,1.7642196924259679,2.0139654057896905,0.8877922550440189,0.8359305587454173,-3.7572829502403238,-5.191090535959802,-7.019683633957129,-1.5526075315679009
0.5680000000000001,1.9849912187278278,2.6670730352253713,0.020978901210014556,1.3192207036936452,-4.788019558796577,-4.166361787303913,-7.3706433046299935,-2.811183028407868
0.5720000000000001,1.8653163060482711,3.4155830475168614,-0.6235068853975463,1.2437198798836562,-4.92193933661747,-2.6178195209752175,-7.110449128579148,-4.08202076605221
0.5760000000000001,1.2055884707517635,3.716805692589219,-1.0892538825791007,0.4385191887553219,-4.28247239156633,-1.2480815230749158,-6.289136973216387,-5.048535763975906
0.58,-0.1427457747797689,3.1275906103745683,-1.4339304931961578,-0.9535033438197615,-3.2013990422834695,-0.7282026051673256,-5.143784010325589,-5.43587102075162
0.584,-2.113724153433168,1.5815647430971467,-1.7085931272617358,-2.4758115416468627,-2.0148822997224443,-1.3316434694675081,-4.003456656842218,-5.046853905184662
0.588,-4.322549262197981,-0.46401144640321945,-1.9160189036471138,-3.4911462639225874,-0.8380677362320057,-2.7649578818441114,-3.104024226057618,-3.791093784589748
0.592,-6.1264818681834186,-2.1340476338016288,-1.9823634474174128,-3.4091440475035597,0.5112519151313109,-4.289606957593605,-2.4170438141330806,-1.7091747296101403
0.596,-6.874087698651351,-2.5001184834238757,-1.7773992168569066,-1.9314734738311472,2.3491279640905987,-5.074163191575963,-1.623313021371814,1.0126327083746673
0.6,-6.230954219717091,-1.0327247740452776,-1.1875030658096648,0.7837371384222251,4.82274289375755,-4.605742719191539,-0.2880503787401949,4.041800239277563
0.604,-4.40425629668789,2.085240342953398,-0.21577506712674221,4.117081020740329,7.647059099432113,-2.9414977326775897,1.8371956247897288,6.934605234324408
0.608,-2.1148793713354053,5.97104912996042,0.9548231892505896,7.1722617222250165,10.085852590378863,-0.6685359163489011,4.569044956202333,9.234860308601355
0.612,-0.30244026543391556,9.389506839115825,1.9788174756546368,9.084808301738576,11.230446603557084,1.395245352109896,7.275360371475813,10.613902004384954
0.616,0.2949560658013297,11.265388162597105,2.4540326569892272,9.331276166647285,10.447773130811925,2.594792706435328,9.127564380965964,10.996493887988663
0.62,-0.5200478271885913,11.122108442554008,2.0792606164205267,7.90918321472725,7.776116102382161,2.71148546951099,9.496228192920967,10.591728442539988
0.624,-2.3319868192306785,9.220529015782859,0.7923817980595231,5.30945775960123,4.015680357229826,1.986396733027732,8.286261163312133,9.8029343264418
0.628,-4.34777281639731,6.3442353191335314,-1.1871310830533162,2.2966171980791614,0.42314268482073203,0.9207422503166072,6.013571556629245,9.048428082763394
0.632,-5.801176062241666,3.378229493179731,-3.435086335281312,-0.38915927866571565,-1.8512163078834192,-0.0018937564504994953,3.577353085495247,8.593955618680866
0.636,-6.302738293692869,0.9307764596460402,-5.463756486942373,-2.259647095276989,-2.2886798589005366,-0.510899203123472,1.8533258421279015,8.481659097091324
0.64,-5.943312827072987,-0.79321354536836,-6.857434162957134,-3.1442395570596773,-1.1915263415386335,-0.5804838052890773,1.319832236205798,8.573480292544218
0.644,-5.124554129254307,-1.8510133552027241,-7.355381809433084,-3.1047064965728737,0.5528210907851872,-0.3312202552767758,1.9072820065176757,8.678358067876616
0.648,-4.248281016944929,-2.3045124914832513,-6.878833423422179,-2.2872273348657473,1.9830920712279294,0.0960960337877168,3.1360493808058436,8.68870127594505
0.652,-3.482300928576251,-2.076496515588474,-5.539746887290278,-0.8344555023014664,2.542146446710831,0.5997096384830911,4.419008778273337,8.634950270543868
0.656,-2.748730439086671,-1.050110722972022,-3.6536061297359765,1.0836257090259664,2.2477805477115567,1.080442449858083,5.336021489092104,8.615866535255691
0.66,-1.8926429803101428,0.6888897983527045,-1.7102270680889546,3.1797670815478227,1.530497654026476,1.372082847134834,5.752193395446966,8.667498663952983
0.664,-0.88706013815181,2.6718605670681086,-0.25807061292647404,5.011331526271306,0.883315841829301,1.234892417258834,5.75664187808411,8.667428207147395
0.668,0.08303862199954892,4.116556408022632,0.2947989948636973,6.077338519147077,0.5634236907091577,0.45484165301854773,5.497331065850858,8.350538069467575
0.672,0.7170581291466078,4.2642512523284495,-0.11794760900625079,6.034850420534212,0.51197047195609,-0.9922611861677524,5.0452944746954245,7.449297702846479
0.676,0.804907143739797,2.8112001387744954,-1.1366247328521695,4.918307742865977,0.4981995235354475,-2.8232064615813215,4.3766100764953535,5.88095145758939
0.68,0.392028837773978,0.175805388925653,-2.090996487585869,3.2095252219598365,0.36295241793476407,-4.4881198054821425,3.451799422084946,3.852480477365134
0.684,-0.24065269293203073,-2.6170975052840504,-2.313011230046982,1.6599784556795498,0.15484168581457425,-5.38493031109374,2.3023473014077354,1.8055175485330892
0.6880000000000001,-0.7889231504557301,-4.427538061041616,-1.514732247588654,0.9099152832814639,0.058670850187979795,-5.157842205916381,1.0463495367843052,0.20278809913020268
0.6920000000000001,-1.1854987852992735,-4.614194622718628,-0.025469488699286558,1.104490932607746,0.17986871726577647,-3.9013162813917006,-0.1738784581409618,-0.7140091864280294
0.6960000000000001,-1.723619202607665,-3.4229970025727425,1.279655560673234,1.732829589746018,0.35545197942570894,-2.14001307993874,-1.2814322922239398,-1.0557418957887421
0.7000000000000001,-2.915394745305548,-1.8889978328577968,1.387931709052964,1.8190370002201917,0.17445471871633345,-0.5865230369337269,-2.306367604667571,-1.2279734941398601
0.704,-5.139699886142125,-1.2839181097357937,-0.2927438654843968,0.40696304141226847,-0.7774553413551075,0.20417960516942912,-3.3357863086926045,-1.697850615573543
0.708,-8.283736062205662,-2.4026850488889977,-3.5255020302852813,-2.899321527855591,-2.588705117888253,0.09544102145309807,-4.394207324614399,-2.7145470153488986
0.712,-11.621825844611863,-5.098787367619707,-7.242796402713168,-7.631183123371613,-4.837500155900841,-0.5930577255454637,-5.349398377743569,-4.133226801692899
0.716,-14.05345094349957,-8.350082049507137,-10.003554345285352,-12.567449125696385,-6.718850801311419,-1.2871991536242149,-5.92037648352084,-5.449331194007527
0.72,-14.593706204819,-10.807918018754549,-10.688706654733664,-16.225056572140886,-7.428720705479918,-1.4827788198314238,-5.803686619066525,-6.0392150747404685
0.724,-12.866210791659,-11.523845450786553,-9.071081865207304,-17.495517850414615,-6.606175130676149,-1.0124831332329904,-4.8499985825229714,-5.490092054354363
0.728,-9.329591979034376,-10.442974204614643,-5.95513922609814,-16.109468632974597,-4.57477809782938,-0.10791234770260871,-3.1968558159107943,-3.842479004654024
0.732,-5.104746420368201,-8.40091236333376,-2.814430040731793,-12.715451429306597,-2.2425329388894397,0.7667554916722565,-1.2771817096936502,-1.6193314313936753
0.736,-1.4892907974942773,-6.6428954307872345,-1.105164209294344,-8.551232371640708,-0.698096839899847,1.2004206531837553,0.3275384627879703,0.3812716459008243
0.74,0.6054036192324475,-6.12745891600639,-1.5914146109158196,-4.885291072989105,-0.6763640289148611,1.0625861861437897,1.1174563089604135,1.4246961599524184
0.744,1.0062959380105667,-7.015693087577972,-4.01936077784552,-2.5102902528580557,-2.176020887179618,0.5510551939465813,0.8890606488115509,1.1474951162163052
0.748,0.26128047289398637,-8.612138772150558,-7.282294470518735,-1.5165187030020775,-4.418108604274039,0.04524417063976216,-0.1531249631339051,-0.30058963268641037
0.752,-0.7197637529218355,-9.777969938635692,-9.976399707781951,-1.4200038647168185,-6.180098588588635,-0.1378978775833275,-1.4470830628044382,-2.3408331074555235
0.756,-1.1566610042099796,-9.573682928556707,-11.056766387898648,-1.5314631537778496,-6.353902499237563,0.07142616830503812,-2.2762140024523774,-4.217137058562457
0.76,-0.7681096020546647,-7.763910033858906,-10.275402172021217,-1.3631447832268009,-4.458026190585429,0.45702694812780464,-2.0555348999034777,-5.31125127382586
0.764,0.15823341329553386,-4.924350622453346,-8.21915638629568,-0.8653328773448266,-0.8692635451627666,0.649160650994304,-0.5856933411006935,-5.366645578181078
0.768,0.9961366052809808,-2.1207969144084586,-5.967517221024622,-0.3993399344876707,3.3264512197416707,0.3506897328005607,1.837842774303681,-4.523466215512144
0.772,1.1622578104340278,-0.35554462746569016,-4.56153259142269,-0.49095678914181917,6.789137228097843,-0.46374890504216637,4.5234190265752545,-3.1610949706405336
0.776,0.4403954110487689,-0.09469209112478438,-4.535893244074913,-1.5111297716839545,8.481547598476254,-1.4858851445584378,6.684765204677376,-1.637075629771175
0.78,-0.9123126622077393,-1.1079392693677619,-5.709937039354202,-3.456491906179565,8.090108817737246,-2.191230937759883,7.819957647502861,-0.08125518366080087
0.784,-2.3258483014727176,-2.684186568407881,-7.312236811707038,-5.939961422120405,6.115089657854583,-2.0855920002067023,7.976332229178752,1.6338632644908557
0.788,-3.2370933962700974,-4.0694050162509825,-8.373724263567027,-8.380709432564572,3.5949203352145105,-0.964361599627864,7.7372158390354,3.719543464032654
0.792,-3.4133172925338044,-4.89381103422204,-8.238736752068462,-10.303279299810924,1.5646355785472679,0.9288660279912619,7.881732743460361,6.177674667221709
0.796,-3.1216874002081454,-5.377422330869422,-6.97771231084667,-11.597752951273378,0.48652355822736126,2.9218175108007927,8.850948088933137,8.562677303116743
0.8,-3.034753884655629,-6.200041106071438,-5.496670655362692,-12.59528028364673,-0.04010974861552086,4.1188393468626145,10.306600770848206,9.96740166422876
0.804,-3.9168899091976073,-8.126094773879458,-5.259377485032303,-13.907277615732909,-1.1273353568595326,3.713332076009806,11.066646951053428,9.298329517538946
0.808,-6.233853481243727,-11.58079588385101,-7.685986427464741,-16.088663213779114,-4.03339097342996,1.2950408097708532,9.544957708351774,5.760013111752528
0.812,-9.862534794726741,-16.374828649160037,-13.444031003226257,-19.276443731710373,-9.431719169548586,-2.9605759107238327,4.559831021633784,-0.6585282935629948
0.8160000000000001,-14.045242482886636,-21.710420080385376,-21.94511655494634,-22.983354050550503,-16.87981743721494,-8.29153157494602,-3.8622125979410953,-8.940944160506888
0.8200000000000001,-17.61421802658515,-26.43957953619983,-31.309537725954016,-26.171145440702162,-24.763978893537768,-13.54682333069593,-14.135249209950587,-17.21936204464305
0.8240000000000001,-19.39957159318851,-29.44489155000292,-38.88577120241305,-27.60164178255357,-30.80057358677641,-17.51911879741499,-23.473617802168235,-23.357485356879124
0.8280000000000001,-18.640821156716584,-29.972777057665382,-42.164826145468595,-26.31911563516681,-32.88901971224175,-19.290938765677993,-28.877326507744613,-25.70544294797071
0.8320000000000001,-15.227437289929867,-27.800653039531625,-39.73098111259128,-22.05037551121461,-29.94366150317194,-18.465414959997588,-28.33521340528739,-23.693063884607227
0.836,-9.687492501021325,-23.21469467987498,-31.83249519429839,-15.33995951885285,-22.334147768128872,-15.209825070498937,-21.682544183562072,-18.006735388124753
0.84,-2.9548700644494943,-16.84997160494717,-20.305659307661898,-7.35577053946426,-11.71930749697222,-10.124745359964436,-10.70235187731788,-10.273018701398541
0.844,3.9464948067148953,-9.508388852545323,-7.881352913616155,0.5308145966136522,-0.38692077526923185,-4.017062855808035,1.5928581663646355,-2.4045965683131953
0.848,10.155872465096195,-2.027289391226759,2.8195870544085437,7.192592752113853,9.587056732953073,2.3167520167983184,12.14948567200355,4.0890301695772
0.852,15.07997521333499,4.783447966734116,10.151495376817934,12.01940273795347,16.968443442122123,8.230929107223005,18.976096171774714,8.528423296345409
0.856,18.357876642742895,10.170112090148535,13.803401161603006,14.918261060206248,21.52798270473744,13.269884716381853,21.684168353412304,11.072635966780695
0.86,19.798809476521797,13.515353507774705,14.570141822249553,16.11122105760481,23.773006872235555,17.14463114481839,21.295291784383892,12.388908923861209
0.864,19.377211859012277,14.484461510323314,13.735183788965514,15.890351105682214,24.464878584808588,19.701291266127726,19.502961869920455,13.193245814222564
0.868,17.30873409798494,13.196327575415154,12.429337117671963,14.494566487002714,24.22117665482787,20.911307943842132,17.81594462071274,13.905874404580914
0.872,14.121659453455038,10.293693568036616,11.25875490868225,12.151343441259769,23.369942934036914,20.881320181415333,16.993486152397907,14.557088318790875
0.876,10.62361531479587,6.821229505829393,10.322210498997663,9.209928047400183,22.049487877460308,19.85347587489025,16.98451073431346,14.931084873011969
0.88,7.707439538451126,3.9079728293036737,9.494258158742923,6.219858792113541,20.405173968346872,18.155179300165685,17.274994716571086,14.798275436635095
0.884,6.039708416713836,2.3517494101029115,8.718633587578807,3.839808940192114,18.690181831603496,16.113152783156522,17.360267082558835,14.081143713318852
0.888,5.7881550017864924,2.298191993520163,8.114649224121905,2.5867116254485722,17.19350484428196,13.968423755603851,17.052211942207805,12.868962883781819
0.892,6.551975662691348,3.1890901672445295,7.852468974285273,2.56800488898196,16.051521639316405,11.84629427775667,16.488127129084774,11.320715551175567
0.896,7.55610012206904,4.026480424998169,7.920353015794632,3.3747244237892744,15.090436479938006,9.808536180124634,15.900387108927475,9.565195976692166
0.9,8.033478425789326,3.8639801509265226,7.988129623862164,4.237432731400389,13.848340027456857,7.941284862651855,15.341756714164262,7.677393931762481
0.904,7.5922272340696395,2.2832605964192396,7.495329891909478,4.391952177179775,11.79313778230349,6.407035220204648,14.558962714373422,5.74206414319633
0.908,6.37917289487558,-0.3698375384220469,5.943875265787938,3.4707749117540345,8.635290193291723,5.409073108419307,13.101073136810669,3.9372207086829576
0.912,4.953323154112638,-3.1191027843069037,3.2225844887298933,1.7021991670649186,4.547111722380748,5.076156979878533,10.58285013369823,2.5434898043271232
0.916,3.9396323396225625,-4.82068973827927,-0.24913698602208,-0.20771748881145413,0.146094193146439,5.339206479115546,6.940368322932727,1.8527367509796022
0.92,3.675967573410162,-4.715168684079799,-3.64949569890652,-1.4534266562795892,-3.7431164299357533,5.896638921006115,2.5502039007499206,2.012596412018638
0.924,4.050534091534701,-2.797296099515279,-6.089827176081258,-1.5551523933854128,-6.421040942591617,6.320648072619065,-1.8572291757487847,2.9118968029850976
0.928,4.606296375817806,0.17659593194548506,-6.990848654170293,-0.6025870870262224,-7.567017068363668,6.264740698705964,-5.454306762414944,4.190482933094472
0.932,4.8449536747802995,3.0514814835930224,-6.298364818069956,0.8215281462480561,-7.289486064494781,5.668027515704466,-7.60882586565981,5.37663200983593
0.936,4.530325263556961,4.802416764926363,-4.45418789290386,1.9771768057904637,-5.992778355511746,4.8205039736044455,-8.091304121350731,6.07343440344016
0.9400000000000001,3.81739503376059,4.978989015346883,-2.1554037100565324,2.364353694740032,-4.142689557929543,4.223472014459389,-7.12988331831707,6.088936295798476
0.9440000000000001,3.1380773594786433,3.851126683513087,-0.042607952083358214,1.9561319004179722,-2.083094691911981,4.304606763978541,-5.30248767805233,5.437801659263641
0.9480000000000001,2.9295039866783554,2.206400320472312,1.5266432772245935,1.147431161495149,0.014332018933146173,5.145658509654822,-3.319119900505484,4.228460767972592
0.9520000000000001,3.3779646710628413,0.9322975488773864,2.5406630381708055,0.47976627021614604,2.083792102720622,6.391774961279907,-1.7776538460734628,2.5447765787612298
0.9560000000000001,4.323322091403952,0.5958908986328879,3.236817247415388,0.32275319152506654,4.049828807284712,7.412725968995801,-0.9853324140904078,0.4237367061987243
0.96,5.368984852706717,1.2316320737328965,3.932819288780479,0.7015490936403239,5.770362745254317,7.641568354880064,-0.8924831259221264,-2.047105045281114
0.964,6.119269596396634,2.417442392944679,4.890358677048766,1.365039818085961,7.086976777548898,6.908301807584394,-1.152805647746618,-4.575392387826014
0.968,6.401879332341878,3.572191350569028,6.259244656370356,2.0262130142197066,7.950928623578761,5.568417781994867,-1.2899849924848468,-6.5915540163396145
0.972,6.346789979089522,4.283524929249552,8.080834953440672,2.598710809950944,8.513240627210052,4.340558850137768,-0.8948278944178583,-7.367703528064112
0.976,6.2766902827407876,4.476471531364268,10.293827178318566,3.261275610009534,9.079303032253733,3.931561987432133,0.21917014475411634,-6.3103931338046095
0.98,6.503344212482034,4.371060142900205,12.726576866363075,4.31305685255893,9.94901091777865,4.650296915436229,1.9445490095713467,-3.2956537063896576
0.984,7.149152032144684,4.276450106991547,15.09325408366908,5.917044991497619,11.21711595480997,6.223284620751201,3.9256268411272686,1.1440695134624548
0.988,8.086456399442568,4.363359965562154,17.0265403094603,7.906246431781824,12.660043191650743,7.913886957502655,5.698154578288722,5.915250158785511
0.992,9.009184750711029,4.553030216573006,18.165754901867786,9.790483059647386,13.79253410703609,8.879511069305863,6.847841073925792,9.731649301327252
0.996,9.57410392991369,4.565406669012191,18.27487040825463,10.975208387643988,14.075917210332591,8.574078306459342,7.132789228050342,11.5999165379867
1.0,9.53444372096601,4.088101097137269,17.338631603593626,11.069774633011775,13.186551450870866,6.9840915392278475,6.529291838630115,11.189541830047347
1.004,8.80141417609184,2.955324958027518,15.585041934022797,10.100776144376368,11.190321961343898,4.5830503153290465,5.198566476871974,8.904565626036401
1.008,7.432404480869991,1.2355875112352805,13.406595709000158,8.503902163966814,8.528107956433814,2.0515369665529306,3.3913993286105324,5.631354797142649
1.012,5.5820866499573185,-0.8126729607122343,11.20809145049077,6.898229121591498,5.815802012409449,-0.06104024167075295,1.3410086679955384,2.315018231324302
1.016,3.458139099992877,-2.88140013855741,9.260315922460904,5.779993799771091,3.5622231545543173,-1.5402064576289831,-0.8126554893478897,-0.4117499296844471
1.02,1.3111395070040999,-4.7436290804701,7.631750962233127,5.312530288354083,1.9656929647132984,-2.4785042490573232,-3.0446028476189895,-2.371790574552506
1.024,-0.5667777170597219,-6.305325683724277,6.23620712030538,5.321718674989029,0.898539189218468,-3.0701610439682554,-5.394845373617272,-3.7247513740448994
1.028,-1.8673009291180733,-7.559629923164039,4.96368017458758,5.474205220584508,0.07884546628872613,-3.384699575358354,-7.866211109419055,-4.71222364708683
1.032,-2.34180087832533,-8.508652890551957,3.799783600562023,5.499900486966226,-0.6959959288981281,-3.282288242055529,-10.331050308696376,-5.448550812391659
1.036,-1.9127637127612616,-9.125581730824138,2.8596709764779007,5.316124653542147,-1.4103762174070198,-2.5229571240051882,-12.498038113190432,-5.8821441695263275
1.04,-0.7530032410322747,-9.371987730997034,2.323547813227833,4.994819006914895,-1.862376618850135,-0.9908778064409489,-13.97685760796162,-5.922545573289426
1.044,0.7214382392244261,-9.258350376288035,2.318155445069465,4.621927532281575,-1.8391396490660554,1.1212665767175167,-14.433369603352958,-5.608566401600001
1.048,1.9709705557429515,-8.879027061789884,2.826904817670311,4.1686963108950295,-1.3097797007708323,3.2972449372541632,-13.77424746921406,-5.192730811130332
1.052,2.534710332269242,-8.3715953528515,3.6923235070996725,3.4872463870897263,-0.49261671006070173,4.888473914877977,-12.269322456028476,-5.0543535933197745
1.056,2.2186897051828964,-7.8291652453210645,4.708136954491351,2.435455378297206,0.24988036207719233,5.410198374356241,-10.510175410819556,-5.48706517887058
1.06,1.1873827200849973,-7.218475023896644,5.734425558846169,1.0370906180430666,0.6286803415814575,4.770368946361941,-9.190490856710767,-6.507677383808641
1.064,-0.09358791742624817,-6.378478397552726,6.754139311409517,-0.4469270686397522,0.6165559297492109,3.305561114378179,-8.794371043516094,-7.814689402882777
1.068,-1.0419837712636308,-5.119567606951705,7.835271941029646,-1.605431984470215,0.4820776629246666,1.6035043588831286,-9.340002961418804,-8.941075133506729
1.072,-1.1944652834990848,-3.3847195789687703,9.010725972251862,-2.088980074744768,0.6298448991897203,0.21290422699030387,-10.33370130284493,-9.514198385081272
1.076,-0.3801948393215753,-1.3705634434302283,10.158283884243247,-1.8099025569822516,1.3329868165878906,-0.5773553059661936,-10.976972752158417,-9.44875516075308
1.08,1.2376380859323035,0.4921294585376472,10.97324984966258,-0.9970158533797076,2.5318247542136305,-0.7859755600234166,-10.554305299184762,-8.96231879482093
1.084,3.2464135300788257,1.692432614460131,11.064326843464642,-0.06927529391532516,3.8116613734796374,-0.6217009456772757,-8.817493522580207,-8.415717889938605
1.088,5.1553629892391655,1.864293304585317,10.138761263367087,0.6032365668004331,4.598846149967812,-0.29619921267749305,-6.157567038630077,-8.070830252676387
1.092,6.5713025668515,0.9619539591467401,8.178878275299894,0.9013631293892104,4.466333628010034,0.09439986461165972,-3.4482121029213886,-7.920850145156692
1.096,7.304219130247475,-0.7174347655404745,5.510443351766071,0.9994850929194854,3.3722399536088687,0.5573355268256819,-1.6282370449125665,-7.688458499515946
1.1,7.376274144789932,-2.6717777552933057,2.715387795360357,1.222771953900974,1.702114135827287,1.0922210682228979,-1.231234926473462,-6.99355251504403
1.104,6.95718146948866,-4.4119792369542665,0.4313421009283047,1.818977503795395,0.08792733031327771,1.594707643273523,-2.1097641491383,-5.584544586004995
1.108,6.28007679510938,-5.628726487299446,-0.8588706292068764,2.8025348350042805,-0.875896929170267,1.875115335310511,-3.495038021027085,-3.489810867936285
1.112,5.572593955713728,-6.234884577176672,-0.9592036896451646,3.9640569222308386,-0.8719673036134736,1.795908698245512,-4.372219780488194,-1.0206274527690766
1.116,5.016571601633132,-6.291863266977316,0.026547909309556417,5.0318713916879005,0.04898598614818184,1.4414031909636833,-3.9774158819100194,1.3699098490833421
1.12,4.729760448579327,-5.888114474557142,1.7815673294378485,5.8642233214104635,1.5626646536084081,1.1786015172920088,-2.1655151177756125,3.269381259133297
1.124,4.755578193608471,-5.068745846424463,3.9088573480944433,6.54405062726164,3.2723606577105784,1.5261127378007586,0.545965936612447,4.433477728572143
1.1280000000000001,5.066663392840383,-3.8446852228876196,6.056860865570343,7.317931275509181,4.908912295950358,2.8694210117841976,3.2569782964869773,4.818770681406022
1.1320000000000001,5.581190325792704,-2.253698882132767,7.998850188420192,8.419513090857208,6.427926110862472,5.175967427039723,5.129388087042571,4.5284182087625595
1.1360000000000001,6.190009387105874,-0.41847209853449385,9.649677093450464,9.899044400255434,7.964933434735485,7.90096322487625,5.762217728151427,3.7492713633582753
1.1400000000000001,6.800325314598922,1.4682010623291717,11.036987564371657,11.574011693528973,9.699413304921563,10.17433981742397,5.30885474828483,2.714812855590935
1.1440000000000001,7.363544357591309,3.2146214235806383,12.249668008020535,13.125044644802983,11.693348465337749,11.196754733381567,4.314191435603789,1.6896482060328708
1.1480000000000001,7.876691138695605,4.711375531539716,13.378258913152422,14.268017013515873,13.791712668233458,10.649789893252091,3.381357137272971,0.9379549879940896
1.1520000000000001,8.347903888054134,5.957164562279331,14.452557248204357,14.880622405235044,15.63050318008186,8.889738046066668,2.8708327808226386,0.6457565580913069
1.156,8.733168741282952,6.9948358855451715,15.391898843644867,15.003976670128168,16.737560563594798,6.8067980550813445,2.7820414863676888,0.8260236965716103
1.16,8.902277825511646,7.818356119805685,15.998059001940646,14.7388351210368,16.700407787938275,5.410402220582,2.849910241286125,1.2711065341700305
1.164,8.671372749070997,8.330650152737235,16.02062127570207,14.137471106571184,15.345625129271866,5.357754900123837,2.78681175597967,1.6260504309129828
1.168,7.903023429510085,8.406173466790733,15.286848303872375,13.18278089613932,12.869279884060234,6.661371246352246,2.5121158442429987,1.5793299758406647
1.172,6.631686788052775,8.03538553467024,13.836111988112862,11.87924739714822,9.852717289039902,8.722805955599142,2.2282297643610036,1.091139082635891
1.176,5.119619654919916,7.4324540130483,11.964639456657551,10.377584292165693,7.105957572275656,10.66087497256558,2.314563593426101,0.5196914283442311
1.18,3.8048423524910504,7.020884835997549,10.141682409512214,9.019815614505205,5.387742554898068,11.752483449276951,3.110164677731518,0.5346915013833495
1.184,3.137340186606707,7.263088181893181,8.824352867688503,8.237591630399493,5.103660854394093,11.752499131869627,4.709301080988098,1.8264119011437288
1.188,3.3675018030212414,8.406822264382754,8.248903689364852,8.331416508748589,6.117762181010221,10.938680688605928,6.877641966370902,4.7199092911678235
1.192,4.3970658450462,10.295871357085616,8.313684795916743,9.262510959439169,7.788366063564808,9.89251809808593,9.126296294407439,8.902354420252777
1.196,5.777794423479463,12.366139769382244,8.62758057725955,10.606611273111866,9.235833391591768,9.1624166938509,10.897602411515436,13.432082017870925
1.2,6.8834716555929845,13.86644728138117,8.708714931318127,11.730876716598686,9.739040757624934,9.00030974981928,11.764797882794937,17.060369462905328
1.204,7.177247826941311,14.191311173169652,8.229975603596131,12.112971426072363,9.061659893595788,9.293231907559857,11.555869031164548,18.731242729244514
1.208,6.454271164920101,13.163640215873784,7.18266322389718,11.625932195925543,7.551943591502095,9.694621241595087,10.363190027781457,18.028161758780698
1.212,4.944528953794361,11.127411490281702,5.874658254275801,10.623127683268649,5.963701372541436,9.857702860348581,8.465103368133896,15.352702758364103
1.216,3.212288406791231,8.792458005018943,4.767927600024905,9.759557410960042,5.075781992365137,9.626258663281078,6.228914126610562,11.752687012787646
1.22,1.910633068635434,6.926681114044641,4.252143137573512,9.641869647319254,5.318405089548833,9.090617042249505,4.041451365713328,8.479419203100406
1.224,1.5093629505654462,6.053950198513121,4.486424140375675,10.510628966330842,6.600128242328083,8.501401404238095,2.2794026948186,6.495429155027523
1.228,2.1271863166375624,6.308320231200014,5.385869296658711,12.131398486693797,8.417691241342254,8.116399412955616,1.2886674226283503,6.152030614837713
1.232,3.5393596029398395,7.482467110544803,6.7292818477990295,13.95089252070511,10.172483868654126,8.069966546461728,1.331659410156135,7.161092946747885
1.236,5.336882984802287,9.196604496138207,8.293598205901162,15.424140521423396,11.489742669239604,8.340268658321293,2.4979708622968246,8.843712782707371
1.24,7.137882120497125,11.076219165264774,9.923301873010587,16.30452320923314,12.360438365722985,8.807643566711704,4.608723564414504,10.494544657794904
1.244,8.742262134495832,12.847137629968984,11.506629940067796,16.73694842329678,13.03912766384201,9.356305863570924,7.191869249094452,11.69192328551435
1.248,10.15139245696355,14.335465693650804,12.900215599168405,17.096264854377296,13.785196648169403,9.937355996720726,9.577849492291534,12.402383977954742
1.252,11.451781205840234,15.416618930441928,13.886714090922396,17.675967491125903,14.626271897221613,10.552378210887582,11.113506578047236,12.865961912075363
1.256,12.647457798830146,15.98258680064464,14.23321499651638,18.429601463285053,15.295855002077587,11.184017905692599,11.419285064708674,13.380008339601773
1.26,13.550451701483325,15.964834650090324,13.82049552538956,18.917954792543696,15.382701412486767,11.720941320292695,10.561197682312013,14.101500771512292
1.264,13.798627898978339,15.38350067169722,12.75660300944628,18.50696661196298,14.584918936521717,11.94007192438221,9.03471046994946,14.970564233759433
1.268,13.022538991005604,14.388177762644773,11.391466243457671,16.72277333549573,12.922342796243356,11.57940241576216,7.5527237038159,15.782911639598751
1.272,11.066960726056095,13.230453224004123,10.177403716212211,13.556644538040928,10.763584182828254,10.46706835896839,6.714485323977897,16.332891467909576
1.276,8.150112909514974,12.164744455580148,9.445215969442415,9.560684815259265,8.65051418850453,8.652676132014676,6.717367467081203,16.550494246383096
1.28,4.880024509861869,11.351718219087616,9.231358706400442,5.6798037348880825,7.039468689326895,6.462441574875811,7.263571290467553,16.552529425714965
1.284,2.083194467186331,10.80745646060086,9.265758811088745,2.891546849709812,6.1027652116845275,4.422930754553818,7.72109757518956,16.579490532452837
1.288,0.5094338957960645,10.43193513568258,9.14021490962341,1.8213529776135147,5.707700686072258,3.0647118695233075,7.451452761717519,16.852298410449293
1.292,0.5465283190142145,10.109924165318716,8.571402224391477,2.5120195787803823,5.578220627133305,2.6824624052096624,6.1416882468602125,17.425079982462194
1.296,2.0657709886245357,9.808388422422922,7.60224716828634,4.442235904143672,5.5204183048049345,3.166988748454969,3.970793277091616,18.11622004263336
1.3,4.472474159492776,9.612372426492584,6.602966919635492,6.762531902201772,5.571766737751204,4.0085566947600455,1.5268700854694544,18.553672150650527
1.304,6.940949816729699,9.672848953848188,6.070040971144408,8.636533863893419,5.987200202498116,4.488506593277634,-0.4650602897127101,18.33115278220066
1.308,8.734969856941461,10.103521819901289,6.336318265379305,9.536237742407593,7.075817124052719,3.9902226093145146,-1.4710679222098406,17.20151257391808
1.312,9.464549831302065,10.884428206712983,7.357342378934391,9.367261345442785,8.982190004522181,2.2860743416567857,-1.37216235851065,15.213187085670143
1.316,9.169632351278779,11.824139173578715,8.703730756767072,8.407955998615307,11.530174919082128,-0.33406634853781725,-0.4761905482846487,12.734752442673198
1.32,8.210061478520402,12.611247773936611,9.761687544803863,7.114869322228969,14.213833082656947,-3.1681088686091243,0.6581104584802233,10.329508480805089
1.324,7.032677816227078,12.924934820486214,10.025250638502712,5.902462163483506,16.331327971182418,-5.396763706599813,1.4781188339675282,8.523994957784453
1.328,5.949278603893617,12.55786227150702,9.32473379687326,5.001379676336001,17.210673144179964,-6.433616917833206,1.6483536503192227,7.565984375441985
1.332,5.0427845818703645,11.504324022990659,7.8808849634765465,4.447844982596507,16.4444635655409,-6.153863257601188,1.1449861599876385,7.298572964986306
1.336,4.231896967702596,9.966716857097708,6.172727616075008,4.178604078917488,14.042046539703733,-4.893323841424717,0.2244490628127096,7.225184360491767
1.34,3.4373900619848428,8.283330198017666,4.709933853741859,4.147112584157185,10.457801660885707,-3.2361898522412957,-0.6929197924309847,6.758355111480341
1.344,2.7293792605723866,6.807740818831917,3.8369447653640236,4.385160607333546,6.482714517720524,-1.708539459228632,-1.1629446657707376,5.551734890243097
1.348,2.3536540937620885,5.791992849974122,3.6575764555054775,4.97279026878914,3.0373512117275823,-0.5495085451202613,-0.8469042238066322,3.743643990965211
1.352,2.6142783193545256,5.322065416995429,4.083792709561294,5.93868024944868,0.9175104096148061,0.3233412107638287,0.38483178767364734,1.9620025505628291
1.356,3.680291360047704,5.3311024238828395,4.943040806453155,7.179044239348059,0.5617632090797997,1.1607905469827529,2.3845150658798957,1.0678855433925492
1.36,5.436995661282708,5.675156083372713,6.053342722336765,8.457246923003368,1.914977463260584,2.146038916776888,4.715656422400571,1.72286065026492
1.364,7.481311345950417,6.219655914957912,7.232481374643157,9.503331677697133,4.438594400120564,3.2274440443798085,6.738384595899333,3.9919834956381237
1.368,9.280723464449693,6.89361699827532,8.275426285420053,10.160085780428744,7.289402755915944,4.118135544433244,7.79940709611401,7.195150225945326
1.372,10.41495516435134,7.679877781216419,8.963019802380131,10.484990533354903,9.616586043977804,4.458103667999239,7.486613248559479,10.12345634693338
1.3760000000000001,10.77723680802319,8.549706970891748,9.130188884233576,10.73654139026985,10.858747205079453,4.043506800706382,5.844337079190154,11.556104831182893
1.3800000000000001,10.619967217360681,9.39963831429759,8.775357649125908,11.232801849512725,10.92664578104359,2.977848562200961,3.4240977426134123,10.826627657546851
1.3840000000000001,10.41129973164334,10.041442558182098,8.131343003811253,12.153578718200151,10.186713206591776,1.6546475892646413,1.109595119271944,8.162792683115185
1.3880000000000001,10.587400143584091,10.275933868413631,7.6245672912555165,13.403866618373286,9.259100015889999,0.5752325042121811,-0.2459482620242852,4.6047624507791625
1.3920000000000001,11.328451876479448,10.017316206406576,7.708772916403177,14.62025086718495,8.717990177305182,0.10377096198863,-0.2141198152621655,1.5115220661155035
1.3960000000000001,12.468461739508712,9.376927192982293,8.635499975677249,15.326725958795578,8.822106222043658,0.300665155866227,0.9879295691498555,-0.09841830022196518
1.4000000000000001,13.573385435569435,8.630699755991373,10.272490216409096,15.152521718558091,9.395038552802362,0.9186611759905645,2.567923984972367,-0.03536232600163203
1.4040000000000001,14.132044435331409,8.05170939762138,12.07995593375199,13.995921997682672,9.89507289498033,1.5559660985036317,3.515353622292423,1.001800588084734
1.408,13.765975095862814,7.700117360915101,13.289932692942784,12.05305148664047,9.650591175364752,1.877721754657614,3.080495018543843,1.8303322207502788
1.412,12.378450281490586,7.31887555668618,13.227271807767465,9.709504293444297,8.16235697349839,1.7871899851943454,1.1380666268432833,1.442814863694366
1.416,10.182556784613553,6.41598814329609,11.617090041879237,7.370744320666745,5.32127264632345,1.460570563447618,-1.7434417537933768,-0.43944871972780675
1.42,7.619436354325444,4.531790056882528,8.725705374770769,5.3304613540640275,1.4592582204504652,1.2341041038234835,-4.569484267220105,-3.222398868012533
1.424,5.216225838301398,1.555578839303962,5.262660856277762,3.737814438564783,-2.7791874952326907,1.4125492382372613,-6.391058532082752,-5.787844889691769
1.428,3.445412961067632,-2.0900430663114093,2.0997545959889976,2.654586461962026,-6.667522928287326,2.100148775438356,-6.737154203932732,-7.135199817214016
1.432,2.618076153425136,-5.536140208887446,-0.06489765402329795,2.1292835347385335,-9.628930757122362,3.13694027510428,-5.793166534524062,-6.948797371758701
1.436,2.8170505304988183,-7.825368386809714,-0.9457424882803025,2.2218723325440806,-11.385810829793627,4.175354489671008,-4.249787934024425,-5.756987736895098
1.44,3.881127107748398,-8.359191185448253,-0.7110899453027741,2.957621653256865,-11.969151643404984,4.854038632029187,-2.9224271795883396,-4.5966019801126095
1.444,5.443499909995808,-7.2039234735457285,0.16700593663335894,4.248916887731866,-11.619931238765275,4.975656133938173,-2.3391742863241234,-4.378590915865061
1.448,7.034792326203387,-5.072648954087526,1.1675565119321618,5.855168789815252,-10.644326270168676,4.598359393543433,-2.5134916344832163,-5.340261668265157
1.452,8.225155078556782,-2.9838322314417383,1.9384084568628168,7.422402221289303,-9.29914106760316,3.9880790076131234,-3.0190883469913388,-6.923857953293918
1.456,8.748490247306108,-1.7936937423992276,2.3722379675746197,8.586761566278255,-7.769782334987212,3.4599294422605453,-3.2981033893338463,-8.157739816921094
1.46,8.562814833820084,-1.843662014713118,2.535592778940554,9.088334653379206,-6.212223597291995,3.196988968516962,-3.027132200923006,-8.303668970776926
1.464,7.820433571370813,-2.898760962945744,2.5277660726314934,8.838497238427408,-4.806180821115049,3.146874204998312,-2.3196573643072043,-7.367075343652687
1.468,6.772437422834628,-4.367444784934378,2.384332817881841,7.914931812461873,-3.7478156605102413,3.057509613532602,-1.6603141351261002,-6.146070225935546
1.472,5.659240280579979,-5.640632146523785,2.087834450167975,6.505152535519301,-3.1637305006179304,2.640201673277261,-1.6037584212353977,-5.7669617496212595
1.476,4.638305746802871,-6.358113346848768,1.6613049582147141,4.842116116118632,-3.0157606709071842,1.764820931093709,-2.4130447395109513,-6.974497825151047
1.48,3.7718390969384927,-6.480632979012626,1.24716875654849,3.1470321071956278,-3.081043628729276,0.5584755598338234,-3.867560788672563,-9.631987947781454
1.484,3.056041324578473,-6.19060340643864,1.082048528271116,1.5814686726707805,-3.0712302844167425,-0.6585523988342175,-5.355690498065087,-12.749235980343656
1.488,2.4600378084051044,-5.733857150577933,1.35794809374147,0.2026764070333229,-2.8343546877131303,-1.5760395849210909,-6.202771655152901,-15.038137093644764
1.492,1.9447519670266047,-5.31565676354694,2.047027139235979,-1.0716171705935267,-2.5151651688993297,-2.1157291818162776,-6.043315666791386,-15.666426044961554
1.496,1.4515267133901943,-5.097194428934017,2.8169435986437747,-2.4571813923703303,-2.558431937643036,-2.508495083453454,-5.02023095165714,-14.73421414108816
1.5,0.9147268924716627,-5.21358577915089,3.145692403736575,-4.20742022820923,-3.478714543116439,-3.1456447548353026,-3.673162037579459,-13.161585536676284
1.504,0.3146844924031029,-5.734132528586997,2.6087019527385564,-6.437245331928352,-5.491352931028814,-4.269076040647633,-2.5723145873507747,-12.045955640118336
1.508,-0.24561152372552897,-6.54733854013557,1.1853286737477902,-8.940860946606335,-8.21583871824896,-5.694501227659202,-1.9304270267639367,-11.906686235539382
1.512,-0.5061382192652673,-7.267768654759493,-0.6232200666445351,-11.13839622017349,-10.679207087766372,-6.7821881060608575,-1.4585001379800815,-12.329109884944046
1.516,-0.13435244212814723,-7.310072299716012,-1.9966053627249494,-12.253077210911215,-11.717001049903047,-6.749357992022851,-0.5928006765843747,-12.272013540714397
1.52,1.076158657866472,-6.177744175498447,-2.260143971866455,-11.695100531587741,-10.610548857020149,-5.200125346011191,1.0129923372478515,-10.881406674296159
1.524,2.9737935369648767,-3.8572404913538776,-1.365756778105606,-9.480284195116838,-7.624448414628205,-2.572588378134242,3.0249587544549286,-8.29844168891941
1.528,4.929391423242123,-1.0709978323893665,-0.09162989514425135,-6.445075460302178,-4.0954774191368415,-0.2099659989362408,4.326822831108075,-5.922798121722735
1.532,5.972354545598137,0.8561339500747636,0.22945755240834842,-4.05314785457449,-1.9153623421789234,0.09329266640270362,3.442827799684892,-5.8554048351506935
1.536,5.179396670897404,0.5488839531262784,-1.6152845209007864,-3.8000661334772303,-2.6013786941921353,-3.0670141225164116,-0.6655314887757413,-9.741177620388044
1.54,2.1735987258089153,-2.6597053754312583,-5.9665293332309375,-6.46328960376195,-6.403628790211769,-9.883293111975945,-7.831422672998087,-17.644676408013765
1.544,-2.5326297513747704,-8.175709633470433,-11.879451569504454,-11.583487638114093,-11.954817439672297,-18.982385839521157,-16.38607185032197,-27.622632092276035
1.548,-7.568488883878672,-14.150417044437745,-17.31948590660795,-17.488881432477683,-16.710227532001227,-27.78898586510695,-23.583747690503515,-36.31128841596728
1.552,-11.162953025410388,-18.14302186972327,-19.942688903362978,-21.929864666759386,-18.03271633969598,-33.5049613475494,-26.638489941353328,-40.30099447151588
1.556,-11.861307391996888,-18.18302134751866,-18.124475592581803,-23.0573768932245,-14.426284907895933,-34.2588782674502,-23.89524950296618,-37.614538359237486
1.56,-9.160497718035913,-13.705751423794027,-11.7383850337701,-20.270437615363335,-6.2924659760737995,-29.868425281394593,-15.575698317416027,-28.54596358209892
1.564,-3.7618275105451175,-5.884858014253041,-2.3040913181675933,-14.511090685518866,4.16677984137641,-21.852750511359773,-3.7406921516630973,-15.462844398578454
1.568,2.701108460994874,2.8394888021248335,7.58501360813716,-7.845888309988368,13.877185580176956,-12.70690604875199,8.530903613465853,-1.7210162567753287
1.572,8.335156064786133,9.81758593561517,15.282674957815289,-2.537409079734971,20.192927938400317,-4.818778522057983,18.348392284729925,9.716871334108873
1.576,11.72297828038245,13.29121732927797,19.06562727687742,-0.07228375992963265,21.91694231296333,0.43542471685577766,24.019847985569868,17.26847147654189
1.58,12.395909335376928,13.023923895738335,18.636251235285272,-0.6115052128625393,19.59334258542549,3.011463758724858,25.43550004336248,20.922284035987104
1.584,10.84766203574327,10.18462170938983,14.983239190669337,-3.0972241461386147,15.000952931693973,3.858365665699239,23.738946305013087,21.696518408072734
1.588,8.143435340611177,6.618011185073556,9.759912342474308,-5.9021048899030575,10.189320934119678,4.188197604446032,20.556375396483418,20.801304256019648
1.592,5.378754160214157,3.9366642550185134,4.551245999955427,-7.636538660082806,6.595830993154777,4.79864576199725,17.241674643079023,19.028980154798774
1.596,3.2589717198443395,2.8901426319648635,0.3805015363423081,-7.6984417812548145,4.656068912828687,5.797537711418045,14.502143391699974,16.664628648440157
1.6,1.9684578232436252,3.274522888517822,-2.3817727099180956,-6.338812637170577,4.006689007477689,6.788186482548554,12.494164003878268,13.823961671047982
1.604,1.320165622742934,4.320153196278625,-3.7888911148747866,-4.296166929279934,4.036583054214134,7.314694565568061,11.190393262597354,10.857339963287814
1.608,1.03270656337736,5.263400694618213,-4.00618105000558,-2.2821030515297025,4.403597008496945,7.240710780908557,10.695683696876586,8.462800424364104
1.612,0.9461998580045474,5.7563043953923625,-3.140483049051909,-0.6348535895904206,5.214663043974724,6.8246498362277634,11.281511731105638,7.389307710065623
1.616,1.062659731538588,5.910511445630618,-1.296794830755971,0.684963370056721,6.800841714419221,6.483743301607319,13.126177918797111,7.921784555095655
1.62,1.4423736067274149,6.034454566378372,1.2369386356240284,1.8221090972747334,9.300248424854544,6.44582003746109,15.978093836669359,9.52441023162828
1.624,2.063393654047104,6.280770428825235,3.8609981809750025,2.7035999730105686,12.341926092400172,6.54395032636603,19.018561989667432,10.932850501172652
1.6280000000000001,2.7615229594775883,6.455610895173777,5.746389891060062,2.911005407844641,15.061269778093447,6.293580667275819,21.07446582987359,10.71192853962566
1.6320000000000001,3.28781635921041,6.100342328789338,6.12281265277943,1.847243545341371,16.445806990768688,5.1978143976812134,21.090557921270374,7.99243919881701
1.6360000000000001,3.427591347030102,4.766610819400739,4.620370404201822,-0.9008038931879128,15.794875455462716,3.0806868050021876,18.619217287208812,2.9765767367607623
1.6400000000000001,3.0917592796031386,2.3061981944174477,1.4707418157013308,-5.23594102228617,13.041431520217884,0.23701613404409727,14.053456476294741,-3.08050535017901
1.6440000000000001,2.315625996543531,-1.0060990704605501,-2.5660660017938426,-10.477170516685874,8.755237193799985,-2.692004056429141,8.461725452121755,-8.423165030384553
1.6480000000000001,1.1819390214495797,-4.574271687542023,-6.512870133872639,-15.601728769915098,3.8560478938161395,-5.041439119071583,3.1201336818558048,-11.591992818903236
1.6520000000000001,-0.25390029175287054,-7.727554585483631,-9.563366938085892,-19.6710977372868,-0.7842194958147957,-6.435837719425763,-0.9984739197934687,-12.031239537249348
1.6560000000000001,-1.9788121797737404,-9.980207106538728,-11.358417605883005,-22.212271543476163,-4.655977586149675,-6.915011978100665,-3.519568193341911,-10.208535882688011
1.6600000000000001,-3.9526267050205206,-11.166990206874289,-12.02294024625462,-23.344312709070437,-7.68857946591379,-6.835128662783973,-4.63363937185386,-7.234299781190202
1.6640000000000001,-6.011464417715615,-11.416608731411543,-11.98359255773721,-23.589955483224912,-10.098675912428007,-6.626026026278851,-4.810880070250278,-4.23229684350008
1.668,-7.832772155627026,-11.018537992147685,-11.689134368247323,-23.490290379779253,-12.140255934750712,-6.56483637355268,-4.465449386811088,-1.820920611899055
1.672,-9.008177173762306,-10.257317974555008,-11.388078159360703,-23.25484752433931,-13.894579525463087,-6.697509680314397,-3.7713721543186693,0.029663318273378536
1.676,-9.213853205465057,-9.308060457522515,-11.075448569482433,-22.653081121958166,-15.210571276020346,-6.923875402550038,-2.7066357422627334,1.731461649385892
1.68,-8.379741706961795,-8.218923869667378,-10.592063422382125,-21.192259726750308,-15.791131711995149,-7.150539850237692,-1.2390430126706633,3.6288059473081375
1.684,-6.758302546944833,-6.95474670547992,-9.786669920406894,-18.473844440946777,-15.351596604399674,-7.388241607812233,0.5060006735002389,5.671457636410196
1.688,-4.838910651120386,-5.462143370185004,-8.631207858859852,-14.511133763608086,-13.762162056955276,-7.7320965803955914,2.2264991142383224,7.405000574177393
1.692,-3.1407213460806815,-3.7157443984842757,-7.227638834177014,-9.822535959625384,-11.102416821362567,-8.261853284881,3.5758662238222314,8.255346297955839
1.696,-1.997212414344176,-1.740500028151473,-5.72720850946007,-5.247259327953543,-7.631456664103098,-8.951052476590121,4.34687516568556,7.91238673056796
1.7,-1.4521423459264042,0.3715563868099707,-4.243262360268091,-1.5972232482590698,-3.7232508731158305,-9.671672563206812,4.565539964274649,6.551314671829459
1.704,-1.3199022147728101,2.452324085894361,-2.824598464725568,0.6588965393002582,0.2013955681995867,-10.29742924382299,4.421743039105422,4.748301049570728
1.708,-1.3676157245245122,4.259321571948931,-1.5012825793965021,1.5105287931082785,3.719747622012619,-10.833663015600905,4.094401660215226,3.139286031204392
1.712,-1.4938300740959676,5.519622449697636,-0.3495235058708204,1.2791522265342792,6.45829741358466,-11.474592797467267,3.588720632082186,2.038442772216513
1.716,-1.7949414285540115,6.012106634697375,0.48284773535488057,0.34966497662480833,8.150968597787141,-12.524013827965973,2.7092174568133487,1.2639585527213058
1.72,-2.486761049420238,5.649184120001337,0.8214635479471326,-1.0652223599790887,8.69062365152422,-14.204672721451061,1.2005655239554471,0.28718638433201704
1.724,-3.732737874324812,4.522708666891958,0.5525202879962308,-2.9881191587101057,8.148801532046491,-16.46854903692656,-1.0370419130267692,-1.3794506241174531
1.728,-5.496434486585713,2.8720668360556374,-0.3140277365610018,-5.5432875955193595,6.732210633605064,-18.928061135657117,-3.800374759479382,-3.791100609996647
1.732,-7.50974813512039,0.9870489485974758,-1.6588764993466611,-8.732143655478467,4.6876755385119395,-20.96817481308426,-6.627889712028264,-6.434657902340405
1.736,-9.386455007947006,-0.9135101118044986,-3.348109309288702,-12.275410673892111,2.1898155452945502,-21.99740787828341,-9.027447608865259,-8.451732651883503
1.74,-10.807279722392195,-2.757469237663827,-5.339337978647563,-15.62488355385176,-0.7270825037703617,-21.708152465995227,-10.749376220812337,-9.106827228781185
1.744,-11.655977869204435,-4.601966127991545,-7.719526540462539,-18.14115632443645,-4.148871282379332,-20.20130830115704,-11.9396632441767,-8.231714614528755
1.748,-12.024625199441289,-6.538943944561652,-10.621776223833876,-19.330703153889772,-8.170269894497324,-17.910388910855545,-13.059492025829968,-6.370067926720367
1.752,-12.092008695824916,-8.571583952667424,-14.058330639158157,-19.01707518983676,-12.74754748801115,-15.382416152702717,-14.61675921800088,-4.540722508154431
1.756,-11.97301605843495,-10.549760558055823,-17.781288447486986,-17.377040696500444,-17.614904052934435,-13.035221398580688,-16.869208836167672,-3.7420270119109773
1.76,-11.643769168584186,-12.21348079747986,-21.273939251979755,-14.84111332431894,-22.32289735921313,-11.02208189205885,-19.663051703961173,-4.456744079481723
1.764,-11.004642603147659,-13.325833815332771,-23.919127337760074,-11.938413066404792,-26.394104091337795,-9.271537745873502,-22.499110816268512,-6.434397019074822
1.768,-10.046986690442282,-13.83014855624242,-25.28158695703314,-9.178066943022714,-29.52502545675543,-7.661453807228099,-24.78201084270586,-8.87101778352735
1.772,-8.995419705877794,-13.923062692075291,-25.34447873613226,-7.000693421999131,-31.702658724540015,-6.216818272923774,-26.097211655513092,-10.882976472905284
1.776,-8.301482574832335,-13.980789586807987,-24.546294837670757,-5.756870609194266,-33.14796117072092,-5.198936355553087,-26.347100718305228,-11.99260830903222
1.78,-8.463431437026884,-14.371612808778082,-23.57579256239478,-5.666207623951777,-34.10786392922091,-5.021229925881926,-25.687949918316008,-12.355645402596565
1.784,-9.752706844994464,-15.248102193672821,-23.01792788980856,-6.744868703573047,-34.611302605104356,-6.035091469508188,-24.35299150787614,-12.61788252479164
1.788,-12.015604708236424,-16.440944875027526,-23.0318271683509,-8.742389424037356,-34.34577385238481,-8.297757585314685,-22.500541491099284,-13.491043366448139
1.792,-14.673387890943559,-17.505916449717006,-23.24171351238965,-11.156746031472721,-32.7461476465578,-11.448239509334599,-20.194057615157362,-15.294793273267715
1.796,-16.948725331729293,-17.914809902784327,-22.91344760624861,-13.374115194075785,-29.28538170626598,-14.769871149459505,-17.515615519650964,-17.731231370276873
1.8,-18.211330499590986,-17.29816838977422,-21.33352271577496,-14.8960647874992,-23.83168619837852,-17.415832807722836,-14.704408456852434,-19.997818862731947
1.804,-18.253046855346838,-15.614449162969322,-18.20068975004415,-15.547455442801038,-16.877175805788283,-18.69838478191741,-12.177699283431139,-21.16701818488218
1.808,-17.34180656940407,-13.169050494901057,-13.827137334575582,-15.540462606717483,-9.49640062130129,-18.31401707702753,-10.38658999130621,-20.617317244139485
1.812,-16.027983001790744,-10.480004874631959,-9.049070877445956,-15.34326519089882,-3.013869326303393,-16.416530117090588,-9.585328100195511,-18.297500724889687
1.816,-14.820042948159426,-8.06401843203912,-4.8903449627846385,-15.40502074910546,1.4799853189542773,-13.514194419811247,-9.657072838345812,-14.698060785638518
1.82,-13.917825429281038,-6.257990774892278,-2.1597749790439593,-15.884292540468778,3.528370551349326,-10.25231664864259,-10.14444715758782,-10.575920965542537
1.824,-13.150291129559264,-5.145120202920225,-1.1741469157550455,-16.531998715310692,3.423834982788321,-7.184275075183905,-10.500152785239152,-6.611175822552468
1.828,-12.15010553625143,-4.609743132958101,-1.71949097404422,-16.799889608690137,1.9802380034161615,-4.620110946354544,-10.417232400404828,-3.168260867265417
1.832,-10.63683351695363,-4.455498840412474,-3.236379756079714,-16.11329774283513,0.09679510184651008,-2.6084444174484815,-10.031185193798592,-0.2650701557595312
1.836,-8.62988854517971,-4.514496132011118,-5.111110558862038,-14.16067628374276,-1.6645553425114485,-1.0295404417847749,-9.854359653666506,2.2706707675915823
1.84,-6.4675170762102425,-4.6956210870939685,-6.917535085460713,-11.049123667224194,-3.2701149977974637,0.2683341486263089,-10.447207889129459,4.586047422941192
1.844,-4.633672793464939,-4.972379937453297,-8.514864884999497,-7.265598033930473,-5.093053401949874,1.3592080744601844,-12.017564472187587,6.6510506937338505
1.848,-3.5101666692107756,-5.34990399194885,-9.986469023361224,-3.487076993475057,-7.575120095502825,2.2000395677114284,-14.208413854539685,8.244226024167801
1.852,-3.209558853436647,-5.83957362484216,-11.478760190688263,-0.3547646658821577,-10.859150059620333,2.663482306736114,-16.201657079591314,9.064231403808662
1.856,-3.5783970119555306,-6.454723485676823,-13.03656730485909,1.6769078213437751,-14.600806548251057,2.6117480506891297,-17.103437326406493,8.883919313482693
1.86,-4.353222381212618,-7.22646136186313,-14.517651185359682,2.3809849584049516,-18.065298725161483,1.9639137143367407,-16.406480452686083,7.662650405876775
1.864,-5.346509680543022,-8.202225513302892,-15.614371719771498,1.733960134494282,-20.437294004670093,0.7296931491164287,-14.259466151177548,5.581340494587494
1.868,-6.529681069035178,-9.413355804851562,-15.953706007025175,-0.09973625105612882,-21.16631939743138,-0.9899685264481377,-11.381933848264453,3.00646747315659
1.872,-7.9589833242671375,-10.81560764742153,-15.22361306476796,-2.75181813475956,-20.155608733081863,-3.025761309776499,-8.677718924842338,0.40357740556282806
1.8760000000000001,-9.599182091331386,-12.237515629136851,-13.2799354304816,-5.636184537835561,-17.71219906294391,-5.159219008637592,-6.765334616895416,-1.7537408783337014
1.8800000000000001,-11.178120310105442,-13.375933094208449,-10.196446712399847,-8.003561067823284,-14.31621175013106,-7.1286696302322525,-5.685590779060476,-3.0594021197357506
1.8840000000000001,-12.196757389706363,-13.860677487326939,-6.26091114425617,-9.12333504564549,-10.36535420625205,-8.636992581177765,-4.953400274127489,-3.24738417671324
1.8880000000000001,-12.125525831834238,-13.379424419034422,-1.923717753211804,-8.55113118950294,-6.062142420800228,-9.38883890998477,-3.8992803253713646,-2.2569971047450963
1.8920000000000001,-10.685251491516283,-11.811441967885912,2.2857851784383456,-6.361953329298103,-1.497745880214552,-9.180402990719813,-2.1061122678001993,-0.29615642800126807
1.8960000000000001,-8.046081749999757,-9.306944331443901,5.8597382295511125,-3.196579969049708,3.1528546756753713,-8.01316774546649,0.30771398125307314,2.140137390120799
1.9000000000000001,-4.817211544152087,-6.2751215036960275,8.401673860897063,-0.051611470446005114,7.4776490959102375,-6.171202792791519,2.711545158914305,4.332500300981337
1.9040000000000001,-1.809965477978949,-3.2736826542654853,9.684918501803168,2.1229728304483615,10.847222978881291,-4.19465606049198,4.265743812221444,5.495893837774929
1.9080000000000001,0.30853045460571593,-0.8454880314670845,9.669427707438444,2.839493107403541,12.621959865823555,-2.7194390265922266,4.341947427041305,5.01304783188607
1.9120000000000001,1.297079078050956,0.6504481670672249,8.489557503785363,2.294714512376686,12.45471506027161,-2.229771750045984,2.838299552601711,2.661459484275838
1.9160000000000001,1.400909657038028,1.1342357455091587,6.407840811615188,1.2636923148570531,10.491582793447833,-2.837688506707309,0.22138366737272008,-1.271208074334936
1.92,1.1594061884188704,0.7855865057135816,3.751812851591694,0.7039562040467899,7.331050614383912,-4.207416560186175,-2.6887828951385018,-6.0421706800298125
1.924,1.0728647664063828,-0.07456184964757995,0.8452463576172704,1.2623924963791069,3.7432402139693295,-5.691596009565728,-5.079723444674528,-10.678129708307097
1.928,1.3132362726955762,-1.1513724801061471,-2.0472422640691548,2.9378423061284593,0.29440489648186485,-6.631758300106412,-6.476070347791392,-14.292920087833409
1.932,1.6453649277436853,-2.298665063985027,-4.746707797863564,5.069446432099994,-2.8915455070045937,-6.6849067743887645,-6.885406094418613,-16.37919304902789
1.936,1.6058487983336818,-3.532458186187796,-7.143441304417138,6.666863796306643,-6.074229078743883,-6.00061552358784,-6.702344478678242,-16.942743965984846
1.94,0.8207086841985074,-4.933808330168631,-9.1488880613515,6.904080657142458,-9.569921495798098,-5.143765207740216,-6.44434512544467,-16.436706756285275
1.944,-0.7248699199553812,-6.498756593930466,-10.64044183490978,5.516731635342694,-13.348989699939011,-4.787728154162323,-6.456785897014925,-15.525919765575964
1.948,-2.62396979683308,-8.02885232849303,-11.424409574853144,2.908613455732848,-16.810888992672062,-5.3410623094323455,-6.717528614389266,-14.788309466517603
1.952,-4.237461137592618,-9.134227023115272,-11.251932904716796,-0.07419023655256751,-18.895873549397947,-6.718616727954213,-6.8336400915031845,-14.49050069860823
1.956,-5.031687374193098,-9.368552947183616,-9.900788084889882,-2.569472511175263,-18.526239747222462,-8.387449263439521,-6.23082640134453,-14.53828940189851
1.96,-4.875587188143982,-8.438579263614429,-7.296693653917828,-4.096414369843387,-15.165955355133065,-9.669468566458818,-4.4538506604421855,-14.603739651982323
1.964,-4.118677213184128,-6.3700703862295995,-3.6198948921582996,-4.717443402263598,-9.191083936089854,-10.122795896543721,-1.4349467232614188,-14.345473240331557
1.968,-3.399793575153126,-3.537267987938776,0.6689160894479755,-4.890529433343545,-1.8572871590604336,-9.769179097515007,2.3953691888928006,-13.596696790342321
1.972,-3.292452474853235,-0.526752166652841,4.910756823786414,-5.131812400288709,5.142076806759178,-9.044780020610233,6.2163055841210735,-12.44968374038217
1.976,-3.9885641596038113,2.1000661542893795,8.42509034098748,-5.6922702713018225,10.31553027207292,-8.510286621911291,9.12585098033469,-11.2042259064674
1.98,-5.19967941185223,4.019162937922829,10.715801205888965,-6.428307346507154,12.898205026025607,-8.495673331030048,10.51284065261143,-10.210153129030004
1.984,-6.32445736228965,5.228107404480397,11.616153851793115,-6.926082450383092,13.024293259861679,-8.904060597871648,10.3298584405361,-9.692356074598138
1.988,-6.77752462299668,5.9674205280771275,11.31504742668767,-6.776927022922337,11.497032474629123,-9.28954788838746,9.135745683955065,-9.64251772827356
1.992,-6.280899427789336,6.545017373045084,10.262353908289924,-5.821957068686061,9.32868026384449,-9.151334454205426,7.8633364405054635,-9.823177826009669
1.996,-4.957346023159516,7.169574399783869,8.998148867616464,-4.214583567789305,7.3056065421660605,-8.25526554296539,7.399679913138698,-9.87893999302014
2.0,-3.1939455037586413,7.872936360773565,7.96865029327796,-2.2812115096917296,5.766325810593116,-6.774536804791751,8.162620500892444,-9.50719131729602
2.004,-1.3828613051000502,8.545050930878006,7.388223838301883,-0.28823663004232003,4.646607926393699,-5.157793912305351,9.876617791702301,-8.613544635930339
2.008,0.2853856525134688,9.033022329582764,7.1924887994923665,1.7193219592550122,3.6827000039961604,-3.8161627628142014,11.66308667960584,-7.3825411163034005
2.012,1.8417370012875836,9.23137187030352,7.079605229038862,3.8811506363504122,2.609747021158455,-2.850349494695365,12.418114843327203,-6.2447344037909716
2.016,3.374052332796964,9.108898639782637,6.628870964250609,6.306675844149822,1.249344159811244,-1.9965964769326092,11.323625574952075,-5.732186662161439
2.02,4.800871807411113,8.664770015428985,5.4589112180970005,8.82552540040001,-0.5172087508553886,-0.8429540004090086,8.243387837414502,-6.269154485156832
2.024,5.765083244850302,7.8759651491482146,3.3841035616956106,10.883999713322737,-2.7931204424185125,0.8201566701145566,3.8239568283011067,-7.970400533740758
2.028,5.744739984377702,6.684860566201223,0.5339586945299288,11.691901883157925,-5.632635038035005,2.7554728251943743,-0.7435002735896887,-10.530461140493571
2.032,4.331853674635568,5.049099122100415,-2.625379853888944,10.560679022811655,-8.91675945255929,4.3071501665390315,-4.203285484364187,-13.281051315973855
2.036,1.5193873263770001,3.024245170149925,-5.391386732687579,7.262842450486005,-12.229145813510968,4.715815132162788,-5.718736689138495,-15.404175222423873
2.04,-2.193139437316404,0.8151577450962577,-7.034997948993805,2.210272984398671,-14.855720411231005,3.544123522193331,-5.141527614716779,-16.225839155203175
2.044,-5.964994254439716,-1.248723039661627,-7.061227189446299,-3.661605501666827,-15.975398854328432,0.9549376325994672,-2.9757438150554663,-15.470337257245774
2.048,-8.978435423311112,-2.8159686052529196,-5.418074243308183,-9.247810611401064,-15.003098230057276,-2.324632301492784,-0.07055950958374524,-13.370141272506771
2.052,-10.785742513451169,-3.620858051820278,-2.5441078693609143,-13.669693146594454,-11.897743500816432,-5.339023247710429,2.7857937106300596,-10.563714566700583
2.056,-11.451019502466352,-3.5470427290483713,0.7888541009624532,-16.51396601570832,-7.257803371923728,-7.348649182614281,5.164444312942123,-7.831184989791836
2.06,-11.409206880610327,-2.626424323669653,3.7765053602940952,-17.817741406666755,-2.137157338825773,-8.130623023674161,7.049175463585925,-5.80496641442187
2.064,-11.12369148156995,-0.9873279380785789,5.899060200303438,-17.84392560631113,2.3566323322497738,-7.968227521987501,8.660868671162461,-4.776086863934324
2.068,-10.76026545259083,1.1857055487894286,7.0899704172618385,-16.81704194416716,5.4690326654140335,-7.3641232657528235,10.183403958480085,-4.678724046119896
2.072,-10.066746537062954,3.66200270888271,7.669138356352505,-14.788754657514346,7.020165492127944,-6.671920754695748,11.551985808797326,-5.22517387370317
2.076,-8.5411207523739,6.14482244455121,8.076084916729087,-11.706642016488331,7.337566924766861,-5.884557785876041,12.418540377086174,-6.100426591803625
2.08,-5.783276705044045,8.267341240218002,8.55606497149438,-7.6114306518695685,6.963006370136554,-4.70335623819301,12.317106970336226,-7.094755498311315
2.084,-1.8274003742162677,9.645435284071027,8.971012825820708,-2.819585119088515,6.30532700337244,-2.8360352043659987,10.921888924941413,-8.129277538830138
2.088,2.7390657985192775,9.985656192215174,8.850735525332539,2.04519876804261,5.425786725415492,-0.32488920693231194,8.245925938681467,-9.194071969068318
2.092,6.956175284511573,9.217183952262758,7.673226286221279,6.213247197471219,4.079057547161256,2.3095454317899566,4.678785793861607,-10.271895956876506
2.096,9.8886028444349,7.569592624603047,5.223422430941355,9.04342226826293,1.9609887495455496,4.217084071031422,0.8490691453880572,-11.314102493967766
2.1,11.024342415201772,5.5281411811852195,1.822525066075741,10.250088893125394,-1.0088732082747356,4.588771160068973,-2.604180067195557,-12.286920482109963
2.104,10.477433202265274,3.6728875070980394,-1.7167038674845116,9.962407221583135,-4.531739777389703,3.053221217517603,-5.224228141851199,-13.222678857016035
2.108,8.895409601992924,2.4596637835647925,-4.407779984722993,8.60020296372818,-7.99390320387829,-0.11427626191198215,-6.820221318035237,-14.214858863561858
2.112,7.127761701636246,2.0490167721043235,-5.526473558060843,6.646595054766294,-10.70572925824581,-4.077460232610974,-7.417502681100814,-15.336087091515765
2.116,5.825650394216154,2.2619584443855274,-4.943754857724116,4.444273789040835,-12.189035119550454,-7.773280124429675,-7.132058074481847,-16.519312564309075
2.12,5.170443716998307,2.6786364723409406,-3.178873384229746,2.1203746346466232,-12.357312571520652,-10.316086115988128,-6.0719551286892965,-17.494777958281702
2.124,4.851976994661982,2.8333378157465177,-1.149920977842271,-0.3475631909452659,-11.502995809535605,-11.285265722162876,-4.319866072765535,-17.84876222392859
2.128,4.286767940826621,2.416027356047607,0.2584205737225602,-2.9913541588721273,-10.108646881497634,-10.784484841290123,-1.987379803397289,-17.197691022645813
2.132,2.9609351845542733,1.4055773669142582,0.5928846072885108,-5.736360980186419,-8.582052506160835,-9.289269856421924,0.7059225294865428,-15.390925365401017
2.136,0.732753145235165,0.08591554927716061,0.00703969238963964,-8.369413729521511,-7.053902087244751,-7.390240082315813,3.413074911646845,-12.622748316398884
2.14,-2.0445232308379673,-1.0527623615278117,-0.8589449264811719,-10.587868077755502,-5.341553381226959,-5.556046298826914,5.732151318381057,-9.378010173446455
2.144,-4.633127986526688,-1.4844691978232731,-1.23025705092914,-12.086728649364431,-3.0967054500019913,-4.0090448958526395,7.339132978702537,-6.238820736091384
2.148,-6.205152829379813,-0.8392145634800272,-0.5889577447633201,-12.622425603284569,-0.05790137593248801,-2.7339662007243533,8.112257394712742,-3.660376246910346
2.152,-6.1735237384875745,0.9575423833202876,1.085845378593831,-12.032936753357262,3.728570150675523,-1.5720188641771529,8.17012135886921,-1.844294235734651
2.156,-4.432631480094642,3.628676457920278,3.3163179823261544,-10.24782983894147,7.8116463820477975,-0.3445382153245191,7.787469251057701,-0.7758970615582257
2.16,-1.403014998789331,6.600100282852054,5.34719317474071,-7.313270313857402,11.428391587535202,1.0474537346644865,7.2010411189421575,-0.36887060421167917
2.164,2.139444275221649,9.164389436247347,6.466410895253489,-3.441800394507027,13.754749269816784,2.581960211416117,6.436826131725184,-0.5857089310993615
2.168,5.362078029348822,10.699792849403366,6.280376563753634,0.9460640915757494,14.202588648758706,4.132089784854543,5.274789587353098,-1.4416225438003494
2.172,7.674888521437197,10.87515198097708,4.834684847143876,5.242785899367163,12.647639244997094,5.520429406341009,3.385930593172361,-2.893019352762167
2.176,8.915924708698185,9.766002060281608,2.565422187630361,8.78526066037216,9.49841361888582,6.60411540255609,0.5915228672686226,-4.689221352162349
2.18,9.33415785181387,7.815748556001154,0.1190918442223392,11.056799627714554,5.559423207935424,7.348890282446064,-2.9004209889747017,-6.333742210435048
2.184,9.394455612908587,5.65746243976389,-1.8801036982030155,11.875995089565208,1.7466761598182075,7.860722697110987,-6.428187202137451,-7.217346459778128
2.188,9.508706041119922,3.868753696864701,-3.015936568790721,11.47388991376306,-1.2243011154946544,8.352499050786946,-9.057119707279753,-6.878289715113624
2.192,9.838192654730165,2.7813761948880256,-3.1638480370788784,10.403515228607148,-3.03464938343393,9.053851263226989,-9.9484116391327,-5.236864457189313
2.196,10.259196358562349,2.4248329305576135,-2.4629656439325345,9.307346210642208,-3.7602842768355913,10.09946756140721,-8.733932639059958,-2.6398988948562874
2.2,10.488515381465504,2.6140510324097477,-1.2023521542927256,8.641051737252724,-3.70043455572079,11.449719924742567,-5.702622491515058,0.3176770075178865
2.204,10.29973764322176,3.1283359068906975,0.3328427728609995,8.495567254825914,-3.121694652876613,12.891351826917798,-1.6751534767554404,3.1086040801992567
2.208,9.6911261071632,3.858948140906705,1.983112472133712,8.601532665651803,-2.0743420156243246,14.114713631046925,2.3730115245148227,5.524441136671157
2.212,8.898117599241914,4.834574432938325,3.74557617936307,8.497752005534949,-0.3850793405656532,14.822363175411056,5.73815390274126,7.684272040890846
2.216,8.240261647946795,6.10790244360112,5.695678310459641,7.76866654469336,2.1630010096579326,14.81302363822465,8.22970777185742,9.787006359091492
2.22,7.899956485678217,7.5889296453216275,7.848321268862151,6.236180524006841,5.577863981016662,14.009171031531878,10.096081971115495,11.772577549858852
2.224,7.779896242868176,8.95396414803895,10.035418323495719,4.02601462556504,9.492985790740022,12.440641789603433,11.707049101386247,13.15621851139258
2.228,7.552060702917288,9.723226048939978,11.898605322881963,1.5092859902831606,13.216795822169047,10.231585852756325,13.206821887946262,13.202605133131328
2.232,6.901769036850737,9.510959794622977,13.040153088443049,-0.8166400899602877,16.018443528844273,7.618766364611929,14.372318441022799,11.390178884490524
2.236,5.830839484170383,8.312771579952141,13.257642779455523,-2.4373373996891132,17.497198330184347,4.993565348064976,14.781897131646474,7.909119295267374
2.24,4.816599075882323,6.641727165483303,12.716521664769118,-2.898235972794623,17.808742104278622,2.9032784554326554,14.165982718236592,3.8371557496775495
2.244,4.680437079872718,5.388833045354318,11.918335269156898,-1.870921761664647,17.58497349044808,1.9407090038023398,12.674330722579953,0.7850885375491998
2.248,6.169322930791736,5.408671657379614,11.418237944805867,0.7472044171526022,17.526065349836472,2.511184372972366,10.82747132375573,0.10428084175964614
2.2520000000000002,9.435810037497276,7.009395196370974,11.398730649496542,4.684216234108362,17.859451524073734,4.5481421220965785,9.113435755230967,2.017375682455395
2.2560000000000002,13.71005820872631,9.620048221276193,11.35375726076336,9.176026338169436,17.98594749263674,7.338988202594919,7.478657424369544,5.185757832110994
2.2600000000000002,17.400228616477534,11.854855058198098,10.124899700878132,12.999429705642342,16.57935719420351,9.619203370128844,5.091787243132785,7.063175204940762
2.2640000000000002,18.655894159382683,12.016041897150672,6.3660470756812515,14.732059415864114,12.17525780943788,9.975849133665179,0.6359013196533851,4.9816415775915175
2.2680000000000002,16.183052698443817,8.846114696417885,-0.7108790694969116,13.220766595492705,4.01517643130353,7.434805553992874,-6.91365255340088,-2.4851129910241525
2.2720000000000002,9.944980429145744,2.211273669572961,-10.660632392044818,8.10493879022647,-7.259310137646139,1.9841624505847903,-17.391944777242884,-14.542314450506638
2.2760000000000002,1.3722838413301588,-6.6356951337207875,-21.599349360028157,0.14702397313118354,-19.47089237592911,-5.251895612098451,-28.971162037082138,-28.13040736308028
2.2800000000000002,-7.064993985551382,-15.380183292210063,-30.670056556821237,-8.831619396651945,-29.488302530227315,-12.317540863374916,-38.491859219569506,-38.94094734543694
2.2840000000000003,-12.773299806616762,-21.453129403195476,-35.061095006209314,-16.459588735936308,-34.32997057468242,-17.110864901165996,-42.56957890998444,-43.09383472044237
2.2880000000000003,-14.047943874236182,-22.999040597423942,-33.15055300815257,-20.60715086311825,-32.33147841445006,-18.17191264882331,-39.012976611919896,-38.74434701194343
2.2920000000000003,-10.722439204560828,-19.583839576197562,-25.23898630124205,-20.149326252410418,-23.841619755963364,-15.223202452336182,-27.882722637969493,-26.88059495250218
2.2960000000000003,-4.164012120763232,-12.335095279233087,-13.49407420728474,-15.372933985365052,-11.11836117311745,-9.22031818364485,-11.633494062739942,-10.931899559458088
2.3000000000000003,3.3665898077441057,-3.4653987489874964,-1.1024581385339047,-7.842165646292472,2.532099628601486,-1.906476384266739,5.768774003343651,4.629920920353243
2.3040000000000003,9.675253133909848,4.601867066642967,8.978739206727312,0.21381949477105877,13.982651186351717,4.900378318839614,20.337323447726533,16.045191354982762
2.308,13.469659655604971,10.115362785965686,15.10465540439526,6.734445859175821,21.340468920836656,9.951282187914671,29.478767188407062,21.593763290459833
2.312,14.70917417483912,12.52228422108277,17.37019904189293,10.527335664700587,24.39691183159067,12.871549894490045,32.70259556315705,21.938094427894498
2.316,14.357938646885316,12.442518314087778,17.227147651640934,11.54744218920672,24.338828295793206,14.040676101303461,31.36998909038806,19.40890469266685
2.32,13.733595755272688,11.16331076606454,16.545317798186318,10.688656812281181,22.937705941272412,14.184990143773916,27.72828884238419,16.68271350635257
2.324,13.816813078068435,9.941175273548822,16.6214609993375,9.234208625654105,21.649414308825982,13.934862231745228,23.78514998114133,15.541848357075992
2.328,14.853583638847851,9.441197416269858,17.626933823198783,8.249138503138312,21.0335837990566,13.578452712973672,20.574219262259703,16.291259360782192
2.332,16.400543522780083,9.556278631273642,18.72053187329317,8.185768495293587,20.711209583672655,13.092158982816045,18.077929797447155,18.0148416089462
2.336,17.72131362542575,9.641205337929364,18.69244816058955,8.847818529802453,19.792446248217516,12.362837643052444,15.704964587497102,19.41006283136653
2.34,18.2770714601628,9.000280059031638,16.75583651264455,9.675238595338556,17.507626715456468,11.420945019195528,12.953412992736048,19.66618888791436
2.344,18.042435771255782,7.364015415644417,13.0515272180497,10.161196548347448,13.716855897829987,10.527940314714556,9.853262725729962,18.895261442903347
2.348,17.487587611558297,5.096645087495517,8.619233936745331,10.163990245023285,9.056640899043316,10.06375226872342,6.985014665770848,17.927627670579113
2.352,17.271943668015524,3.0503146597799855,4.895403865205537,9.960815205300094,4.694113165565682,10.300807373769658,5.1439217914395385,17.663746791699396
2.356,17.839379506875275,2.1519263707082814,3.028103898013171,10.037781051953573,1.8327279761928708,11.21498573181077,4.887938027201358,18.429566529376643
2.36,19.14332135568509,2.936426015720997,3.3785331632628868,10.752882372473948,1.2169592823816515,12.456381853919993,6.236386693740883,19.732606248621778
2.364,20.6445998510859,5.268343288278231,5.43520312899301,12.06438544780491,2.8510484564750413,13.504339159547953,8.670528310775012,20.554568905285123
2.368,21.57879022169527,8.382089747880343,8.146915327559554,13.490623449349641,6.03651339591778,13.929685487829374,11.399604501453382,20.002327260381207
2.372,21.34628509400011,11.226591438336072,10.463497205186115,14.330047978911864,9.696124408190371,13.613154142894587,13.714800170888793,17.906089874438294
2.376,19.8249693813392,12.939592240957438,11.787543277729242,14.023939066598928,12.819668581901794,12.802022396746224,15.242939546091975,14.9952613543403
2.38,17.451590901776285,13.214650463022906,12.135354983419631,12.46922391854008,14.835006616832914,11.980595682379203,16.009627017084085,12.54888867558111
2.384,15.036111292728037,12.38790568553793,11.964755922384938,10.109057958666483,15.758597412237862,11.620534287099304,16.305005402118127,11.722476999396122
2.388,13.392145585617754,11.20203108833283,11.805752856337392,7.738726205667547,16.060848471042107,11.94189891641679,16.44885422839525,12.93491682273293
2.392,12.967913082120504,10.388174838105215,11.925372587599838,6.126905123846711,16.340710060097308,12.81139494851152,16.59002846447379,15.666808262307313
2.396,13.652310989766193,10.288353155512198,12.203391806882905,5.657985221448996,16.98325407788633,13.821575739291916,16.630096217299297,18.77062260019443
2.4,14.840367948539324,10.708861082434737,12.262966147557677,6.18481868392962,17.963514442488645,14.503199050224907,16.29263969977535,21.09247058300616
2.404,15.714958096417945,11.071279376567702,11.743849887241197,7.154026842567475,18.873206236408578,14.551063888997987,15.2846905722987,22.02758795531372
2.408,15.603097588223363,10.765695601034622,10.54403651309309,7.929279554464529,19.14408898536027,13.95301876343342,13.474153863520883,21.713004011672183
2.412,14.245384321844199,9.511277573188522,8.88437947386143,8.123301930243372,18.342973033098644,12.968747516904841,10.990787764289962,20.78149597180709
2.416,11.860686402137503,7.520350630734185,7.161310814214232,7.75046751767934,16.377976113873274,11.98075078622901,8.199443717285362,19.861404291814324
2.42,8.991516620319544,5.378632884932983,5.689975650877614,7.125344201357905,13.516407051808528,11.30353778202857,5.55968093394813,19.150819392451695
2.424,6.236666629249157,3.730689022324043,4.51021139388763,6.593169612246697,10.242263171951606,11.049032201925456,3.44495188630367,18.33356209146973
2.428,4.003433040515574,2.9348442664323784,3.372497163026935,6.272461846762894,7.038214739138311,11.104077359207622,2.0153148502538443,16.86485528692924
2.432,2.3988672451175717,2.889781915271783,1.9196101502206488,5.969898979398522,4.221584507712464,11.21563708288727,1.201331451520673,14.418643213664382
2.436,1.2858759263932598,3.119051706523919,-0.03758718014762508,5.316395994244374,1.9065387539734502,11.119233636845138,0.7988510164602758,11.189579478516862
2.44,0.4378864922385901,3.0505229544768326,-2.3266853561107155,4.027074191833492,0.0773336598321066,10.641521074536286,0.6139488943483684,7.845774096775358
2.444,-0.31533505122126826,2.325494305609311,-4.439670490605465,2.10717683989634,-1.3082591770435101,9.729697781160894,0.5605162831217285,5.155552813363329
2.448,-1.0244619867950178,0.9649636838914262,-5.772343041679449,-0.12653745694422014,-2.2614842065172525,8.421984365333401,0.6570879616427874,3.532739849361633
2.452,-1.641368265236565,-0.6680890033412652,-5.9414228083902,-2.207266222238218,-2.7577550384270353,6.80513069022777,0.9374018750110054,2.8071066171075927
2.456,-2.084094931374807,-2.0672523759715773,-4.996966201359726,-3.7489130682283758,-2.762352662348121,4.999442204427623,1.3535472725561704,2.3706832561724696
2.46,-2.286226585089935,-2.8238528843844506,-3.4006670374432133,-4.592017080760513,-2.243368648855494,3.181062029409304,1.754176950488045,1.6037908047023848
2.464,-2.200580731269838,-2.7727938460321866,-1.7762695517802172,-4.779819241154485,-1.1472335789176213,1.6072710554301466,1.955978583492083,0.31052764016862966
2.468,-1.784584541244044,-2.0011944631320375,-0.5795867951097193,-4.408153394745909,0.6135685680409324,0.592820635649332,1.8695673367355994,-1.1305845732911166
2.472,-1.0092815326020173,-0.7523814957420427,0.11348895377801682,-3.4937555508590776,3.1102645894185343,0.416921542182763,1.5707432711374167,-2.0177118640458502
2.476,0.0897000266396617,0.6887912463985231,0.5709421070187659,-1.9783861551992459,6.271783007723002,1.1877145676858163,1.254623311100886,-1.8262595477315244
2.48,1.349705916518701,2.05838031359292,1.1515825129740165,0.12173723846183293,9.742337838757635,2.735114734779245,1.1009018211796047,-0.6392148245827229
2.484,2.4749040048142206,3.1265822855717715,2.0027972807657193,2.53628234482278,12.851159009224489,4.61049067507679,1.1348352020660286,0.790725259357032
2.488,3.117784307672082,3.6874661513537603,2.9066013723355013,4.690732888898651,14.767458601401245,6.208101571090992,1.1781616352237734,1.4136736854702576
2.492,3.028763260634605,3.5737905842822784,3.3759967630176675,5.879194173418,14.821583881669653,6.9647449380477156,0.9416673646987874,0.47994954392174805
2.496,2.1994432802700885,2.718628776217656,2.9525082339246183,5.606010204670838,12.852320802073223,6.563011095385036,0.21996399124554955,-1.9748952670677227
2.5,0.8908109375506683,1.216329585517542,1.5212274652163842,3.8958892276803,9.372743973331694,5.0388215779373695,-0.9484560231636578,-5.065193441798101
2.504,-0.49646065095976155,-0.670996882233112,-0.5675175259985963,1.3499965022955394,5.415081358773364,2.75224862122559,-2.267868792059744,-7.489470135653846
2.508,-1.6482447271712317,-2.5928966658765376,-2.651127214553526,-1.1210328296463103,2.0861147118446297,0.252384585784057,-3.328219993672519,-8.211527900210967
2.512,-2.5269745236287235,-4.246058417164136,-4.104900084177302,-2.7712117121459414,0.0441832574365435,-1.9132566274640794,-3.8247091334803827,-7.027040754418522
2.516,-3.3983805745669997,-5.4920821377306765,-4.6875303232055785,-3.436590941124905,-0.8210961236246703,-3.3633294680048493,-3.726958355693114,-4.688549748807418
2.52,-4.661819958788556,-6.391732872599391,-4.665955501744179,-3.6389652676864443,-1.3063636039673838,-3.973438675876878,-3.2852371484682408,-2.5132480951383513
2.524,-6.569451462802363,-7.1318826176139964,-4.6433649290717085,-4.293623831626974,-2.42627813625586,-3.8874797307289555,-2.8637010929267035,-1.706417359736406
2.528,-9.001763822611792,-7.892881066206428,-5.180706114241843,-6.154148703782084,-4.794489185873545,-3.4466947306982547,-2.715245463921292,-2.7559959140530736
2.532,-11.444213027616797,-8.73365762149433,-6.436587611974801,-9.311241984128173,-8.195728134489514,-3.0663875287095834,-2.8349898802805455,-5.233131486611001
2.536,-13.188173486837513,-9.549113403619344,-8.028544280274446,-13.024889290518331,-11.583840955847108,-3.0836474200223165,-2.9643548071387613,-8.06691567177404
2.54,-13.648236905105705,-10.117597945344414,-9.204606196312625,-15.992483141435514,-13.524866915279063,-3.618680669693049,-2.7566532594200908,-10.119971343013276
2.544,-12.626136068755386,-10.20112233008092,-9.241203007918216,-16.93192144720274,-12.871283323070543,-4.511372741214927,-2.0003507791616357,-10.750242501937919
2.548,-10.384455693239715,-9.642122922975659,-7.843602785578696,-15.180535119947308,-9.326926992246968,-5.369748470457353,-0.7615741074132529,-10.048248234937091
2.552,-7.5045998393702575,-8.408131462216375,-5.332585651124191,-11.01323745109903,-3.608341350537785,-5.741285515495974,0.6133865704809978,-8.66693622024468
2.556,-4.630473203315432,-6.591336492739174,-2.5248687123878426,-5.538497690434497,2.8565906447358884,-5.35101757393636,1.6333484845979456,-7.379060038582793
2.56,-2.241385964688334,-4.383216370247624,-0.36659345020711953,-0.24283638252632045,8.52356607418426,-4.287706005689415,1.860272656579582,-6.6295700755990765
2.564,-0.5621548985666323,-2.047164773598638,0.4888448503180598,3.5797818311081073,12.322347878590563,-3.0202358788899346,1.0807478533929498,-6.3303660994770325
2.568,0.3875270082562565,0.1043794177211339,-0.05012185596785912,5.264007325723014,13.968495479857438,-2.1939680625848723,-0.6069691840516498,-5.9776868714507145
2.572,0.6860597013110237,1.7552980427796,-1.5150329510130405,4.908801648635404,13.892022681736762,-2.2872897332458706,-2.8046459878155474,-5.010315253193767
2.576,0.43141486802596773,2.6603523084233984,-3.133019036144219,3.2059965779895947,12.87010618111833,-3.2999826471127562,-4.911271414908924,-3.1773884311282927
2.58,-0.2668422424715118,2.7273581485637806,-4.194431846272664,1.0851954726223312,11.588823890671847,-4.6662405364249935,-6.282097116342584,-0.706908307955473
2.584,-1.2603312584603827,2.0689472098571287,-4.360578055134965,-0.6589495287112186,10.35997413752068,-5.477068676464569,-6.425465428028701,1.8056969511817442
2.588,-2.375420075112288,0.9603727194029261,-3.7925787679630503,-1.6273537814980727,9.084540463921712,-4.926730870751271,-5.201352999056098,3.7191883852929095
2.592,-3.4917760187404383,-0.2897323959386995,-3.0599789081562676,-1.9007985085371502,7.434882466585691,-2.7640775314375787,-2.9334281371316138,4.690871437212991
2.596,-4.6464621672646444,-1.5046338901117906,-2.8895034494441916,-1.9593422880852813,5.1148227772499695,0.5016313944911417,-0.35251075223072803,4.847687316636893
2.6,-6.066120091900984,-2.749279050586324,-3.862491590854461,-2.47847903844729,2.042683849419973,3.7758416577767093,1.6509209470661972,4.692280479152032
2.604,-8.057902502377829,-4.294737515710494,-6.174812300791473,-4.060915592469996,-1.6042562557454403,5.8643677363852476,2.3854230802087386,4.804336761969353
2.608,-10.781247544070766,-6.4427694101214,-9.534587759187048,-6.981756562843998,-5.4710683352763,6.022881638948547,1.6881651059504748,5.5045423641163325
2.612,-14.017755753841811,-9.283207832025937,-13.217124691325694,-11.034032416624882,-9.149787077291535,4.28743448214982,0.056711374893438915,6.667093309186839
2.616,-17.104214016388596,-12.526155046160284,-16.264607538026098,-15.539560771077277,-12.267550059254745,1.412424155086228,-1.5409148536266457,7.776332340876706
2.62,-19.114219938381666,-15.526931367699149,-17.770557693886985,-19.536060557662267,-14.508899609950163,-1.526924230669465,-2.112223733926612,8.20187801307793
2.624,-19.230734847020358,-17.513900272375736,-17.168052078285996,-22.094950609902185,-15.607105792152879,-3.6433027524785757,-1.1373078497599636,7.538821182657557
2.628,-17.14314010256726,-17.933641623698236,-14.434878284595925,-22.65116143063085,-15.36046289110277,-4.584993412853237,1.1355685732742131,5.8240451200549614
2.632,-13.24954157287516,-16.72973132280447,-10.13748377301522,-21.207300214058705,-13.69280982561213,-4.5604759090851985,3.7731438567179794,3.5048360903974753
2.636,-8.546872893110503,-14.407215678523244,-5.284613779094002,-18.31814845001645,-10.743282204247862,-4.075832627243017,5.595916933447825,1.1789859559362412
2.64,-4.234481988810558,-11.824813487769688,-1.0158736400965154,-14.846665226120422,-6.906816500276818,-3.5659377104370833,5.7524601022039406,-0.7264023847196768
2.644,-1.2297548361782447,-9.807105359151137,1.7683502542591896,-11.612126929461397,-2.774296611641148,-3.1562925351890954,4.126178017328357,-2.166362410735019
2.648,0.1649283762781124,-8.772066975935104,2.6986602660027756,-9.091539096860515,1.0255661038299877,-2.671421086688042,1.3673263811722336,-3.4420629642149834
2.652,0.2991296582627001,-8.55849628129522,2.0302610862187294,-7.308064393304903,4.03579105756603,-1.849578875883708,-1.4731384163262646,-4.936495758626279
2.656,-0.08857035202026964,-8.55191744091735,0.48023801709928193,-5.943659944225601,6.114754661823326,-0.5944253182778994,-3.4960712877100377,-6.780994472937891
2.66,-0.27980728675038335,-8.05004384603626,-1.1183197372862423,-4.6017495598064215,7.427711113452233,0.9000707559098373,-4.394749980919414,-8.668824222489093
2.664,0.0758155421592619,-6.6820066672351,-2.197881422022988,-3.081373571899803,8.284300589323493,2.219151777643674,-4.5536343111073165,-9.951816854742901
2.668,0.8274987365089146,-4.666246508845461,-2.696808763642821,-1.521164854615563,8.896152396804837,2.9392765068946574,-4.757716917615653,-9.97746978726218
2.672,1.4480024482013505,-2.7576319317788602,-3.0379492350350574,-0.3512851009691076,9.201189932544821,2.8393812338053976,-5.690002026283992,-8.474349971268111
2.676,1.3325122634214495,-1.8946066916500968,-3.8472299007466972,-0.08585621251722841,8.876994448283767,1.9902919480773562,-7.496399806780801,-5.7403880072661195
2.68,0.09622698386237971,-2.7382580066066566,-5.570454753885201,-1.0847000072817536,7.527790310028649,0.674830766451123,-9.65738334505113,-2.534341093247349
2.684,-2.264865102850308,-5.335980747116764,-8.189951873961036,-3.4083588567987135,4.943484448972413,-0.7892027541474818,-11.233389522483776,0.2787516386247262
2.688,-5.398809796872683,-9.085604148512857,-11.185885864842703,-6.8138552056996105,1.2777785239898094,-2.200956421823321,-11.342484305917651,2.1314281202912753
2.692,-8.773943403785779,-13.022221716845934,-13.777261069410088,-10.875724631389176,-2.9720990532496216,-3.5254431413745806,-9.622692008602598,2.9564459156299563
2.696,-11.897621718182563,-16.27035201538979,-15.306296803709984,-15.144047246558557,-7.171283761001405,-4.828655710455223,-6.446784006663847,3.0839175249348045
2.7,-14.469677194444102,-18.416339100082496,-15.541472862120827,-19.24272958245001,-10.800417763896348,-6.165949472317607,-2.7738748940878395,2.9190772082165495
2.704,-16.404432735066166,-19.593115370047826,-14.73131985906798,-22.8645586947398,-13.58719449578598,-7.503767847978452,0.27735548442160507,2.6286766841349163
2.708,-17.737331721671126,-20.25456243255826,-13.38338014148826,-25.69396026442064,-15.443311489712642,-8.717612181667391,1.9136167297501743,2.053274557400073
2.712,-18.47902378024719,-20.775010041742462,-11.900475389933717,-27.338767888006032,-16.260031371908326,-9.652952432309121,1.9822691450776802,0.9016640580675812
2.716,-18.514176920893533,-21.125687241345304,-10.304994725906681,-27.35482463722974,-15.742284107105434,-10.195069996208531,0.9725298420926265,-0.9101260163361076
2.72,-17.61791556331582,-20.84035944481775,-8.231293909094802,-25.38820382002018,-13.453430329524508,-10.301012765572523,-0.28118641507899156,-3.0316607435997867
2.724,-15.594641951311132,-19.302071522440656,-5.207408353271148,-21.382000566773513,-9.106433570944091,-9.995180043581513,-1.0376677578569797,-4.750704499759195
2.728,-12.469076415342897,-16.19505782017336,-1.0658254781003507,-15.733226276279083,-2.955142330235276,-9.341560728697914,-1.0236213630764723,-5.358974862587274
2.732,-8.615686657416063,-11.838737011049489,3.7734434178173615,-9.289762575793475,3.9911850134399174,-8.428100782798083,-0.5652512772503542,-4.595952749872595
2.736,-4.733319995559896,-7.181847149186524,8.340795223435748,-3.1455412174848334,10.13897175221814,-7.369768612350526,-0.4129297284985114,-2.8784347039277236
2.74,-1.6385397226758869,-3.4263971704469895,11.495059239774719,1.701478964680632,13.867230409200147,-6.305512450385777,-1.3447442739038706,-1.1412732520493591
2.744,0.056720164691114405,-1.4605657622178114,12.455933586309015,4.688776827134234,14.238780956503433,-5.365727125140893,-3.7417139383098856,-0.342022971818551
2.748,0.2204464202559393,-1.4248590364087477,11.191642294096823,5.860608120468214,11.471926912890694,-4.615854359301011,-7.336035783026773,-0.9131094677577494
2.7520000000000002,-0.7172616970938179,-2.6552182399613002,8.441172151746287,5.78102514943896,6.877987607080058,-4.008934905150909,-11.25917808421832,-2.4903827791090407
2.7560000000000002,-1.947417139630943,-4.055732174379841,5.347113107296082,5.224423860971456,2.245028167748842,-3.3924978592017396,-14.377479771839717,-4.092776766578027
2.7600000000000002,-2.6625994115261165,-4.704132209815384,2.900443827427921,4.787532423867219,-1.0316534982805479,-2.5928904298125417,-15.754246905190485,-4.662149217277602
2.7640000000000002,-2.453738296856045,-4.351757775342321,1.5006229677150031,4.613779260099818,-2.6006786505402033,-1.5419089345400607,-15.022454161956375,-3.6482372026803205
2.7680000000000002,-1.5214016755221564,-3.5474125666694363,0.870126406214581,4.369695256046498,-3.2266285603834604,-0.37019551698085706,-12.48697459397772,-1.299023512709482
2.7720000000000002,-0.5752504993399725,-3.3079162944486598,0.35633106599186704,3.484806645624758,-4.2250055854690345,0.6071507849451336,-8.925881501046206,1.5113948292982968
2.7760000000000002,-0.47167240292878887,-4.531985629220344,-0.5765103420955029,1.5224250120725173,-6.58612053618026,1.0246864957975959,-5.209427927982915,3.7943381834797947
2.7800000000000002,-1.7781824572452933,-7.500211154546378,-1.9694310303547127,-1.529071413589918,-10.303173689712594,0.6553955958802362,-1.9347491489816093,4.9710511676389615
2.7840000000000003,-4.483121639444107,-11.719896401645656,-3.3270545597634964,-5.202988139535364,-14.29310672129327,-0.4549292738583972,0.7459454580498459,5.091620822965524
2.7880000000000003,-8.00500316841476,-16.197139920280733,-3.93548507446269,-8.765513046688511,-16.97841132404392,-1.997102949049804,3.0214529934748953,4.637529750127669
2.7920000000000003,-11.480097078392646,-19.954451501066387,-3.3410611608387626,-11.571088617578198,-17.189444226559772,-3.5613526658157753,5.126982582304208,4.0626908198332785
2.7960000000000003,-14.15799846546156,-22.48173059632245,-1.6885587019246486,-13.35354717975099,-14.858249903749538,-4.8575039857378215,7.060214016845748,3.403136388460098
2.8000000000000003,-15.682573149000063,-23.865591682104196,0.3025154242205872,-14.276489398847843,-11.089902097351114,-5.858652175751104,8.477915101130975,2.227450021901859
2.8040000000000003,-16.113542910161414,-24.540248482888956,1.7180538624838846,-14.717113907718044,-7.553898580630857,-6.773736321806155,8.841789567595015,-0.02713160329585662
2.8080000000000003,-15.709076026854973,-24.84656570185416,1.975118401274699,-14.907971036755498,-5.5516702174170405,-7.854888025883611,7.741728834908599,-3.5510276477002662
2.8120000000000003,-14.634762403498371,-24.699595858830207,1.1815797946170505,-14.666654179451598,-5.304989725612131,-9.15872610090446,5.20081264054852,-7.828881474744776
2.816,-12.801524374146993,-23.588912648156565,0.10457743687538823,-13.403940353765165,-5.885758464973151,-10.419442807309679,1.777714193528027,-11.726384233609224
2.82,-9.956117701717403,-20.929796501837927,-0.24612311114549357,-10.444895067992888,-5.83628639595031,-11.141459963642774,-1.6118755831189446,-13.994588059543275
2.824,-5.959699525662927,-16.54108869192578,0.8075148597941961,-5.497760633749749,-4.10502193346133,-10.870725522680459,-4.07203537918258,-13.91332757865348
2.828,-1.0798096463017828,-10.9546111526397,3.2022837210136004,0.9980265261831391,-0.7503230243121379,-9.49416485458687,-5.110613131279933,-11.695275875733387
2.832,3.910273795954481,-5.332941056041932,6.11699118322349,7.864491444180544,3.0058412856669747,-7.390760468356348,-4.838348661380451,-8.412238494105168
2.836,7.922972221397686,-1.0104751322105585,8.35498827616243,13.563537418078226,5.404606422355641,-5.316459679522723,-3.878943223677652,-5.4704355633543855
2.84,9.966183168138741,1.103406215315431,8.917716387564724,16.798054584960937,5.102709237946783,-4.064058080974974,-3.051859720310631,-3.9259176301529806
2.844,9.57094961349594,0.9379722384568936,7.4553990172608735,17.031741139713006,1.9070772562390061,-4.078685306960892,-2.9858394324425603,-4.029167974250754
2.848,7.00662047702599,-0.7435526603950393,4.368765654470224,14.661571953534803,-3.126967782293093,-5.240743798693984,-3.853417297125816,-5.227584696726581
2.852,3.162745485421965,-2.761050391058234,0.5268717776341418,10.756196117539275,-8.268017943982954,-6.938968865275001,-5.342149006003183,-6.597848667854123
2.856,-0.844186809677467,-4.117540909546733,-3.213058573216358,6.506394572802947,-12.007621042439723,-8.391917784884072,-6.845463750425779,-7.430249437773455
2.86,-4.139345783968338,-4.4601449768191515,-6.396998859056225,2.6909049146381676,-13.775405152844428,-9.045884167739587,-7.7667492156131175,-7.620488224189103
2.864,-6.393886654505195,-4.157802340484068,-9.072548798124444,-0.5647381047408544,-14.081289075031464,-8.830903045392688,-7.786967662631014,-7.661388881685525
2.868,-7.834644649215306,-3.982596054546775,-11.55874656723745,-3.625765310778661,-14.047270753667362,-8.142131501018412,-6.970868584046684,-8.262153095560734
2.872,-8.980783572350447,-4.595769572384484,-14.062298530582098,-6.9088619710530565,-14.642904593910998,-7.579930806290804,-5.6873788816751585,-9.860647619449082
2.876,-10.266231979182521,-6.136118672324187,-16.399849460656014,-10.445625078838475,-16.092671928556,-7.602674113635885,-4.411505466392782,-12.321720796934187
2.88,-11.75310767772362,-8.126799395788794,-18.000107280049406,-13.710090151161012,-17.781272232762603,-8.283455457597256,-3.5083136052564896,-14.98064300715032
2.884,-13.08359177139073,-9.728498509858582,-18.203793161105068,-15.82448505690786,-18.68141217225559,-9.29662719155067,-3.0999298594751963,-17.00327750589804
2.888,-13.680608711981222,-10.189477759985039,-16.688379302706608,-16.02647593081622,-18.026549548297794,-10.118357871292119,-3.0693037776391066,-17.83391808809347
2.892,-13.066452665379984,-9.221868693553347,-13.753729866101025,-14.120443448115907,-15.79956355441493,-10.305154480761757,-3.1753546488509983,-17.471596060852335
2.896,-11.121441445048731,-7.107131164939801,-10.283625073837925,-10.647160746393752,-12.758919637755298,-9.688651542472144,-3.211278331835956,-16.426254179036732
2.9,-8.153372836978633,-4.505941309806417,-7.384645981662743,-6.667195832262678,-10.005215823356025,-8.388391863542893,-3.1336667667131906,-15.394500330473193
2.904,-4.746359647580903,-2.0909173883369476,-5.881441207802027,-3.2670631740157887,-8.355643628383518,-6.6634478424555255,-3.0861894713252696,-14.85347780191887
2.908,-1.4796170067324965,-0.22130206739439018,-5.925059349109347,-1.0438507792905511,-7.893587150699432,-4.7169272325941165,-3.303380923659347,-14.789288081985433
2.912,1.3316605960985726,1.1753678809463963,-6.925738444791762,0.15715743899329482,-7.939856501081749,-2.5821832228334642,-3.9487325629862653,-14.699268084289542
2.916,3.7360445480090902,2.473100535130129,-7.850256676957656,1.1151987916241524,-7.452324086815793,-0.16211633537250236,-4.980528363727103,-13.857285524227336
2.92,6.036050430366004,4.063996360980923,-7.727061674762069,2.792602389493368,-5.611907100173767,2.6026518078872414,-6.129122501097527,-11.695878808171756
2.924,8.530949851035302,6.091332960007321,-6.112048389440872,5.804889309970747,-2.267025785421424,5.547198299584352,-7.010007084018866,-8.122846326490162
2.928,11.244079907495916,8.322297468547617,-3.29499821535984,10.057651649736044,1.973806994210122,8.210114854491621,-7.325553932189337,-3.6307675324753745
2.932,13.795103220237365,10.22569814643191,-0.1487062891928872,14.723498660539008,6.029273791839387,9.94212321908094,-7.03277724083398,0.8534636127401427
2.936,15.497093061126861,11.200375530028566,2.281876441445263,18.562609566013577,8.838882742240003,10.165054221778973,-6.367351299097095,4.317391250003084
2.94,15.648600593218703,10.829783311546976,3.2439544072832405,20.425255958946423,9.802717008547745,8.67193449143474,-5.684596708788035,6.071598573234496
2.944,13.888427516726779,9.062213252426375,2.582286094632309,19.708062765130308,8.979272679859776,5.8146632448879245,-5.206914260255644,6.0515918236205835
2.948,10.424977527071064,6.234924854582573,0.7481709410190547,16.564513155405393,6.97359464379889,2.461372609216369,-4.840113664443379,4.863927694222639
2.952,6.020605058887895,2.9548520166144385,-1.4576479991541191,11.803155382778357,4.6222262157508,-0.2797417926049093,-4.185820900977092,3.5537299908137356
2.956,1.7133571532249334,-0.11583690324596319,-3.2688759257447373,6.533628683466418,2.6303240910633576,-1.4806241359892738,-2.785504334117377,3.1569972023119135
2.96,-1.596540355184743,-2.477126096706172,-4.270018527609011,1.738055316625207,1.3260001143141267,-0.7866702293945309,-0.4606070447998718,4.218503065058258
2.964,-3.4802668011811875,-3.9142495453647257,-4.500536917991894,-2.03629702872513,0.6313007826383341,1.4051006710919864,2.4695952332327806,6.5108370690561514
2.968,-4.066559228882738,-4.488584279178724,-4.312624111401647,-4.741468223178515,0.22621114952568178,4.087021529238314,5.272155120173807,9.111421164911235
2.972,-3.8353181336444777,-4.401732463519863,-4.075002232991096,-6.645031132434042,-0.18307163493165035,6.063494635886514,7.185173967254741,10.837925053756635
2.976,-3.2531778516813574,-3.8118433930303013,-3.8973444219175235,-8.028329971775293,-0.635964464729625,6.4734819915847766,7.904073260689415,10.846754675804505
2.98,-2.481547481359712,-2.7188420936376474,-3.534938351315475,-8.951481610579037,-0.8584464276186736,5.1639654837018725,7.839341677597986,9.08091771096565
2.984,-1.3458088394726246,-0.9922698474616141,-2.5426162966020343,-9.227650198110723,-0.4126656759715388,2.7196573003716367,7.921871150424749,6.315287341545854
2.988,0.3962145999291806,1.4368302194583862,-0.6165005015515135,-8.62980037908278,0.9866379279616808,0.1179658962898884,8.992659485697686,3.735189343652337
2.992,2.650158554410723,4.31694965017698,2.049608584615612,-7.215447324055333,3.13448783010665,-1.8284600287709054,11.08621152237913,2.237043055850563
2.996,4.723414359911999,6.920465238047257,4.611615902955862,-5.554859120627384,5.173913095962746,-2.9379100184613662,13.06261289220771,1.8339404243022273
3.0,5.439235594658726,8.14376697762998,5.769877919598343,-4.664174607314237,5.761741081735295,-3.761696331999701,12.913205453227079,1.535397725030748
3.004,3.644804002139722,6.898323752585327,4.2739450255904785,-5.610245663646765,3.559213437477922,-5.2432163934320215,8.689671747502416,-0.18409812492473066
3.008,-1.1229002800889702,2.6497024191415903,-0.4616749756441436,-8.942271319148517,-2.132848512628925,-8.096668242017131,-0.3581457251318625,-4.527415856255516
3.012,-8.175650625691503,-4.148461531358748,-7.91944556457014,-14.236775513414187,-10.872863248478154,-12.2448659170376,-13.045906293799817,-11.558973013213745
