Timestamp,O1,Oz,O2,PO3,PO4,TP7,TP8,Fz
0.0,-1.0409451078885468e-12,-5.826450433232822e-13,1.1155520951433573e-12,-1.9113599591946695e-12,3.652189661806915e-12,4.547473508864641e-13,-1.6555645743210334e-12,-2.9274360713316128e-12
0.004,-9.817568233463362,-4.102809427911389,11.428853877990875,12.937604380105427,21.97062694689781,26.358275287219556,-0.29151588833236275,28.07993267048421
0.008,-16.908341832750157,-6.49884095475052,20.51114649151677,22.5894987556821,39.24022260645492,45.524024445376625,0.013280892914337983,48.93217519483035
0.012,-19.80559899883796,-6.2739499994935635,25.902372838002776,27.093414307509665,49.05334827450119,53.45263520537196,1.176145165198129,58.43616063452041
0.016,-18.89913297549745,-3.7117095213784665,27.745166392093218,26.709668133787293,51.57347401449626,50.79617413140392,2.9889018532340543,57.12243618873158
0.02,-16.109014460399322,-0.14243864581607824,27.37618600289236,23.442697927548494,49.41510213906244,42.11463455365505,4.89091030771808,49.436372037906786
0.024,-13.81079592018294,2.7059249588320107,26.489653826652074,19.86712036910295,46.05971471603107,33.28118103929158,6.288942749889898,41.198298009199775
0.028,-13.642932397348304,3.50065778979193,26.225629541257874,17.82539521618868,44.04902668499476,28.572622291013765,6.868733402575387,36.704007059609765
0.032,-15.84230955832173,1.8405116446929597,26.691508807019247,17.695765854846364,43.91694098534151,28.99051227625214,6.706753927213185,36.993853241537224
0.036000000000000004,-19.392353919466778,-1.6879066928646793,27.144534457185195,18.559342036941942,44.34961101410415,32.545567808339854,6.13437897220809,40.06135060397879
0.04,-22.81380123645366,-5.917754078369487,26.628759791248463,19.034809244086247,43.334797028923205,36.057330078270525,5.456947347941906,42.645206063619504
0.044,-25.03390891129252,-9.689256046541146,24.659603701520624,18.21654670194258,39.538132223215385,37.22195313319104,4.738733128142201,42.36430631536087
0.048,-25.859773951434217,-12.324744549352047,21.5133152824515,16.14601658303362,33.09591292029973,35.73655577914332,3.7737044382138905,38.97398659849669
0.052000000000000005,-25.84980097818762,-13.780667006009757,18.01269149813138,13.630433896269231,25.471445103107808,33.022928428256506,2.257666655030647,34.19862754188687
0.056,-25.751547501410947,-14.45200272750835,15.02275307475162,11.65171566853483,18.609454950568043,31.00116265409546,0.05490583543473093,30.47937090511688
0.06,-25.950235735687407,-14.821179166684477,12.972849655497264,10.776108626673853,13.942507209408063,30.817029145483048,-2.6332973418159753,29.518576910441425
0.064,-26.2566404523806,-15.15161993631179,11.705756632692157,10.935259931546945,11.814962491272048,32.28576578674793,-5.295559624628503,31.44221676363265
0.068,-26.150706985674574,-15.399643330313296,10.687769729494754,11.640652984711878,11.575725195307768,34.26649392591892,-7.330939436577019,34.968819624913685
0.07200000000000001,-25.259919161607414,-15.34282634676881,9.428912762892992,12.422818899117164,12.18622269898989,35.57899523639243,-8.333934238144742,38.32749507379226
0.076,-23.739364242843912,-14.813070591475142,7.8279512024699045,13.154398346038736,12.9040633238765,35.76742501894179,-8.286459848115108,40.27133117380078
0.08,-22.284831346387126,-13.865725873157103,6.232685145563586,14.040141933939555,13.627550164667475,35.23239411586492,-7.557144350122833,40.59987886418423
0.084,-21.71974647717542,-12.739706098720095,5.242681090953084,15.334377558701004,14.760356012777898,34.715058461137694,-6.6857839291497925,39.953062609190944
0.088,-22.445417054188034,-11.667910560211752,5.383041012263199,17.01995141215099,16.772886976750648,34.59431572748312,-6.087651332008242,39.1705446877345
0.092,-24.1112374156438,-10.672882936122427,6.876895384343836,18.727551513874168,19.82024418103441,34.56720389109182,-5.8228498226829615,38.7305350147399
0.096,-25.713205333842385,-9.484217824822192,9.638124382414254,19.984512771729335,23.67417776298851,33.95094895461235,-5.551374923455398,38.62299095103156
0.1,-26.11694394073973,-7.683865396006155,13.384244983063606,20.578133766098652,27.927754736198487,32.332064087966714,-4.71765634723338,38.631854638869655
0.10400000000000001,-24.679132634464125,-4.985519000584603,17.754828187727547,20.7543052432812,32.24357130568192,30.027229383711898,-2.850045469196729,38.66941057697289
0.108,-21.628261261650735,-1.5022137900659587,22.315861597595045,21.067971179890474,36.42290248290265,27.99601761044746,0.1479048359361279,38.87858644188286
0.112,-17.999105177101505,2.1548365991779583,26.498672536154018,21.971591307036235,40.26362270073779,27.262145551681137,3.8605026815430605,39.45262112933213
0.116,-15.14766729507445,5.049146813199609,29.61552688656476,23.435277894230357,43.36639689016532,28.249383449943906,7.4615132285169,40.3670095584753
0.12,-14.116276458492457,6.286826424470249,31.000135978391473,24.862456926487422,45.08312789460955,30.482660858125026,10.007393402190722,41.2769750632591
0.124,-15.122620695446118,5.445561372493808,30.286309544762332,25.413400942710837,44.72716015420504,32.840439421488085,10.829256172327081,41.660098136034904
0.128,-17.430156201616704,2.8434021502503946,27.664396930074016,24.551635733749343,41.96903687989707,34.20611335966582,9.839364747721003,41.14834684957721
0.132,-19.67484060892511,-0.5206032405065724,23.937102278577065,22.472530819422865,37.179210061184065,34.11377286165144,7.589693018877778,39.82085568627266
0.136,-20.48986604262695,-3.3564848823700704,20.284906277867005,20.12059849911759,31.469870890326128,32.995821709177946,5.0377493428780795,38.23623970687513
0.14,-19.147151367085804,-4.6486309209347,17.783634494680605,18.725550359196816,26.319026016509383,31.869616944502642,3.103726899049679,37.14872324442541
0.14400000000000002,-15.8892708181984,-4.1058766460893885,16.929494497548106,19.1089025823755,22.928710116865023,31.64888719268847,2.249381062073013,37.02741475331047
0.148,-11.814092325926744,-2.2781669153728146,17.425524746965497,21.168500316892356,21.677081454686217,32.53864291242391,2.2952160295917494,37.72623799181597
0.152,-8.369714791527521,-0.2640632520988504,18.386298371522614,23.884072767594198,22.007775704457686,33.92180596220114,2.592981320367766,38.57096128134303
0.156,-6.694176414828483,0.8597456307512203,18.876339815655264,25.878811970547268,22.85478926611799,34.80453697970102,2.484072529355501,38.84147517874409
0.16,-7.118430251108256,0.5839742058066477,18.460780590115778,26.192000390388078,23.33977839003209,34.49924717719219,1.7671961238510328,38.34131743133585
0.164,-9.045925891826204,-0.7847482009988376,17.448887625341182,24.792896889297985,23.289368369622203,33.05477726498026,0.8819343398872164,37.594549375453056
0.168,-11.299485191424662,-2.3382610289952037,16.649925867161322,22.506945198321525,23.24124419341561,31.147575543081494,0.6394631815946994,37.491430456949345
0.17200000000000001,-12.779026766089757,-3.1474101507056336,16.787656466744025,20.408494890182773,23.940261274725685,29.53553406837825,1.6064710705798007,38.57911063037412
0.176,-13.095228529833816,-2.9007875484034287,17.92351544948198,19.054733010086984,25.642820294926814,28.438393668146276,3.4998913192921073,40.42121702709067
0.18,-12.846466260320426,-2.230862152721489,19.23151086790855,18.038200923176284,27.682219468444217,27.26079479504876,5.001860361574558,41.481275060476705
0.184,-13.306308287273183,-2.456569447653017,19.333154720485975,16.187024286197435,28.62549398020323,24.85929219414813,4.246449897821353,39.67768950176529
0.188,-15.673605232972879,-4.858204183286764,17.027060648072585,12.316652825658041,26.99776500553328,20.23001490502247,-0.2039584611022569,33.422243709289916
0.192,-20.269466515201607,-9.847448285680754,12.050286218652085,6.1304632750340815,22.21843481574534,13.266998363734803,-8.383734597379213,22.664967341005287
0.196,-26.131445632145496,-16.495693526029875,5.452122616283601,-1.2617447441815894,15.206209085206025,5.147840927943069,-18.51245989792441,9.37011850827388
0.2,-31.286810536631574,-22.75339606174108,-0.7067361635714384,-7.587345730925735,8.217480400526624,-1.9403557230760704,-27.500391767117236,-2.933746055655771
0.20400000000000001,-33.58295322413589,-26.275160377096725,-4.207682128026089,-10.350892797503924,3.90597504041855,-5.690771206716846,-32.19210187184705,-10.472608787452621
0.20800000000000002,-31.690888800844885,-25.479925499789843,-3.6887701099952217,-8.013328324977248,4.0522687355173375,-4.744700396896388,-30.7721762978548,-10.814005797560082
0.212,-25.77382409692654,-20.311503860746143,0.7094077355670763,-0.7775405570126557,8.658635720193393,0.6442159442141069,-23.616932920999766,-3.927611038487399
0.216,-17.455663386778248,-12.293809237007997,7.411812797687055,9.449692648823305,15.918497820384975,8.708663011534156,-13.125252160174602,7.8210644509486436
0.22,-9.113187586378164,-3.8648618702023017,14.125412519423868,19.872331979030875,23.071559426145733,16.965515988102794,-2.6165227818440826,20.743222984726472
0.224,-2.822744831502952,2.696065702430106,18.852454560128855,27.972528860789875,27.681515756809777,23.275389423098506,5.150941245399359,31.385168783335914
0.228,0.4716657356665399,6.1789329807011475,20.66504152233029,32.424298040860705,28.672559088829882,26.643480892421465,9.054132744723425,37.8362019457193
0.232,1.1618635424684722,6.75703902711031,19.90670462808201,33.35751120274193,26.631641671817132,27.41497247390855,9.761122103222565,40.21744215646244
0.23600000000000002,0.5138032660140546,5.62267532706051,17.781947212319604,31.921221681686518,23.267080665122123,26.79841878594487,8.982661678363106,40.15514978167373
0.24,-0.17451951741911031,4.193501903253127,15.602170706921541,29.472143672727192,20.400362000965117,26.045394937994487,8.309156893616182,39.645910487134756
0.244,-0.2720738061926733,3.3905802946186796,14.177778676613134,26.921536202038578,19.114269411570845,25.800538964875724,8.353192433623125,39.990952604889266
0.248,-0.017117225200420805,3.3470048018225205,13.614096953165692,24.52612236783255,19.457816806988745,25.908054410862135,8.637026684840018,41.30599660054341
0.252,-0.15180298307905815,3.6416315385909597,13.54855828815033,22.14145071219708,20.76047867798331,25.707860647160196,8.21325836479396,42.75566892992513
0.256,-1.267392019184638,3.8278427387187013,13.617063639945536,19.67928810093357,22.266010999555238,24.59566461108583,6.554838254547937,43.26520336384366
0.26,-3.328931786021414,3.8387916921984466,13.783066440026484,17.402073552357532,23.64850943077444,22.50109383331396,4.08259831408069,42.26740659619581
0.264,-5.636064275516551,4.035191781004537,14.369285324380552,15.886702129326983,25.12635281979401,20.022045186172637,2.01040797529984,40.04990955910378
0.268,-7.228965944842303,4.889085864357858,15.766847555498952,15.676329167630382,27.1347334204169,18.11534510341065,1.6022086024750903,37.52774241877933
0.272,-7.44610183959458,6.566537310397219,18.045745418801484,16.881078009566483,29.82944855252905,17.540850271903068,3.327474700479504,35.62573808552039
0.276,-6.263718042208443,8.73389950002149,20.77995814682639,19.038892352388327,32.815225997287605,18.425901208978498,6.477351096682036,34.697016403910325
0.28,-4.278160672027834,10.69823630492379,23.187316801934987,21.319808786829768,35.28496226582711,20.208968825179333,9.467716055178089,34.3616602590631
0.28400000000000003,-2.353017911130797,11.808517824943406,24.53796501683175,22.967833326903545,36.48459408517967,21.993494297746537,10.678345518169582,33.82041252307648
0.28800000000000003,-1.180566613957823,11.833249224723772,24.534674310843464,23.665625999459518,36.15653207630061,23.047641906965165,9.316158986976063,32.386022346355276
0.292,-1.0022562559838528,11.075440731799711,23.429646128320698,23.598499518740145,34.65735859542335,23.13706561833303,5.816384178694829,29.871444981898325
0.296,-1.6116194784200912,10.151222000384228,21.827247112756787,23.210836834205452,32.69065108768639,22.527456428558427,1.5876359408064769,26.631701674833902
0.3,-2.605128703990826,9.556592174179727,20.284946182126674,22.830908182736437,30.8558045080732,21.715431104421423,-1.7528632603503507,23.336155888967184
0.304,-3.6484322014863313,9.333140943883961,19.009307483797066,22.451093557466738,29.335138858171852,21.104603289367986,-3.1809943156160685,20.652841101456783
0.308,-4.608796960894243,9.032964556183439,17.782952348504015,21.76961951020055,27.880410103247122,20.788836381530196,-2.6971709793160663,19.010915052255946
0.312,-5.482675034896713,8.022407319645323,16.165447717179525,20.447563013750607,26.08140333556901,20.540981922724033,-1.1961564981026314,18.516172204817614
0.316,-6.2346115067861065,5.925253260418188,13.844360578959105,18.39393738348406,23.72700264445754,19.98462153184314,0.09225304653657318,18.98810615464269
0.32,-6.752615049553655,2.8879266202478338,10.878623888293856,15.859494198792351,21.010129869384212,18.83696035770842,0.21025536181984927,20.065292464437302
0.324,-6.937489643491139,-0.46648996057548997,7.741302598884272,13.310862580960876,18.476617360783433,17.096434418876857,-1.153705067002833,21.305067215841838
0.328,-6.857388744473933,-3.3605001658500075,5.122511522982287,11.160479921552868,16.754817470970806,15.048386581431807,-3.6572066613712106,22.245976698097287
0.332,-6.815086491562781,-5.25147976501815,3.6145902735776225,9.53457953912769,16.231058069409357,13.088365135121965,-6.575395881919343,22.44849424224248
0.336,-7.208030951133299,-6.039318976896746,3.4835055274994735,8.261935006506416,16.890625367496668,11.50719003210415,-9.130843550886498,21.576232431475347
0.34,-8.282810742942473,-6.0232978693868695,4.6009644670756265,7.0733752536088605,18.398877974069386,10.375693425223368,-10.74057046158152,19.552747125948255
0.34400000000000003,-9.916742740573502,-5.6470999860390965,6.578785277874837,5.891671963085699,20.347394397753515,9.594683030915405,-11.108064000263381,16.690514656082915
0.34800000000000003,-11.612374089502838,-5.2348173510923,8.958016970123671,4.969205761777948,22.45345862194351,9.020495794849245,-10.22582400263207,13.642561698473184
0.352,-12.736014047947911,-4.88094353525209,11.332284903911114,4.756811256276457,24.56905183632827,8.551311530838673,-8.361135485916453,11.119876317875372
0.356,-12.86312648859144,-4.516314694125227,13.391900498960709,5.591762160174385,26.537585763225586,8.143684907123818,-6.026720215034991,9.514870476142722
0.36,-12.05355650609986,-4.0943891256949065,14.891416067218296,7.39272354875988,28.048711765620357,7.7861713952382665,-3.9143949584346025,8.692292722460728
0.364,-10.835224579802421,-3.7161144751347495,15.649207735046778,9.59904433672735,28.654252985663142,7.489642162347278,-2.726541508264617,8.085559927838867
0.368,-9.90880712191378,-3.6051951062848593,15.573692376815,11.389336297096463,27.94482289724403,7.2854221528320275,-2.931755638449907,7.043132948921678
0.372,-9.743453044400619,-3.960658454986718,14.686383795379504,12.05939969656791,25.77131568939602,7.211105245963466,-4.5510452189637896,5.208444779608271
0.376,-10.309917387518508,-4.805791001271316,13.117488378298216,11.356293081907696,22.357325255031753,7.277472567520153,-7.1180907766487715,2.6990787163016456
0.38,-11.151807806317757,-5.977145913477089,11.032934990034658,9.573458003545529,18.217486677106404,7.432362113865159,-9.887106716557074,0.004517168855101339
0.384,-11.729594674202652,-7.257118304916221,8.562586810578495,7.380525220300684,13.935506849743941,7.562126630600852,-12.179555962565448,-2.330708190944733
0.388,-11.817515713895345,-8.5642304674057,5.751545022606276,5.4671954524504685,9.910012911067907,7.510929899970901,-13.701797910606416,-4.045026081907203
0.392,-11.664962812150375,-10.034312473054253,2.5921441979645348,4.20762030134801,6.221258787326912,7.127784952496898,-14.632982832026938,-5.312932737055642
0.396,-11.813742130948334,-11.910211609143161,-0.8598491137651487,3.52354557008214,2.706717050808817,6.33336410154093,-15.42287830466816,-6.610263739614066
0.4,-12.715315826575479,-14.317758319112489,-4.386183600936908,2.9863438709746415,-0.8028212899807414,5.190049131177068,-16.435989708981154,-8.343641778866655
0.404,-14.376538368636059,-17.05000218311717,-7.56333790177213,2.1135752551595886,-4.223078542976735,3.9548654081798342,-17.643585848566925,-10.483968154357683
0.40800000000000003,-16.297867975226325,-19.54528722039095,-9.879297254455807,0.657028233857772,-7.13818428372014,3.021642491298423,-18.58576730601313,-12.478088036919383
0.41200000000000003,-17.745996364277524,-21.104308924973445,-10.966157621240976,-1.2756809186954206,-8.984116290231624,2.7420002825145486,-18.6418326331574,-13.545745720367561
0.41600000000000004,-18.172729361352992,-21.223137563869564,-10.79266744431348,-3.2832641069804978,-9.369695582499045,3.2294800140075006,-17.435013960185664,-13.191451880924964
0.42,-17.551614053353337,-19.891449499780798,-9.729848852077286,-4.877902517523287,-8.339992738891514,4.265990970204546,-15.141458605193751,-11.579872749719156
0.424,-16.38727268380398,-17.64558145838184,-8.388588640672925,-5.692810680641468,-6.400331358343808,5.395422795078368,-12.477802499100335,-9.524187569617066
0.428,-15.396900855923436,-15.34134200601619,-7.336211632784611,-5.6157969218705945,-4.2956354534481145,6.1367087663460165,-10.363723404412589,-8.076839435292591
0.432,-15.050852506083794,-13.749759459256662,-6.838748243033133,-4.806424214404101,-2.664429448238506,6.202593700575753,-9.433016246886236,-7.9592357217953555
0.436,-15.24691612487888,-13.175006041665785,-6.738818203907563,-3.588168332307614,-1.7435120614543314,5.619528954228514,-9.664633002136426,-9.157353669287597
0.44,-15.377973118109084,-13.341325448995178,-6.577491681494328,-2.308640706978114,-1.298872965514958,4.689784161064971,-10.39348232378693,-10.904983170464785
0.444,-14.721929939481095,-13.580419739723698,-5.84787489736834,-1.1923401399925644,-0.7972547174075575,3.8470153827148126,-10.687188818125652,-12.085195084158931
0.448,-12.914490502941124,-13.21215466059591,-4.2696815140242315,-0.25950445109910536,0.261625072289813,3.4672968835661093,-9.888887651431887,-11.839662918681395
0.452,-10.207610997358668,-11.898604302576672,-1.9511152374816465,0.6556848576123944,2.026327876076015,3.7103713200735804,-8.003062820910118,-10.059483874769482
0.456,-7.329020342267948,-9.7708936543691,0.6603833465896622,1.8172370294868854,4.173961755227112,4.475453165393646,-5.69480321636526,-7.477534290453236
0.46,-5.06497053462883,-7.308774269769556,2.971137173069957,3.451068788226407,6.0604635444340405,5.493012128754143,-3.917771867050657,-5.264863755669116
0.464,-3.8017064008617885,-5.041345296876948,4.517840713863841,5.639791100523986,7.074500331762108,6.5055353985742705,-3.3555809460605914,-4.346620957093661
0.468,-3.3256573711346684,-3.2706775705583535,5.157047092938311,8.2621697972115,6.977111782028565,7.403825436191652,-4.011029908028879,-4.83655111857647
0.47200000000000003,-2.998968593740913,-1.9697408569485508,5.071928589405751,10.99726507387783,6.028831377553973,8.230970954147184,-5.184523651980047,-5.932190179295095
0.47600000000000003,-2.191707090779321,-0.8927440479513022,4.632979741942549,13.403847136373553,4.840590225606778,9.07413218996338,-5.853662301699233,-6.344695190930439
0.48,-0.7298100912256036,0.170003285036757,4.169015801301183,15.04236637179108,4.034219727457613,9.939857739902052,-5.260041463574961,-4.999416938147734
0.484,0.9469027059001798,1.189016883548298,3.808487387340091,15.627708617595564,3.9252710196941027,10.7190197919276,-3.345426498884774,-1.6277300893993556
0.488,2.0100421689786643,1.866478863480431,3.443724248912048,15.125789662190389,4.391620863101664,11.242482012131093,-0.7966928053335545,3.053457183280691
0.492,1.727703275056327,1.8082353115512357,2.822000345460702,13.758178571479915,4.991937416434059,11.375934302990906,1.3310909528218715,7.655120544644632
0.496,-0.06461023087328299,0.8010771164916877,1.7347526659918255,11.937721906696625,5.270203164774481,11.096105419691153,2.213559474566305,10.753713526794531
0.5,-2.8161899319841086,-1.0046187012659753,0.18130071794139502,10.137733455415841,5.068121856488647,10.507716181818527,1.713436454728054,11.549874205659417
0.504,-5.513091587604949,-3.1109487417553394,-1.5472701808435412,8.764033045752832,4.667376636465381,9.800903667219309,0.447685950614229,10.210318273785052
0.508,-7.206627553093105,-4.904491217411476,-2.9537509151527406,8.040559374104687,4.641807538915569,9.145671579237627,-0.5888608485403557,7.717593992635559
0.512,-7.495607492463275,-5.964120040152091,-3.5551775034403406,7.941184432271978,5.497744352068453,8.58602487587152,-0.6152885352597273,5.326914282983582
0.516,-6.687626660698436,-6.25990504073204,-3.115709039843464,8.202329156104708,7.3154394391219775,7.997067413371531,0.4754434540206347,3.9204577718719396
0.52,-5.584434581248166,-6.143799783068074,-1.7962206935071126,8.418910505592969,9.621158553240985,7.151158895911181,2.038475188948574,3.6371767622167184
0.524,-5.008398561897833,-6.120054870354288,-0.0997703624846622,8.220617897648287,11.598627743417739,5.87724583457208,3.046682169465525,3.9488379839533927
0.528,-5.347684622137409,-6.525266962119439,1.3574965291803647,7.454193963679943,12.526028718709707,4.209673847918961,2.6889301173176836,4.097953394311514
0.532,-6.34348400404555,-7.286617501282034,2.152175592197943,6.2991401760956895,12.191978818613261,2.44081637461207,0.8734748076527419,3.6149837773177964
0.536,-7.226127300473813,-7.900920280366974,2.2900481016464243,5.242179660068539,11.038083980240026,1.0325698320278658,-1.6475955136803409,2.5981188660765184
0.54,-7.144800309867222,-7.678904731009885,2.203826750751654,4.882754095551619,9.925681759932349,0.434094256761254,-3.635665162000492,1.6405088193898951
0.544,-5.613860530018341,-6.1001619460341505,2.5347145407307643,5.664735647045282,9.659887407965098,0.9047941724176694,-3.9898603584526247,1.4624951437424718
0.548,-2.769974773619835,-3.1212930891313064,3.756842923744262,7.614149704148122,10.505219191195426,2.3816801684375895,-2.318106032926724,2.450888382329895
0.552,0.6730263272832291,0.7245738123010548,5.834342418669742,10.2185758346882,11.960969305319942,4.4363644800959765,0.8438579474931354,4.358333213719748
0.556,3.7455019359653487,4.502846124674074,8.13345932633393,12.555177549412909,12.951215866823961,6.367367145220727,4.293126690413406,6.339464099081365
0.56,5.608851443348639,7.222208575446416,9.642332768998257,13.628695628645573,12.352664423428354,7.4143345942034,6.734054277188824,7.340800239520541
0.5640000000000001,5.84941916309352,8.222379121885423,9.457425235925996,12.815791027429741,9.613356032941434,7.053228634911996,7.387262576538251,6.643727290573105
0.5680000000000001,4.569501281482665,7.4300257458642225,7.278315181407873,10.192574637062858,5.118093219129911,5.238367970544653,6.321231036429186,4.27054829822308
0.5720000000000001,2.294427374141341,5.38902525734763,3.6518573202374034,6.576822812541353,0.09865705806363323,2.4738662973123953,4.365098899522497,1.0303098536002882
0.5760000000000001,-0.2259194309388306,3.0620964905569075,-0.16779743155532145,3.242674980056071,-3.8778889439887037,-0.33646966131918266,2.6735769961502025,-1.831848314411169
0.58,-2.2672323299161823,1.4637170547224763,-2.7306136522647018,1.4050791544733379,-5.592964656053075,-2.2180800144591606,2.1678646854661103,-3.1760823404890353
0.584,-3.318066071236917,1.2887525441370045,-3.0002471886489666,1.7301825273946343,-4.68272715834572,-2.4949790031466073,3.147256316605846,-2.444832754576372
0.588,-3.1923701303335417,2.6614841341837527,-0.8071364742924794,4.066882090083721,-1.7591438776425925,-1.0723776683018693,5.218848324669606,0.12262554542167958
0.592,-2.050295250889139,5.113661637308803,3.081187595261536,7.524718660234793,1.8948094454981672,1.4968283926445207,7.549822357798227,3.6066937902415255
0.596,-0.29661326901552343,7.832103935972164,7.340078469353696,10.886988785001812,4.914026803627118,4.229016990630985,9.315130419512853,6.785457936718174
0.6,1.5679132507457587,10.035816815908062,10.68081381810303,13.132124834632023,6.4224584907207545,6.124330703687134,10.078155355357579,8.610614941327167
0.604,3.1125559196535093,11.328222763180136,12.394518986965865,13.837387885802968,6.338877275028175,6.607929927949324,9.939231615133155,8.57405952033531
0.608,4.104629450715671,11.859261154826159,12.575673645345857,13.276015796449359,5.2955691728897785,5.770505850428094,9.400723402950092,6.831963024790016
0.612,4.556645952096369,12.21103552138315,11.927014467558045,12.176580963477582,4.233668809620706,4.273252065946468,9.041866085875128,4.050594115288787
0.616,4.686728992822685,13.070863113188231,11.31072687424939,11.309763842036194,3.9097837135891353,2.974531785733215,9.195076963833841,1.0718056801879672
0.62,4.771933361408448,14.81666713929241,11.261293636121987,11.10134330895047,4.549280463962854,2.4710438721448202,9.763491704662625,-1.4132535543282434
0.624,5.00059335096922,17.262321724482522,11.755673560453383,11.491548755244375,5.810948278495012,2.8265885322887736,10.28506194988956,-3.0497615325261638
0.628,5.403294749003596,19.722350235860716,12.332168774069526,12.087366950317133,7.045791394244131,3.6197507643498374,10.208005556458676,-3.8081531088189844
0.632,5.876460156703521,21.356739531884017,12.436606780175948,12.466668861186912,7.66915455040451,4.240809952517478,9.215678213804377,-3.8523942485257243
0.636,6.296567953259226,21.63466244962399,11.794763254115889,12.462947919076633,7.446775950641136,4.267157480425354,7.436686610977392,-3.3964761070210634
0.64,6.611786619552641,20.630849999416316,10.557192851613951,12.245400918245164,6.547907469324429,3.6926770893939187,5.413268214459969,-2.6010012644836005
0.644,6.863305983620268,18.987532721766723,9.185266686905283,12.184160607640422,5.379138468666277,2.8980261023393954,3.850407104092949,-1.5551928568034057
0.648,7.112640689000553,17.546540817323798,8.14232605760561,12.578701120823382,4.3070055044088,2.372995499722254,3.26060049694755,-0.33994593264987627
0.652,7.3359760959752105,16.85862092127553,7.5822839770830415,13.415091981160224,3.429996484880707,2.3611085053027976,3.688654320863212,0.8746220360503068
0.656,7.403939234157171,16.884743914497506,7.269934403181139,14.333476159176568,2.5559330356809706,2.675329284483521,4.685956132653425,1.7806763935861438
0.66,7.149994556365874,17.05367392406291,6.746046531005196,14.81391416807801,1.3884257213277014,2.8077686341363,5.5234248750140456,2.0028147587529492
0.664,6.521576675539096,16.66854482799112,5.671481110912416,14.501206440298862,-0.18272618284992959,2.2921027857136593,5.55643831527491,1.2690154662447688
0.668,5.707550180153577,15.413437693654444,4.116845411629879,13.463789713927397,-1.8794984118660878,1.085458453058719,4.55156015711057,-0.40596087474191167
0.672,5.137739603565883,13.640313845983133,2.600814263662903,12.217228647065504,-3.0757375156400624,-0.3024519926394347,2.8063003850741675,-2.6541963244095386
0.676,5.333987231039954,12.247568059927033,1.8660901818971123,11.502146326534628,-3.0751913280126137,-1.0322321839105144,1.0231708970458162,-4.870486434625086
0.68,6.628876956003458,12.166080003396063,2.4694600456931783,11.89598068243138,-1.4985209842181764,-0.4070231923866956,-0.021300203902435033,-6.4509788857877215
0.684,8.921323864988063,13.754003638328724,4.447034984953785,13.481424740107574,1.4453822136271133,1.677449875899887,0.1666480840950264,-7.058343409169854
0.6880000000000001,11.6122534319062,16.460862561073526,7.228267910540418,15.74009314593651,4.9637653523274095,4.569577212889035,1.5801474192993892,-6.771182339628027
0.6920000000000001,13.788288376517702,18.98695184354354,9.839684359148043,17.72403493557845,7.969345057179966,7.092287024789705,3.7266898279506773,-6.044602409100807
0.6960000000000001,14.599475808892123,19.89632990213422,11.322690911607967,18.443403170867388,9.52788033833238,8.075947543088901,5.858554466549743,-5.498825292878415
0.7000000000000001,13.618958826230415,18.34357637294716,11.11933923524391,17.273881421772312,9.236344044620171,6.92672851459279,7.277074395100757,-5.611924376767566
0.704,11.032889252920635,14.539214521482654,9.282592872331191,14.227764545674333,7.368287188641967,3.9504743520779213,7.590402768666458,-6.47787937817327
0.708,7.559105490146409,9.692023942618512,6.418233766535946,9.96601156918452,4.718441072583592,0.25248273785134256,6.817289159053495,-7.758011152719389
0.712,4.13990164551311,5.461548580893441,3.4067601741007243,5.545451027289886,2.233436387758467,-2.754265540357114,5.325590565415864,-8.861796708946107
0.716,1.5805019696531133,3.2191009308390104,1.0732042164486915,2.0294404225959424,0.6235179638396415,-3.984287416435155,3.6671354044681865,-9.27351005254216
0.72,0.2796019225253641,3.4769467496105477,-0.0799202930156846,0.10441939413804446,0.13624613035732303,-3.142777809486705,2.363923945490413,-8.824254896509569
0.724,0.1762380300781503,5.767689843984016,0.03792704158053595,-0.13891118559846038,0.5814203836080583,-0.7912566165650738,1.7360094687233003,-7.771267059016952
0.728,0.8770189066972547,8.968231359956638,1.1532762364243727,0.7920667428145016,1.5301323955221884,1.9677773035350774,1.8038051945247062,-6.652193994835425
0.732,1.8775854638075078,11.857387125645083,2.754058291569467,1.9993518779608053,2.5512046694968604,4.008507832701298,2.29036228260392,-6.001877559365862
0.736,2.780651148086956,13.63505416159807,4.269026795303173,2.5468308904515684,3.3723680138212635,4.65351059645735,2.738112837660741,-6.094405419616702
0.74,3.384632899715993,14.138082436605524,5.220992107195196,1.8104032417166067,3.8982592778764467,3.892048486061525,2.679828050765394,-6.826642353999627
0.744,3.6563597844779494,13.717974440518228,5.367167047306063,-0.28678292689923013,4.139899908571231,2.287737586514445,1.8197348161394238,-7.801645076331347
0.748,3.6353540790275294,12.91133066575878,4.774822239292096,-3.2627069591722693,4.125493874576386,0.6485096327615083,0.1556528921536886,-8.55445306208082
0.752,3.34217275519178,12.109910683219514,3.7915222330197937,-6.305882394719048,3.8469860628273183,-0.37343383609042213,-2.019046660579507,-8.796210259118332
0.756,2.770636168399765,11.419642454363204,2.924767983517647,-8.625665903825093,3.277311616546129,-0.5505830959789977,-4.224969891471382,-8.546590777139519
0.76,1.9051740049509194,10.701479225549015,2.606892631630617,-9.80552180453699,2.4126305672615445,-0.1216744319915648,-5.995683151353063,-8.080769675050524
0.764,0.7477037332052738,9.727485362273367,2.971213593789815,-9.970642952828598,1.3070487343558375,0.39930958169717634,-7.062798073198595,-7.741613527044868
0.768,-0.6668037153426098,8.334881024939994,3.743354832013008,-9.68708957192276,0.06701032080583191,0.5290225558670869,-7.434692280477973,-7.72659754979345
0.772,-2.2750074157633877,6.509542378868331,4.334678921001814,-9.633696011971201,-1.1799123948747245,0.07674702249334597,-7.328109210974669,-7.970338882449258
0.776,-3.9841095430340605,4.389291814441336,4.137999176584007,-10.213389040620399,-2.316234533764362,-0.7668888056219765,-6.997247958938735,-8.206606547379613
0.78,-5.675803732733037,2.201358531251673,2.859156419075028,-11.327776539966877,-3.2509743663576365,-1.54269061873865,-6.583425983637517,-8.144304452949793
0.784,-7.186535075394959,0.20330626146204622,0.7430319817188895,-12.413404467718543,-3.9013199274373385,-1.7509488339064108,-6.054901477233816,-7.645072223597669
0.788,-8.303364178229618,-1.3660563420496867,-1.4727937553624404,-12.74781867992322,-4.183622314420697,-1.0964529146276571,-5.28544540144823,-6.8075864885811255
0.792,-8.803212798639004,-2.334832078993245,-2.8897243653252653,-11.867371442940783,-4.044484357528654,0.3580409642830391,-4.209273144668215,-5.920840805851829
0.796,-8.515624325814821,-2.6362711557610443,-2.890524814476465,-9.851881428163672,-3.51624354480331,2.204152186275633,-2.9330227782606038,-5.334665781167587
0.8,-7.422683264354952,-2.3634283787690284,-1.499869142053571,-7.342929241009327,-2.7719716620091797,3.848379091704522,-1.747801041602532,-5.306453592264771
0.804,-5.7189699015310556,-1.7829817642086088,0.5897359089102392,-5.250048654726542,-2.1016851990793706,4.7643926966448715,-1.0053328284962162,-5.896796508989403
0.808,-3.7955713649219085,-1.2862600053035418,2.3287346512735145,-4.318858719675967,-1.8160837583816474,4.698011720526454,-0.9448309349487114,-6.968399655557082
0.812,-2.138203467762626,-1.2731859935024472,2.80070239947942,-4.797352149470516,-2.1241541605389966,3.7251677459845003,-1.5786620694574975,-8.278312825536814
0.8160000000000001,-1.1579960668609495,-1.987804427128903,1.6745935242952399,-6.355064738383112,-3.0330302883217475,2.1652231186680675,-2.6774015695998052,-9.595719453235345
0.8200000000000001,-1.0439692755129022,-3.3973333571489186,-0.6526555618259013,-8.291989905900621,-4.334175024540611,0.40891462634643727,-3.871700167143882,-10.75756441127494
0.8240000000000001,-1.683595737735128,-5.1601853827641975,-3.254619829371806,-9.87990118308107,-5.672787115545103,-1.2248784681535523,-4.7823258183182595,-11.646196770150022
0.8280000000000001,-2.718681516488922,-6.737283035495368,-5.135106103104168,-10.669422817514143,-6.681276505982238,-2.551339886708633,-5.116960701106353,-12.124417202210104
0.8320000000000001,-3.70733799274554,-7.604915622319816,-5.708774669529667,-10.618671924320164,-7.115273982844593,-3.496835103154128,-4.700475629705522,-11.995857587255623
0.836,-4.287751474502119,-7.457261752557644,-5.0293940512403825,-9.99303105476698,-6.9186344194742855,-4.029988020350173,-3.449287959654366,-11.051844910740272
0.84,-4.308028261856755,-6.338691390497253,-3.7010996669195535,-9.160286314450017,-6.205340471132187,-4.130362043345832,-1.369574542291057,-9.177127804576925
0.844,-3.8443124774906567,-4.6243801537146165,-2.5046892910386145,-8.39554554658724,-5.167542816428942,-3.8057156180870892,1.4047471193607368,-6.459572891184989
0.848,-3.111430214497218,-2.85416238923483,-1.9567103252808389,-7.7932033113589165,-3.963313297280777,-3.1334292575891975,4.565240143148082,-3.2211208571532324
0.852,-2.325558319165384,-1.4964303904102136,-2.047099274677357,-7.298544247262633,-2.648582968064894,-2.280767217119288,7.643845042149121,0.07314599616360185
0.856,-1.5756555422510155,-0.7366340632054298,-2.259955915770808,-6.788366181631501,-1.1880403785873044,-1.4648355787062695,10.137564660725404,2.97295057912364
0.86,-0.8064278741536546,-0.4218126565297666,-1.8931047786607937,-6.161007126538058,0.4588528435611403,-0.8588881673852282,11.689701908103286,5.203530263802595
0.864,0.10705658842018018,-0.17374225983824365,-0.4653541624447346,-5.3675273653680105,2.2529369798772954,-0.486486700970965,12.24693795773045,6.741418225249744
0.868,1.2432039560331907,0.3911619072381236,2.0025638644708557,-4.393828617687994,4.038879072661267,-0.17920019275823318,12.095969985874047,7.7743174047864345
0.872,2.545159821952892,1.438543497904869,4.966452760557591,-3.2491736089931433,5.57345117720868,0.3436150624685954,11.72780816258662,8.564711593238279
0.876,3.8411541489413397,2.82474238463704,7.630943570764192,-1.960348023558106,6.616747598495218,1.3072318823669047,11.601367203064132,9.282465177768014
0.88,4.945812665707011,4.176966811045521,9.339015522874824,-0.5808370781583483,7.0392194409681,2.7249196815170613,11.927700506563042,9.929630115250664
0.884,5.7889074566681495,5.115888431092225,9.902761479747442,0.8269066514771685,6.901690251380732,4.365305240233025,12.6163814737587,10.390091714557293
0.888,6.473905185392637,5.4809747488283795,9.676285711566925,2.228821020742466,6.445296052498002,5.861017115902197,13.383963255785963,10.55436237368707
0.892,7.199622324778498,5.405255888290743,9.307307758582692,3.6215488714250665,5.9583905282957215,6.877619371895616,13.917929896321128,10.41180671183827
0.896,8.090884865820671,5.201575324436518,9.32164869653464,4.986968284673804,5.580514152810915,7.238990324756898,13.990384115797177,10.01950093663709
0.9,9.005126810045027,5.081017814912608,9.71623847533668,6.172034726541412,5.125061102941476,6.913186981019068,13.40867573936734,9.366569068122393
0.904,9.466520542842103,4.892948566459337,9.83085562131103,6.78684775133225,4.047001661832858,5.894316838140151,11.871547701982914,8.233791111487687
0.908,8.791114688363642,4.0629030418831515,8.59370900251795,6.2214991576257255,1.6134134422498314,4.075743388715334,8.88916234021141,6.178183510432417
0.912,6.385059142757119,1.8223751972637574,5.050517010308371,3.8422116785028013,-2.7524641845803397,1.2413611909629285,3.9203009958454693,2.7127607595271357
0.916,2.122792450440537,-2.3192927602394295,-1.036880749364848,-0.6465528937865681,-9.073345836028064,-2.7597035699906214,-3.2424968339999065,-2.3758103448649592
0.92,-3.4299008818587016,-8.123238090756416,-8.86163840445904,-6.867152857311254,-16.569422818567134,-7.7509425842952036,-12.04642733378507,-8.715205604587622
0.924,-9.079215717752355,-14.452504598766616,-16.685170279192093,-13.656464390621755,-23.715506780104327,-13.042178582269255,-20.987610888318258,-15.25402078242763
0.928,-13.35451923541418,-19.53145238411117,-22.383761919515532,-19.302482258137896,-28.632474462670856,-17.473397250163536,-27.869485850156472,-20.478703644586474
0.932,-15.037798642492168,-21.590790352109092,-24.233435039458676,-22.11781501601249,-29.719017386783,-19.76501512941384,-30.526540768028582,-22.911535958982444
0.936,-13.61798677618624,-19.609772320988295,-21.565147467691382,-21.101891436536846,-26.26598304225692,-19.040541540636195,-27.70635425070582,-21.690709970623118
0.9400000000000001,-9.490969234638948,-13.820889225357488,-15.03726721737349,-16.391188667177126,-18.790945178810297,-15.263359663589535,-19.69709014609098,-16.939643759196848
0.9440000000000001,-3.795799288329323,-5.700353860542774,-6.379193119631723,-9.244109062992626,-8.914960519988982,-9.328263848555483,-8.346365559085582,-9.741214758221368
0.9480000000000001,2.027252736966995,2.5710609432741975,2.2590786918015704,-1.5557864162938357,1.1810637708565372,-2.739089913562176,3.5847839615120627,-1.7085075398286917
0.9520000000000001,6.739486421711808,8.929202964843677,9.038127889901162,4.866392120763421,9.482670613253479,2.971586984488184,13.441209424069744,5.639660849735992
0.9560000000000001,9.685103282025366,12.179933514936932,12.967565691126838,8.939182183882863,14.755545412855259,6.806767056150459,19.6050091727332,11.388068248315959
0.96,10.881522452622985,12.331797025915797,14.031871897163015,10.547295627807305,16.794884294913928,8.5706187524384,21.900591972292776,15.406411348344289
0.964,10.847550749885892,10.413044877337141,12.958713787565094,10.3592387825857,16.26822108034747,8.754721772165219,21.348755799913917,18.152116724559914
0.968,10.275088987714977,7.884315237551325,10.779801145055853,9.346962316349117,14.267687120844052,8.142632845365098,19.45432018921759,20.24028457064236
0.972,9.707913268138515,5.952925191836645,8.400700372358706,8.285741669186052,11.80905781648056,7.374650224661515,17.435470980142448,22.031942130911748
0.976,9.40639428941818,5.1480245598479915,6.386944556580973,7.521561962774113,9.519272319680459,6.723464110773175,15.807352117136535,23.44752554890914
0.98,9.370448551933878,5.273466068875722,4.945052506282504,7.025784826664964,7.586031618250902,6.133895403210454,14.443061131611447,24.073840295051532
0.984,9.46562393410178,5.703083800986976,4.052983597544372,6.642952152037312,5.938025754417479,5.449518167719344,12.986832619357706,23.46614182896623
0.988,9.551976765325124,5.808280385813078,3.6059885034770756,6.32701138444724,4.497759671716497,4.634252072993818,11.296857924233725,21.451897765619705
0.992,9.541236270880464,5.275615456079024,3.491011753814755,6.199970635899368,3.34477371532474,3.8343652557878247,9.62635163780137,18.2642566379255
0.996,9.391013701926848,4.201476034949053,3.6179896963083586,6.439852297563231,2.7233419889269443,3.2613615244167606,8.481272817578972,14.437520335232065
1.0,9.046176179773715,2.938976745283844,3.895321262696194,7.087000577230372,2.905703918296236,3.0017723219692978,8.263984348349737,10.567370243806472
1.004,8.411300267226176,1.8431768443496273,4.2307159740785085,7.948879937191256,4.024498796585448,2.9275369786357706,8.966336163207243,7.07934361703504
1.008,7.366009470617546,1.0718105080463913,4.554047196401148,8.671267799549923,5.969709152986329,2.780504149288449,10.109541014855552,4.133193838612435
1.012,5.817812620193989,0.5268183604150494,4.82755901036579,8.923181967986828,8.383768670351053,2.366565011189505,10.954254950532995,1.6870834540917612
1.016,3.778411144670206,-0.05286481027818235,5.037463972864467,8.574233032814938,10.744101068388979,1.711413345384244,10.85233695146501,-0.3808098942079319
1.02,1.3847561072987906,-0.9480368874826368,5.120134617793761,7.717708884456939,12.475400250140858,1.0450808427747562,9.512311630140195,-2.178000688765282
1.024,-1.1220826160416486,-2.3266271339699447,4.914486205131052,6.554651687932591,13.077176486939583,0.6317393648505862,7.067819146439967,-3.7778256895050806
1.028,-3.447187639806318,-4.180732273740546,4.183036140961148,5.226074519414651,12.250908865013566,0.5628478888079254,3.9503390510251086,-5.246181767064126
1.032,-5.3045499976364425,-6.333568270564474,2.7086045428471475,3.716578747742355,10.000122028128944,0.6642781965301952,0.6770635516754219,-6.652094144986338
1.036,-6.46372501104527,-8.475007489958799,0.4525114332774942,1.9154664087937263,6.675737833959709,0.5957600056366417,-2.3025993759765013,-8.044345177411959
1.04,-6.789271408698967,-10.224616864863176,-2.351957914590101,-0.21696283269683403,2.9316894739986092,0.08662939458169916,-4.6619003234099665,-9.380325203534719
1.044,-6.265317431203195,-11.207983520991812,-5.211832951050858,-2.4911753273442168,-0.42205742888866893,-0.8418980191281182,-6.1698351004788385,-10.47491973131928
1.048,-5.024350951952267,-11.169713295118452,-7.534351894252612,-4.482894895724417,-2.658070849942172,-1.8357020038733511,-6.686805154397706,-11.03956702558148
1.052,-3.3612600024657304,-10.098002274868252,-8.876359673316726,-5.713250121478188,-3.380062821868619,-2.394189293074866,-6.226820385948268,-10.818408526907609
1.056,-1.667246451376054,-8.271573296129041,-9.122555069531005,-5.8971943019079385,-2.6585814315214074,-2.160734122901304,-5.019072507431794,-9.772761994038675
1.06,-0.3163533430012966,-6.2036898281833,-8.530702738470504,-5.1284748311705,-0.994430926453449,-1.1514321925482296,-3.515876894952546,-8.196157745126508
1.064,0.46403198894381115,-4.466339816607961,-7.5986861594148065,-3.863076823540886,0.8880841878900103,0.2240162408943509,-2.2826603788595436,-6.68246443031946
1.068,0.6735795313836692,-3.4589918356204126,-6.835931448963066,-2.703907980115062,2.3187902536714167,1.3708742128743923,-1.7940373754496548,-5.9346465789563965
1.072,0.5128086996356567,-3.239817966540656,-6.564239464574031,-2.116133906275592,2.9024764549139355,1.8099052372470605,-2.2305991773622735,-6.490716059491459
1.076,0.26348599410768325,-3.511021357939553,-6.825300107466385,-2.230993134445975,2.5932646365747467,1.3879739668555193,-3.388515177319635,-8.521135604168453
1.08,0.1048370756042768,-3.806659313428079,-7.462175574123519,-2.8647272368800367,1.5984591945526498,0.28006623519447826,-4.787271805634136,-11.776869869362695
1.084,-0.006287869438416416,-3.771559336737443,-8.268047920213267,-3.700794276099797,0.20803729732157494,-1.1757730782638114,-5.902586415866281,-15.697232307198071
1.088,-0.3240783942143781,-3.3877266807015167,-9.109900298807645,-4.513641517117068,-1.341540216483181,-2.677344613940414,-6.4078286846349926,-19.603128806994775
1.092,-1.1712825930158814,-3.014791443945282,-9.963904218000406,-5.291348931994531,-2.9017656748287335,-4.056721999732292,-6.308879053137359,-22.876143649964348
1.096,-2.718569738875491,-3.190952858668867,-10.840110936265027,-6.179345398496231,-4.362484161853912,-5.243638129529725,-5.900406034245162,-25.080065791502115
1.1,-4.8280482867886905,-4.308613616554001,-11.693024186829568,-7.3129627709045515,-5.5886122409659835,-6.163633220492905,-5.5956053215576835,-25.99282750536498
1.104,-7.0433961426991765,-6.334810335471532,-12.36742119070426,-8.650229205892714,-6.405211581709195,-6.678265543452342,-5.727519375462995,-25.594498933568843
1.108,-8.765344669655708,-8.760613722020782,-12.640957530193468,-9.937101780623127,-6.66436082491461,-6.641540155438973,-6.431678183118423,-24.050478119156676
1.112,-9.52856114191718,-10.821655876437752,-12.348702153749567,-10.834147952609978,-6.348589355213518,-6.030611348437757,-7.648785983640119,-21.693156105495675
1.116,-9.213240001730853,-11.85666197625145,-11.479439616373009,-11.10175836394064,-5.6276913428010715,-5.041558479159583,-9.18884320369223,-18.99462179202952
1.12,-8.104421375444204,-11.637501383310976,-10.22015653684781,-10.74471673274439,-4.8358499386178515,-4.063396322237878,-10.818091798087373,-16.487313473514703
1.124,-6.744114000891453,-10.469727437392226,-8.886356852125655,-10.002311505907294,-4.357306763481386,-3.4941444325579827,-12.30771063824029,-14.63027274148429
1.1280000000000001,-5.674003800228144,-9.027380404653025,-7.804132730661734,-9.213835192582003,-4.49683736521675,-3.5194365564769505,-13.47414843050948,-13.666956054061869
1.1320000000000001,-5.217867217253318,-8.02389047661979,-7.223970202463423,-8.660039254960006,-5.397647665474977,-4.016701970393554,-14.23312634316195,-13.536452596005182
1.1360000000000001,-5.37652013229722,-7.868288434650669,-7.264806199516411,-8.458405790396188,-7.017945009281689,-4.6485321303986185,-14.636733003496769,-13.905806671682214
1.1400000000000001,-5.911474843133858,-8.520140216367576,-7.942938532788212,-8.592757812227646,-9.174344148377864,-5.113884604562106,-14.900363715414496,-14.320225607028242
1.1440000000000001,-6.52177093649882,-9.581203510150534,-9.207201369290214,-9.01086572784962,-11.591354314770786,-5.376723624443688,-15.349580914755666,-14.413664616340743
1.1480000000000001,-7.001878571616718,-10.542192128816303,-10.935399577048551,-9.69429636356377,-13.925064848574724,-5.701998701807575,-16.27119823487947,-14.067127481189438
1.1520000000000001,-7.306614588662963,-11.052726943017973,-12.912487817282738,-10.650285938356733,-15.794032251710558,-6.458117911503777,-17.7371057043095,-13.443266740838116
1.156,-7.48450369594741,-11.048020872151483,-14.801317886535724,-11.822186700672937,-16.84867779691829,-7.806790721083404,-19.483946666339737,-12.901166264947591
1.16,-7.579847919370622,-10.72025172112398,-16.21156177966497,-13.031295328129623,-16.912708597980377,-9.51439366682877,-20.971784303607304,-12.825359292305059
1.164,-7.567563492127154,-10.363441559873094,-16.829638312674696,-14.002084286673956,-16.121139894840066,-11.012739158007122,-21.604619387002554,-13.444879407686862
1.168,-7.377108256448534,-10.202978236587597,-16.56885692218536,-14.493552716207297,-14.958335072009037,-11.698344330318708,-21.022942471506894,-14.716074931366077
1.172,-6.97578135870072,-10.299702266499919,-15.650815404621039,-14.44859382556773,-14.107239444988993,-11.283091533270225,-19.300192236968087,-16.29541843478065
1.176,-6.419937577523928,-10.544234113202318,-14.516398272746844,-14.033437277929798,-14.127363376021748,-9.970451684525516,-16.900403099121093,-17.63051752126469
1.18,-5.829474465632046,-10.726253355187175,-13.620000868128136,-13.532878363788981,-15.12034234686547,-8.334954435537036,-14.422939195003268,-18.13209804689928
1.184,-5.2778535890247715,-10.610432639985557,-13.181362018002195,-13.13213908307169,-16.570103705928183,-6.963560869498527,-12.269771479873432,-17.38201082872463
1.188,-4.694924739024875,-10.01203251455005,-13.063921553418439,-12.740074803388845,-17.509624161184433,-6.101453536893489,-10.457634083354666,-15.318305512676837
1.192,-3.889171472830798,-8.872588869288585,-12.883497947634758,-12.012922685869029,-16.995475031025492,-5.5468887838362315,-8.709094557336424,-12.32446826391283
1.196,-2.6691430206624025,-7.293002179619535,-12.259322514653924,-10.567560617651818,-14.64769933315919,-4.854973885672141,-6.7484080686779855,-9.16965669185941
1.2,-1.0292229555564596,-5.538522696681203,-11.104399775427376,-8.291792715478996,-10.967302881797297,-3.7271014977363346,-4.63066595606163,-6.778026369619191
1.204,0.7379449180240267,-3.9724987049524287,-9.73714769173188,-5.524781627455869,-7.199354855905643,-2.2930628058193827,-2.853110085003994,-5.881282947162191
1.208,2.1045663798671406,-2.9254778784115105,-8.727285233098993,-2.962179564891732,-4.760042736805566,-1.0717224982212663,-2.140161286583899,-6.681967541073225
1.212,2.541289502192786,-2.55318152031171,-8.560685135746033,-1.3161468829680998,-4.513163787922641,-0.6145642456286136,-3.012327308316549,-8.693258331588934
1.216,1.8334406603138365,-2.72885807282636,-9.281647442673993,-0.8899680441519515,-6.271153972604937,-1.049287913857286,-5.370840517447673,-10.869099154471158
1.22,0.2570384547562765,-3.081659577427375,-10.385502442903677,-1.371765156239739,-8.83516102790606,-1.8683524383948011,-8.392289556395557,-12.008411001926612
1.224,-1.497283661715548,-3.1790099003622645,-11.027540785240717,-1.9821171175485812,-10.571427771115442,-2.1289296030880624,-10.824469664052986,-11.266024894938802
1.228,-2.646346106954063,-2.7877309348568096,-10.464546381794507,-1.9245709119262893,-10.245893555059801,-0.9886844061618838,-11.556590018534186,-8.528951484627925
1.232,-2.7271741931240556,-2.0771332705833356,-8.509131086562425,-0.8917943841555207,-7.679994650908078,1.7335366039459492,-10.163919276031717,-4.45696371744849
1.236,-1.8429034093515861,-1.6040747325918545,-5.6991884150527214,0.7017120173226736,-3.8603447103920416,5.333657856864633,-7.103772213480113,-0.1728158220170002
1.24,-0.6196354620261424,-2.0746497763772007,-3.1133015049676147,1.8982438220114703,-0.4623571422391226,8.493583687920076,-3.466834409343827,3.254758114090526
1.244,0.13055379146803503,-3.964717715070112,-1.8867977740465367,1.7212602665859227,0.9730516489189678,9.939172406927895,-0.4138745930370247,5.267711545730233
1.248,-0.16025740332452498,-7.210470501843426,-2.68185784225836,-0.25588378190853645,-0.22640529792250574,9.117546775389139,1.3792123402223884,5.984972882856962
1.252,-1.5539221537243355,-11.160883589106835,-5.40876773948236,-3.6376872668675415,-3.596203555944728,6.495000285580673,1.9539300610466193,6.008939994762992
1.256,-3.619438929326315,-14.806058306780379,-9.283492430819042,-7.364677418836467,-7.823293364702218,3.3100193572553405,1.8990408676820563,5.991098967911056
1.26,-5.724785951378034,-17.201480136751265,-13.200754414566147,-10.23325389717747,-11.411783976033366,0.9132956420963536,1.8952871500955861,6.2278688907677955
1.264,-7.388964240993871,-17.84426353981626,-16.169380332075853,-11.442417821795555,-13.327344425188272,0.09743786795098153,2.2964673183490225,6.527709933429374
1.268,-8.478661045231222,-16.82247599752582,-17.603272648911478,-10.8774249317239,-13.311142528485878,0.7845137879798962,2.9766651689321217,6.409515305336664
1.272,-9.148431269079545,-14.688660398658238,-17.379456765774567,-9.0096230497518,-11.764178175104984,2.208542484400004,3.5038432944677123,5.504735139015536
1.276,-9.56246462432292,-12.125565120148572,-15.675595871595771,-6.49757590730972,-9.33997619419566,3.459718211099493,3.5162598328038706,3.889027982142446
1.28,-9.643532308121836,-9.636524670589244,-12.79767861024308,-3.8064069819089723,-6.555577453756316,4.010531677343087,3.015233488341408,2.1251398644039927
1.284,-9.024034029855876,-7.4014395389754455,-9.08935479983497,-1.0534185497216604,-3.627876281813677,3.9386402951268797,2.4015862056306627,0.9853436384004396
1.288,-7.267649846591472,-5.347222675048078,-4.955191594375178,1.8530349429992519,-0.5768412198254298,3.7546125060605977,2.2373652433563684,1.020135553028474
1.292,-4.254718491247955,-3.358008418902866,-0.9341088156562494,4.909517465376043,2.5426497860868302,3.9857459213609463,2.8867439477206926,2.2370469539344633
1.296,-0.4471431923752467,-1.4444171684593758,2.340746569984306,7.814499194354225,5.494176519714676,4.813455968279667,4.292679223624181,4.079027121857623
1.3,3.1435826182261613,0.21136501929613516,4.297749186065295,9.997537274562124,7.894321530064494,5.967967958751892,6.006823723650137,5.722026965549612
1.304,5.332893911765561,1.3508479425999855,4.666192468191582,10.883149823990214,9.406113065588398,6.927032793871733,7.449946391612595,6.509841190186913
1.308,5.302562485095637,1.7879032792561595,3.6498938133902605,10.207459554126961,9.937752726962117,7.255464198140546,8.225660851156487,6.2783874617899285
1.312,3.009152082389578,1.4984337333190716,1.8846008730424533,8.17131614313106,9.685722246942966,6.851598049341678,8.289239719674377,5.395563581952263
1.316,-0.7407972670576255,0.6152356215772592,0.19002014128348854,5.346546263503885,8.987263465508608,5.957795063518569,7.898397750026858,4.483567615466773
1.32,-4.621867393673073,-0.6629863163312297,-0.8074471406608579,2.383039272531116,8.076105029617294,4.9489523284365795,7.385904887617456,4.01377963487046
1.324,-7.350213973362695,-2.1537752312164002,-0.9628531253952701,-0.27422435576026416,6.92657880969781,4.083115718812182,6.930150436332344,4.012708596356124
1.328,-8.204887241051182,-3.718010297373154,-0.6674818265856728,-2.496723841122896,5.299676298633365,3.3859307677140347,6.463724985364827,4.048145423458159
1.332,-7.27734904409076,-5.238641860737269,-0.6483059954755217,-4.374230968178959,2.969145784935017,2.7279476804763565,5.760155941941298,3.5061203043611195
1.336,-5.327703363047845,-6.5812516918707615,-1.5870679903464044,-5.998162844758172,-0.02284144659345766,2.0128717395412306,4.636216556674251,1.9680961382822604
1.34,-3.370268591600842,-7.607835609107685,-3.7909448422823244,-7.319353116138329,-3.2716254441282393,1.3058641587887552,3.1101222426283828,-0.5237442936342687
1.344,-2.184167278269454,-8.22442091475384,-7.02847764959408,-8.154235961634805,-6.132326130574325,0.8096518978238496,1.435038099773676,-3.4563133601580116
1.348,-1.9842730174828018,-8.424094050371846,-10.595126398716255,-8.321786736043492,-7.988084643314104,0.7070816656354912,-0.005356977637840821,-6.079431339614882
1.352,-2.3988573657958767,-8.28577351641448,-13.57717981445318,-7.799853949141402,-8.507317957748562,0.9871697080875785,-0.8815761763959227,-7.743222055747327
1.356,-2.695742907065816,-7.888134782915663,-15.145934476447053,-6.748398128665258,-7.7267877472487605,1.4021896661615565,-1.0472854434162064,-8.177282394140995
1.36,-2.1479716400773894,-7.20986709408536,-14.808239129297146,-5.395365264868977,-5.937646441264578,1.5916903906230946,-0.5711593061338789,-7.566961948746391
1.364,-0.36660680890354236,-6.09537725642681,-12.520780413883205,-3.871997250032808,-3.4724510193930422,1.294649146947152,0.32240207996305337,-6.422376968284418
1.368,2.5264097050607885,-4.345015143284548,-8.666610204595411,-2.142910777873472,-0.5585301474077422,0.5104458317482039,1.3425035555580305,-5.329981684098287
1.372,5.932175354381473,-1.8997445635121522,-3.940085552539541,-0.10344799943675564,2.6654955814577477,-0.49452749955246045,2.2001039594178042,-4.701375456442841
1.3760000000000001,9.019052662893767,1.0246965322920127,0.8544531427363093,2.2288006104842903,6.003048068879195,-1.3425749565540888,2.661456194184499,-4.651112282559293
1.3800000000000001,11.04114098365353,3.9339199181461053,4.996135850451363,4.553127855603686,9.041841770624902,-1.782148882258674,2.5819433671356835,-5.028166145818567
1.3840000000000001,11.628278302862132,6.238784986455473,8.022299701360707,6.332830387510977,11.163475624228962,-1.8277734241775772,1.9564605318771564,-5.546777688379994
1.3880000000000001,10.919566228020752,7.530351752265545,9.822193790935351,7.0573875319992005,11.761263273999965,-1.71759226741945,0.9596585498135206,-5.941697967130425
1.3920000000000001,9.479884913856957,7.782121576656886,10.600019905354669,6.576559044486026,10.564071212980933,-1.7236905570610679,-0.07945858201486622,-6.061793333851777
1.3960000000000001,8.052273752198301,7.36065824885211,10.747768492260949,5.299330084173327,7.872921699685843,-1.950533659685894,-0.7737374372777905,-5.893954231776759
1.4000000000000001,7.216563926828664,6.79443065419677,10.631859194601173,4.0586058269895116,4.516589988936275,-2.279865125327949,-0.850223381571242,-5.529112534560404
1.4040000000000001,7.148266886733509,6.468508512481559,10.44112084786292,3.711992405485695,1.5433894770748255,-2.4701473657219024,-0.2811515877948928,-5.081959385847991
1.408,7.57404991139791,6.41401979157243,10.15649422933789,4.682289968096933,-0.20737911019605115,-2.3472727174473,0.7066822797763521,-4.600220740655921
1.412,7.932694160623871,6.315349389605397,9.63624931459754,6.6928638950583,-0.4359539075233383,-1.9540093083334305,1.7583914974608108,-4.0003161450093465
1.416,7.683929387128436,5.745901733135398,8.790708061145722,8.880722127735803,0.5583264934148895,-1.5546173174860853,2.6108145647958283,-3.0858660139603415
1.42,6.5901762239292525,4.470883903167618,7.693392021875681,10.229202585614598,2.0916809472780207,-1.4963626929531535,3.2481764882632365,-1.6477147294741885
1.424,4.858526988001642,2.6507514091996214,6.589987074828031,10.108283874438438,3.471932744343416,-2.0028307617507495,3.903463727929179,0.3930433247404478
1.428,3.056661194297387,0.8042267499778186,5.784817009756439,8.60464694317161,4.320989295983619,-3.0351614609429767,4.884789069892058,2.86381146367385
1.432,1.848891750868734,-0.44848281168835413,5.466675621807839,6.459876861346125,4.6951376294437,-4.301923950046492,6.323272613135301,5.329694885380252
1.436,1.7247230410166114,-0.676082000491864,5.6360745675150445,4.687600878132518,4.990160964346894,-5.396232248495317,8.035424377609843,7.216056972910695
1.44,2.8110670941672415,0.18135362997037863,6.13742720100134,4.052286647527971,5.689823336075104,-5.9950068859422,9.575950784562325,8.028300581074246
1.444,4.849633142864817,1.828159974831288,6.78511712248036,4.709685931365403,7.111400315624512,-5.997496926730095,10.471099826441211,7.5719642972190915
1.448,7.328044386831773,3.796461670213893,7.499109763567944,6.197175790564322,9.269702277835826,-5.5259799930389,10.497886711074678,6.069821013757281
1.452,9.65879643375322,5.654542188200411,8.328220413329621,7.7332504243245275,11.884775351553571,-4.821300592194774,9.81520243383154,4.105370789830692
1.456,11.364233302120267,7.144484274347379,9.38030728073505,8.660726584371478,14.506256253632039,-4.101315785564184,8.874740924412936,2.3924384491697177
1.46,12.187721456638076,8.18601900239718,10.683445792137768,8.7620462512135,16.6714462895114,-3.480753823475195,8.160086547143056,1.4823997044951884
1.464,12.131894738279337,8.80518182804841,12.103019854248465,8.298965876021466,18.04592626212932,-2.9808057468366274,7.930484890884184,1.543377470715238
1.468,11.440177391884529,9.076637651874847,13.387530073677853,7.793788320865364,18.51708678848403,-2.5927634635044554,8.13119728476486,2.3306162650220585
1.472,10.511518208586976,9.107685762777075,14.298943997813062,7.688246332901846,18.21516211777184,-2.3440922343324093,8.505954889399698,3.3582687954001713
1.476,9.78639255587111,9.073063435791141,14.767743655573005,8.10336128577621,17.468157983533754,-2.3139210444171354,8.839526550305045,4.15728778991572
1.48,9.581988940581361,9.20334008733666,14.914006563936544,8.78629385437423,16.66688722781745,-2.6117983906872606,9.121756120559276,4.4778799258599555
1.484,9.951848192870969,9.6945480540858,14.92705754268326,9.267964337875409,16.092946400768597,-3.3232479210010464,9.519690418513882,4.33915759276935
1.488,10.646008353989373,10.574133569471073,14.889557662133612,9.125796611388404,15.78844462507535,-4.453735702094107,10.17728943933213,3.934832023751132
1.492,11.199928400231824,11.599887080334366,14.657702590203815,8.189829467664815,15.531861361108124,-5.899954802690925,10.987724819161379,3.487256897987038
1.496,11.15520616093467,12.305494502373904,13.92525357464958,6.610164526048953,14.953925854233832,-7.457658565604663,11.537475001268094,3.1294297563677045
1.5,10.31264859022718,12.204908457709129,12.4340635474138,4.764003781325043,13.742287652842275,-8.854867316262862,11.294098673442383,2.8943791618144292
1.504,8.888003150790595,11.069382112224144,10.223967577041634,3.080769130559423,11.83965647419806,-9.795527985807853,9.957015785571997,2.789689692846011
1.508,7.442988208655263,9.10139128092948,7.730732314510634,1.8686713828570856,9.50248739178958,-10.025774255461094,7.7234675071088095,2.8660658169962705
1.512,6.6023918587513295,6.881305842706184,5.6253745681643945,1.2218577924422558,7.1721391330203375,-9.40717632478331,5.269985857001407,3.221426149865863
1.516,6.734452688028306,5.115968071602075,4.504858466876556,1.0558009951597689,5.245846110134712,-7.973739559175634,3.4488438829430574,3.916051339227142
1.52,7.743885575896107,4.290843671149072,4.565246325599725,1.2026443854529894,3.8684020004377864,-5.962701557520942,2.8324373517650994,4.86255686409717
1.524,9.126638598471281,4.44269382169492,5.4871848347770715,1.5338659023009529,2.891454085994459,-3.769837543094903,3.3897611318937937,5.787043478859106
1.528,10.265114266656028,5.187044460471569,6.6166350948842325,2.044877218485428,2.03294261101287,-1.8294423220051328,4.502807578192241,6.324674893166401
1.532,10.766036347226304,5.9583450200506665,7.314370248240843,2.835073708443675,1.1181975053957383,-0.4680963679709236,5.310659552797059,6.210151742161634
1.536,10.664415350878958,6.346377553637495,7.303397125812323,4.020635821156677,0.2447482434524737,0.2114936888763974,5.194897341666175,5.437264964223192
1.54,10.33391504162927,6.306353711954554,6.767224625768365,5.591103109147832,-0.27207754974153464,0.3395072979529399,4.099236318731943,4.287362571196111
1.544,10.17265072392878,6.1347275091111,6.173801919915021,7.305310270247309,-0.13360676731572185,0.19278474124278944,2.5141359555799143,3.1969324299487933
1.548,10.284937991089022,6.249060360237452,5.957340431380414,8.716784753836448,0.694555424051329,0.07441449853229787,1.1613568194132933,2.550644433649172
1.552,10.351492243450204,6.889496916536736,6.237371959525562,9.319593064718962,1.8874645635366942,0.2091887940219811,0.5660044482581004,2.5173621694699104
1.556,9.82436148267438,7.956229997852942,6.790289141315144,8.78929845235837,2.923464521616526,0.7142876311236476,0.7995367006053336,3.008339492968175
1.56,8.319222817305748,9.062017350653395,7.240062271957534,7.187435148196347,3.4009304610163014,1.62228964999413,1.522690677081263,3.7783722392607544
1.564,5.950442567611195,9.750427551577484,7.339178958839559,5.010923172797521,3.3025081254470283,2.909503704819473,2.2719467377960623,4.579085906635292
1.568,3.3797036339245325,9.74082083134867,7.144883361692577,3.034629731107455,3.0215660306186543,4.494261308871596,2.7814243571811503,5.261918958947081
1.572,1.47986192112656,9.029427802149444,6.934290081131289,1.9645753875733076,3.0895397776257116,6.187237927131523,3.1089701136150207,5.783043443360588
1.576,0.8280546609267585,7.826807610977713,6.952568891636191,2.088750312621794,3.7839667706650886,7.6547285910285945,3.5219748747881896,6.130164405804455
1.58,1.323862380912022,6.387929631991656,7.157452455114662,3.095803563224688,4.871661857556662,8.459405752055591,4.231803469613671,6.268511565029593
1.584,2.1788472596312727,4.859323839175492,7.160620878599857,4.180574663033911,5.677666729679139,8.214306668838873,5.173614555876731,6.161356502387413
1.588,2.3289663293883045,3.252676938674753,6.442352151020769,4.425329720244158,5.478879253266469,6.803799969712737,6.001046323529492,5.863064385452914
1.592,1.033775890323378,1.5325603846352713,4.7031983611772725,3.260067406969255,3.9833000706263952,4.535972773400296,6.28466773019892,5.597539196001447
1.596,-1.6729742982455953,-0.25493374943539526,2.1477543991033077,0.7711922189747185,1.5797611786750752,2.103674795954976,5.789723102725942,5.687844093017647
1.6,-4.960499838282299,-1.926799381568292,-0.5251644053907478,-2.317181238382741,-0.8271731501936226,0.3249554498163998,4.6423214852949855,6.350134718113714
1.604,-7.610564260295018,-3.2229343908058494,-2.4239723319035162,-4.97613079160445,-2.309450796011169,-0.22598452052401408,3.2893706552380433,7.470695191656756
1.608,-8.629912910746567,-3.9398460249759175,-2.8916841759661533,-6.344308016815717,-2.4346537536034942,0.49699352175043643,2.2906373364221144,8.54601535242305
1.612,-7.725782120127307,-4.039612217924773,-1.8272377753401345,-6.097523895600686,-1.4817691591237472,1.9920052675917264,2.0744843157570543,8.907314212858555
1.616,-5.359612252737435,-3.632607473718023,0.3162965932686346,-4.516040795982149,-0.20788317549318847,3.488723915930818,2.808562286216853,8.128454864346798
1.62,-2.4200634451764866,-2.8852916661821704,2.793974764351178,-2.2756039051607013,0.6577323324483818,4.3546556348450425,4.388261741599903,6.375351321614756
1.624,0.24427046330387636,-1.941078007286992,4.92187126915548,-0.11869974923450943,0.8474200726544225,4.389252742035008,6.486965572080009,4.4182209724051225
1.6280000000000001,2.1363700938447283,-0.9378247134152917,6.2986751992012096,1.3900974689194414,0.6157295034562544,3.8283689421964286,8.576387107711767,3.208543862572072
1.6320000000000001,3.0703551365833737,-0.15093871792480318,6.740820332166479,1.882397511857194,0.3620515054873219,3.033810098792334,9.879345092222312,3.207532190271289
1.6360000000000001,2.9104148278272737,-0.11486543978390307,6.067313069176291,1.0576352908919595,0.09218302065215411,2.0764343439909885,9.386361684731881,3.855041515227632
1.6400000000000001,1.3396967639475417,-1.5733637128131592,3.9291407289345925,-1.4328088323359776,-0.8741893181085831,0.5011581767963349,6.051391023553608,3.591819894779122
1.6440000000000001,-2.084090838794335,-5.165591255000129,-0.09785391740466576,-5.893900726011756,-3.6413837423250532,-2.5092066290087525,-0.7709237877195626,0.5655611037594226
1.6480000000000001,-7.551571323165682,-10.946577585610028,-6.142160369035324,-12.269424285213827,-8.989749162080287,-7.601336175227486,-10.788243464205806,-6.2581206555352304
1.6520000000000001,-14.54764924229055,-18.02523794838543,-13.617250689804226,-19.794950720922706,-16.574931211188172,-14.6403937005621,-22.441437027101554,-16.159460881982337
1.6560000000000001,-21.650165849627616,-24.590422935218655,-21.04190731622839,-26.896050591936223,-24.614184237975294,-22.41006647674797,-33.06220961633744,-26.529541331078946
1.6600000000000001,-26.854205711347873,-28.467505896586154,-26.36692794712575,-31.549913967861627,-30.392429564657878,-28.88581085180506,-39.63142571502967,-33.73637343671094
1.6640000000000001,-28.347887159230446,-28.018133823570324,-27.731773708807093,-32.03081097378045,-31.424046706954098,-32.00589877651227,-39.88348387035322,-34.66026408371675
1.668,-25.375800482634254,-22.96932583164235,-24.331566521494494,-27.727842170088355,-26.714256544627737,-30.601191613773345,-33.28959652144357,-28.18017016336627
1.672,-18.73136564060046,-14.725016253265977,-16.953588045540428,-19.598826510067582,-17.430146749211502,-24.998080104227036,-21.43211914306712,-15.81097299435459
1.676,-10.530433719239227,-5.895659464782062,-7.810378342837355,-9.925084804296144,-6.543753734577353,-16.93633389752066,-7.504339236237323,-1.127494398600732
1.68,-3.3405958611903896,0.7789847572312998,0.2795089318098527,-1.4312900849959624,2.417184368256158,-8.83970143018701,4.870550320735835,11.77486871920084
1.684,0.9244548107247219,3.619793761739932,5.028637781362591,3.8487379925945353,6.901975793657549,-2.7885696324025533,12.995405456852088,20.012435985089454
1.688,1.7857660332875733,2.709897429541117,5.586932315169846,5.395632337329241,6.36782379683128,0.28303381613676604,16.009502444028538,22.96940290059658
1.692,0.25266125792552296,-0.27402958012690437,2.7646128076137724,4.287577314077121,2.3051354332109257,0.7858303476828778,14.943124080131858,22.208646675067943
1.696,-1.824891463496604,-2.995337941125392,-1.4787909418967153,2.528748046168716,-2.6901326789726143,0.027712148146841642,11.971774063349788,20.355677343150376
1.7,-2.7568979878851447,-3.6806785496857453,-5.042334003742844,1.9499293585876365,-6.2778390385468406,-0.6148078633500242,9.270665550299535,19.61586988502524
1.704,-1.8108169527423437,-1.9723921056929798,-6.6373025253782565,3.2867593729893754,-7.418719398335988,-0.41448512933559023,8.067237785149729,20.732292990530055
1.708,0.5725804026407344,1.0237871994547119,-6.230288833073626,5.901744147969946,-6.600270131234685,0.45895445715546446,8.316854516757017,22.875902736023516
1.712,3.1644204407377625,3.4591953647005176,-4.824404414257993,8.244351326532453,-5.231036452220357,1.233247734774591,9.051904700371859,24.43183191400864
1.716,4.682789203440253,3.8202761716746965,-3.7195510624319708,8.785193292058018,-4.6223713519270735,1.150601420195346,9.147609218384638,24.136345360201595
1.72,4.424045422786103,1.738322125946071,-3.7318437860191613,6.868227782621966,-5.203546526012702,-0.011675220125285879,8.013593632681811,21.87160071999186
1.724,2.4914654987913094,-1.8895853407073075,-4.772652332351753,3.0387971961714637,-6.382453948207337,-1.8091441279866667,5.8691678991357294,18.68918527390044
1.728,-0.4081351443993859,-5.47475762553579,-5.978015910318366,-1.2883459841806828,-7.058323244036413,-3.438799375385519,3.5218587981864014,16.12060147937512
1.732,-3.4114005571077826,-7.638587520131416,-6.278793426686573,-4.595048165706439,-6.399589863630283,-4.254139197797427,1.835991370196436,15.265472457923577
1.736,-5.8756647301942095,-7.889207811974121,-5.024087780878872,-5.983739548417949,-4.368443273089114,-4.145818524666226,1.2545765113782448,16.2038289893174
1.74,-7.522627448504146,-6.730502196776194,-2.358588386761082,-5.507122630805507,-1.7204558298090602,-3.5786137398450997,1.6083560604716802,18.047050856896924
1.744,-8.32893586764231,-5.187376186174532,0.8679860475000356,-3.956860442839599,0.48895813099150987,-3.262688542425033,2.2893279198507512,19.541135275393927
1.748,-8.329720182905422,-4.091058651405103,3.5673497925758646,-2.3030863169021543,1.538532587229157,-3.689180153682439,2.634452813747676,19.80051275765356
1.752,-7.527850197891828,-3.5887206537614844,4.962351644872428,-1.149432040635531,1.413578774106263,-4.803660797703921,2.264081899566361,18.751809617496498
1.756,-5.951763765545607,-3.1450922930178296,4.947929508988374,-0.4939561871101361,0.7224493592082006,-6.002315426078136,1.2087383482718344,17.044960564246978
1.76,-3.80301149873826,-2.014032448332478,4.045217816993539,0.0876531117382724,0.22725774093357176,-6.473338379975184,-0.22513746636705367,15.53909427958277
1.764,-1.5230862247542092,0.16576110385187204,3.0334580223661223,1.0232631365985365,0.3291257367216973,-5.663372027074164,-1.7095754537624577,14.72657521569126
1.768,0.3218920583134546,3.0404384777858446,2.4885928963988464,2.380382966414323,0.8368360558606918,-3.610420935202157,-3.096784350567684,14.447531646908207
1.772,1.2699044431221989,5.655277174567483,2.4623478011584985,3.768961066410085,1.131954096345138,-0.976286411301585,-4.475310819321679,14.052925845826321
1.776,1.1908157213915014,6.96006913685698,2.5137089546504727,4.578664160431595,0.6201916034791122,1.2542793167979847,-6.048192248416598,12.873172571027766
1.78,0.3441732571828324,6.37271002281532,2.019567193593808,4.362700273091615,-0.8492158313877938,2.2235506001366043,-7.9422509050609715,10.675319268321099
1.784,-0.7667992231965486,4.079059896582499,0.5994610864353663,3.1393873252726245,-2.8462825722856584,1.5900211569684721,-10.059571454343914,7.833169178495028
1.788,-1.6659969876957286,0.9162993708181397,-1.5867663560700445,1.4245216643655187,-4.583224962609145,-0.3307549538561938,-12.0496885170074,5.117711717502495
1.792,-2.1614091854937056,-2.0853836275834414,-3.8566317963408827,-0.03573155570751707,-5.350993248565382,-2.71652163681526,-13.4179570445754,3.276689735839427
1.796,-2.418312623664578,-4.2026235943676165,-5.3003722112949445,-0.6579757088047078,-4.895714082805565,-4.589700354013738,-13.709797089902114,2.6499359274622503
1.8,-2.8366793606389686,-5.302339465929457,-5.242020105814426,-0.34190194164917154,-3.54418000358728,-5.236721075454184,-12.707101634417121,3.024427937638917
1.804,-3.800760493903122,-5.7775413092503465,-3.602151168473522,0.477912739464891,-2.015419330458657,-4.497394915542326,-10.553112555286724,3.7817438356578883
1.808,-5.450617114223913,-6.220613992306573,-0.9806489023577369,1.0667082497855138,-1.056410779134446,-2.830046459165882,-7.770066025569797,4.208035056168457
1.812,-7.604177967970244,-7.061240787158508,1.574899295491405,0.7836149172599507,-1.1036168312860757,-1.11647693851498,-5.158909448551631,3.8024121622742135
1.816,-9.818880186501335,-8.338145594274218,3.055636716604011,-0.5346795716851505,-2.1116191219033325,-0.25543233199055493,-3.5662756835780627,2.4405847902978435
1.82,-11.568712129571754,-9.714502361067119,2.954493430513905,-2.4378493490104987,-3.629470924580058,-0.7477756142545586,-3.600658063598776,0.3437313296089757
1.824,-12.432021060032827,-10.675506055755527,1.498032739164909,-4.034236151779591,-5.0436919714376645,-2.4438685844407497,-5.38893547519597,-2.0813044721231373
1.828,-12.211842272393401,-10.763641824893096,-0.4624470974818091,-4.390122028322805,-5.841684829097332,-4.5817059447187045,-8.472879865481737,-4.418505584310383
1.832,-10.998289645345302,-9.759571965915807,-1.8747683952273153,-2.9991300832311425,-5.792381677217524,-6.1247046512787335,-11.938995612254065,-6.349388076264899
1.836,-9.15186768964791,-7.740362502144469,-1.9888078004050702,-0.07477097398755816,-4.982604327216409,-6.257017652388543,-14.748652865749937,-7.692947041826234
1.84,-7.23347406020979,-5.050614567515102,-0.7322972373708114,3.4562589643027586,-3.746578280553667,-4.819992708573107,-16.15694598733235,-8.401324825703083
1.844,-5.874347213956975,-2.2269756760448227,1.2359376265053816,6.272980583548344,-2.5440278575058244,-2.4621263895190557,-16.022568978384157,-8.55610853614959
1.848,-5.585002398246191,0.11177347116666336,2.819746922418129,7.17056487985292,-1.8327823856956384,-0.4001628795896339,-14.848085470084442,-8.370489258169334
1.852,-6.565954362223726,1.395734289152367,2.9659071441960707,5.534786886606581,-1.959190628809288,0.1358170225588906,-13.52066982466475,-8.145020359213422
1.856,-8.580597731719738,1.2767020406862377,1.1429515645536639,1.5940286529962049,-3.0660172291628176,-1.4805504553898061,-12.85997201170273,-8.181126434147252
1.86,-11.003089988856921,-0.23132316506040063,-2.443410895515643,-3.69559319368695,-5.0653639511661375,-4.93294359580975,-13.231615124311755,-8.683171364183922
1.864,-13.045646265177586,-2.697156598739318,-6.955469394793805,-9.049867812716581,-7.665201507640006,-9.058388327012612,-14.40983278977206,-9.689336502261789
1.868,-14.088149655273227,-5.367382435878792,-11.283036201977897,-13.357303394406573,-10.4530896822748,-12.3601982514529,-15.768666477449662,-11.07757738846706
1.872,-13.979287503538902,-7.432521651102968,-14.50583725535635,-16.070787972639234,-13.020857736742983,-13.69172070690166,-16.702228599077575,-12.626460879447345
1.8760000000000001,-13.111176125542126,-8.34108677399875,-16.19487073370344,-17.291184914337492,-15.064800836203087,-12.74438571407721,-16.99548123925343,-14.099124745608448
1.8800000000000001,-12.222618916455218,-8.027362708600476,-16.469845542233706,-17.554810756918155,-16.433430596795457,-10.123636230341454,-16.932384411280644,-15.294053333118484
1.8840000000000001,-12.011102136830008,-6.923479081061214,-15.813995247835821,-17.45910910936205,-17.11299748015292,-6.99017524483148,-17.073016023459225,-16.055455240281695
1.8880000000000001,-12.74614516313981,-5.736244343643262,-14.772659255543132,-17.338541137532083,-17.173764488846796,-4.482069322613177,-17.836881803790497,-16.272499530444087
1.8920000000000001,-14.119139943597528,-5.107490810028539,-13.722795448994056,-17.171022887120348,-16.71507787666279,-3.2289994032277085,-19.167865446668785,-15.881317252709971
1.8960000000000001,-15.386374726976298,-5.302419941518211,-12.761704674109476,-16.705049765571278,-15.81629495912163,-3.1801776970401185,-20.478054224661605,-14.900080725135165
1.9000000000000001,-15.762210879989144,-6.114973444562658,-11.782364090498325,-15.7300553187371,-14.532673292298675,-3.8197864846926857,-20.94701802066206,-13.482361947929274
1.9040000000000001,-14.8359962165357,-7.01711680052164,-10.629135623094529,-14.290261106564383,-12.905932123768185,-4.581017803921794,-19.995331838325043,-11.928631820616172
1.9080000000000001,-12.779950139151957,-7.4541534811472285,-9.218482844836048,-12.701870285301943,-10.970553309958282,-5.197520372600822,-17.638212427661337,-10.613028154032168
1.9120000000000001,-10.254913065073449,-7.1297776667400585,-7.590015256981275,-11.374829868055878,-8.751536837920002,-5.788283200985593,-14.506892534315952,-9.808222510213945
1.9160000000000001,-8.052380186952643,-6.107928442370847,-5.846073841477191,-10.532341568349961,-6.257622958280174,-6.644569990488436,-11.499223368062134,-9.504834280567646
1.92,-6.703074177349638,-4.71400401897098,-4.099118403353936,-10.047496545115159,-3.5186387415063196,-7.911028280853064,-9.293531485648709,-9.360140763401294
1.924,-6.246579107097594,-3.296710288605101,-2.4522633674786585,-9.484422433325065,-0.6456390279189372,-9.366502070076155,-7.99712790199875,-8.834198223251725
1.928,-6.255117845157974,-1.995105744541346,-1.0133681456481103,-8.321167581834779,2.1182052421426323,-10.454116874275599,-7.1386964715254,-7.481707647090765
1.932,-6.1064657907975155,-0.6779373762782708,0.05453597483130501,-6.258028755343808,4.389961933308369,-10.560244485567686,-6.025990712946198,-5.244001872764996
1.936,-5.311322976300937,0.9352790487314318,0.561944588895777,-3.4090384978572166,5.74040688617802,-9.35209995147187,-4.21226421204325,-2.5708166470570255
1.94,-3.7428261214901823,3.03113978919065,0.3700083695250509,-0.29593134205433635,5.845631884421902,-6.99585693099316,-1.802501314846321,-0.27480420787931337
1.944,-1.64931450773995,5.506295812137167,-0.4920026425681723,2.3623412841693447,4.644285897013164,-4.116459492679226,0.6103840892756196,0.8414612603272555
1.948,0.5299306845738361,7.951342854303751,-1.7380545869897492,3.956135631111149,2.4215024157742047,-1.5217891734230484,2.3430742347724554,0.40001424011091125
1.952,2.3848603680466525,9.810643536984585,-2.8889507899005986,4.2143694570456836,-0.25258559038556927,0.15268413197412123,3.078028552271048,-1.310391282133489
1.956,3.695847052068376,10.658668734583557,-3.4488297985649217,3.2883687883788437,-2.7027039748255066,0.70905307656278,3.1052294817605235,-3.418886019451916
1.96,4.465032046038109,10.430165416938296,-3.1486531920806935,1.668675605363883,-4.379723806649114,0.43072528183233594,3.180462783511283,-4.844101187581645
1.964,4.8380590501170335,9.471350567715051,-2.1114557649547763,-0.004311468177494948,-5.039869453550592,-0.09471052640567379,4.075830826037742,-4.78133242818407
1.968,4.976967939239913,8.369540725068498,-0.8398675365582875,-1.1632167702235505,-4.810223672725666,-0.2856326221293642,6.08251185033686,-3.080433327598654
1.972,4.956249278223037,7.645480588563519,-0.022414691383826124,-1.5004631017240468,-4.116793827582505,0.1555879607159315,8.757501118471932,-0.3031525031062625
1.976,4.752827883820293,7.499243367147445,-0.19181126519860392,-1.0483601095940958,-3.490920342015274,1.1411853509237937,11.106587553265278,2.5498472911885255
1.98,4.286032348743797,7.724123633466713,-1.4527220251066129,-0.17006754746922514,-3.3729941611870555,2.272920495296459,12.077338556271602,4.490042188309304
1.984,3.490553915844508,7.852669799646685,-3.3971970040991555,0.5653953086153991,-3.9675385176656555,3.0599825888832646,11.103779133332909,4.958371097644477
1.988,2.399616280358127,7.462687945590774,-5.249173554828813,0.6127185505194248,-5.183167334075419,3.1735984864955227,8.421272620892266,4.019755661667545
1.992,1.1663174907593583,6.440563138919977,-6.208803986606169,-0.3018104461954003,-6.6791157325490875,2.606329527669521,4.969365525676088,2.283641288622072
1.996,0.02963084862392318,5.057289138662276,-5.803265722937755,-1.9991878735071236,-7.990234553369016,1.6749585630136776,1.9555771240333912,0.5986171557106807
2.0,-0.7740830536618954,3.800586367162035,-4.1118034055278825,-3.8607290842893756,-8.70141159225983,0.8452112929145117,0.3071558355617977,-0.3195211148601178
2.004,-1.0996934697308784,3.0806218710990136,-1.7311003336263138,-5.045780767485376,-8.597148937694387,0.4833656535553458,0.3109948993713362,-0.14749131408379768
2.008,-0.9417735728001988,2.9956966223539223,0.5077966000644913,-4.842938875200517,-7.730916153555363,0.6541943061353372,1.6026185864629152,0.9822776767450643
2.012,-0.43600653342456575,3.2925593181677684,1.9048446365498828,-3.0133497970044205,-6.386118956404525,1.0767368271666566,3.4481442812397693,2.620798945910841
2.016,0.22223669345225155,3.570934752140463,2.2098523239483256,0.08018447688765651,-4.922071141768852,1.2911683255061246,5.157526002796007,4.244154683178803
2.02,0.8910882242637023,3.5846591795995906,1.7063251499139034,3.619389055861217,-3.582938918827633,0.9434090794907427,6.385972178257813,5.484405139450807
2.024,1.5673181338034785,3.4401065831248197,1.0407341294702475,6.697476315983028,-2.362243280843,0.03972183307537103,7.183917267496232,6.245832918396325
2.028,2.374248320370082,3.543741374910379,0.8782386218960138,8.702365101471663,-1.0241738108734655,-1.0011666171790747,7.811402080813689,6.649279900550626
2.032,3.4249325283335614,4.293711054078928,1.5229742891450504,9.502233570647679,0.7031664786211929,-1.549694999809741,8.450567775202497,6.878415609713154
2.036,4.668476097276701,5.7312512510405185,2.7505911167540162,9.376422637709224,2.882966120331159,-1.1091546558752814,9.028785211759018,7.020769986690644
2.04,5.79956628513885,7.369762464708668,3.899684332088634,8.725991606923747,5.197263272596294,0.36382806447341043,9.237523406181346,6.9901939859213185
2.044,6.335112262461177,8.36407521506388,4.207739866923307,7.782198652192179,6.986956953069447,2.3802134989044816,8.733687441508476,6.584082730911913
2.048,5.879829330661277,7.975197624424931,3.2451655611084815,6.522507029882432,7.539602916531366,4.155820856151292,7.4055440347229045,5.646534382544966
2.052,4.408383964407378,6.0270683042750886,1.1756736052072498,4.803756346504009,6.474776661181557,5.028070421358717,5.510622586896345,4.238168493002796
2.056,2.4003306906872535,3.0911541667112012,-1.2657448844174093,2.6281546971196166,4.025265810524455,4.832537411546976,3.6082429408140246,2.697915530885908
2.06,0.6953864994173989,0.24306315452321003,-3.114505962251945,0.31052138879158253,1.0204383271452517,3.9943677772403428,2.3048586041266717,1.5393080385202311
2.064,0.0883824520721439,-1.5096806484977097,-3.6620488469786325,-1.6042486690925655,-1.4588395061311834,3.267492594712009,1.9461302563421303,1.21000326508582
2.068,0.8786710761573788,-1.785843841719887,-2.813910195779769,-2.6368099232546336,-2.5833236768504166,3.2688653726237167,2.443084907765347,1.841047756066426
2.072,2.6208788248678108,-1.0465466122055158,-1.1389880917629696,-2.702537064260415,-2.171268074455041,4.086874374248091,3.325242187930316,3.15365121515203
2.076,4.290085822680075,-0.29414839647532554,0.474568776708844,-2.1983875020295884,-0.7250208178990554,5.227652793805224,4.020610937985009,4.595133442677356
2.08,4.799096017575847,-0.42959619221878165,1.33498213011109,-1.7800328455376186,0.902443376590587,5.913568374661008,4.196126524643313,5.640790876562999
2.084,3.6104912680954153,-1.6479996750514503,1.3623344374642556,-1.9288754510317803,2.028214477195064,5.567357183553232,3.9712007795130537,6.096070318658871
2.088,1.092690397471309,-3.2533372763549453,1.1513336081783345,-2.5837809281462816,2.5400543164820384,4.172665974806022,3.8776866038744977,6.197295173271169
2.092,-1.6290370078702212,-4.049330451772502,1.588348180815757,-3.1140578309842435,2.92233457191994,2.2812448511066203,4.547265270141947,6.447310905141936
2.096,-3.248323674903932,-3.077705904963937,3.281324719423031,-2.6641125150680542,3.903503885456482,0.6857927224635139,6.312306968994373,7.265040222493596
2.1,-2.9856960336590146,-0.2788475452121806,6.101302718224158,-0.7087610781238198,5.9273664887438775,-0.04813822108842475,8.932259625772316,8.663720681977264
2.104,-1.0066413135646042,3.3586026696745908,9.153125270409893,2.542144449262769,8.790230374807285,0.1256486753488968,11.629870640909328,10.17418371348737
2.108,1.7046334804493792,6.282326287373316,11.236438777742855,6.164334270357971,11.682432017762816,0.7900798542357557,13.453966429982856,11.084756513313884
2.112,3.913154443221004,7.206202248749859,11.510342209391126,8.953934587441921,13.609037300559047,1.4057758779728387,13.765266148116993,10.880593351799702
2.116,4.8338026924151825,5.833956317981057,10.024108571977182,10.069610425986035,13.964948603444807,1.7144768220452233,12.608511988035836,9.614412665465558
2.12,4.528702323010081,3.032143374370022,7.743319950026254,9.477185680517547,12.893155450454929,1.9018404701966278,10.728899252450605,7.961497805013566
2.124,3.7603338649581293,0.3345455527546175,6.032714974560227,7.918991144838374,11.204298652892028,2.4094639754321885,9.19365162118809,6.88453186018226
2.128,3.4379112783965207,-0.9054368060341345,5.90531212811051,6.453793010768668,9.917528466026905,3.551434647030314,8.833300579327421,7.089550897863587
2.132,3.9949470407423413,-0.24279171589724546,7.434108185309186,5.834301975830719,9.682202421014393,5.208785942306543,9.78619789602881,8.598709473502355
2.136,5.119544938304981,1.6818036530022842,9.726236114299867,6.127718081750531,10.450503824872994,6.85382664391045,11.424661509490004,10.703118442587852
2.14,5.997239308066349,3.584821360677548,11.456525257094047,6.782450789375901,11.580162003715643,7.895077196566257,12.709443481634876,12.34990865931728
2.144,5.9043176327787235,4.3131199244573235,11.661857820018028,7.082558061939953,12.29737463827216,8.124167527450835,12.790503047024037,12.746403588815571
2.148,4.753348280219198,3.483036738147607,10.324867840171677,6.68208187554793,12.218241850613,7.939850619086339,11.512068848698854,11.811625893378029
2.152,3.2036952766446807,1.602271073905767,8.367211089652535,5.849089047478791,11.595644534051345,8.161559298860091,9.512608270619927,10.213873582620135
2.156,2.2678778545515828,-0.3347948409819077,7.093995987817695,5.285795054441874,11.150101505061667,9.523730344309225,7.870453236262021,8.952541238275984
2.16,2.642157430202536,-1.4971486972694104,7.389300185105139,5.630188580287863,11.579016188536961,12.145822743802755,7.481007696079383,8.739030258228933
2.164,4.205964748171582,-1.6844357025093855,9.16987242960097,6.981766910745817,13.064323436180992,15.345399820783165,8.527610565842448,9.55745200662753
2.168,6.039604241811631,-1.3271144409190407,11.433130618498392,8.774932232167524,15.08513015028735,17.939139963330955,10.357027347323868,10.665577822197559
2.172,6.941261025556225,-1.0914286184045126,12.833498540899576,10.065506750198253,16.644514579391405,18.86879723485861,11.814452959741338,11.050207529989695
2.176,6.166646577313234,-1.3568088345365954,12.49081190742345,10.090308301160414,16.811732570646893,17.81684692006349,11.881143047111172,10.068701485723867
2.18,3.911890082222511,-1.9490855149883215,10.505411851025855,8.722540099879435,15.242452138593492,15.406708559990102,10.233221662835996,7.878026313635406
2.184,1.2303851676373139,-2.2997946148858848,7.891108204794852,6.550959774640798,12.386312106455684,12.867570783857799,7.407318200065468,5.3915967313883035
2.188,-0.5546742251965089,-1.892703264603016,5.985571126318599,4.5462574349822695,9.268049918583124,11.35427024479609,4.5005203671638805,3.774078199088137
2.192,-0.6207277095039336,-0.6989879922574698,5.665628310967065,3.497936363938681,6.963069619508805,11.303627502166295,2.5670897530591428,3.7761492777777326
2.196,0.899280598451228,0.733295411462878,6.878579852206176,3.597093976814062,6.077957149060414,12.227223975700571,2.0803555644601994,5.295798798096832
2.2,3.022555032507441,1.594297654501716,8.710761427040214,4.379529897901521,6.489764004582362,13.030475278905893,2.744651075465838,7.42022895424108
2.204,4.503008411895594,1.333239187566301,9.936188781362734,5.043829910026714,7.465617276855065,12.670272980934739,3.7362429983739904,8.917765852289774
2.208,4.54942683865294,0.05480916690647408,9.721650901064374,4.940210059438909,8.072713268189807,10.767225032359827,4.215652449209581,8.881139619068636
2.212,3.2214624101492753,-1.5028036948718224,8.040361113049787,3.909530516577887,7.630703636415678,7.821316645320378,3.7800886437279035,7.1689065755659875
2.216,1.3171435725916631,-2.3920010378934347,5.620761164457329,2.3126708728922187,5.9971437214813506,4.94819930905385,2.617059337694167,4.41248406346661
2.22,-0.16210423263474993,-2.0426267948719703,3.462721273359444,0.7444230688664697,3.5504157479841245,3.2855925056718105,1.2883597006243406,1.611158316171926
2.224,-0.6102072961835656,-0.6342825949516033,2.2553120364602055,-0.342433561219595,0.9402087050676506,3.4232318439519998,0.32623169780791184,-0.4195772442089849
2.228,-0.09557069622932346,0.9934569989155069,2.046654657929988,-0.8538063586031495,-1.2320136911942083,5.154640370168551,-0.08994538099170679,-1.4328817797996258
2.232,0.7867812388623956,1.8254740217570125,2.2983678452250156,-1.0183554322678932,-2.6450700450223716,7.64011376121241,-0.1938478552707641,-1.7570087949273105
2.236,1.3812592589913657,1.2900009617293486,2.2959571780735484,-1.1273757330999947,-3.284663170287944,9.87396090867249,-0.38876587246283417,-1.9629289352187191
2.24,1.4190965218290592,-0.3783748461587013,1.6005332264908119,-1.2796199940605808,-3.320515951149113,11.1550076217984,-0.9099114344028951,-2.4345481582385364
2.244,1.1438963078155293,-2.2579298837333397,0.28486851072230923,-1.3153033297957686,-2.9379236671764786,11.322815578948468,-1.6277250395739595,-3.1158571004697793
2.248,1.0734002964647995,-3.267197967877163,-1.1478593658611087,-0.9776066503188416,-2.2322408808430634,10.683800876388123,-2.1227824492333385,-3.591698899746564
2.2520000000000002,1.561845693568345,-2.813791065821264,-2.113432344949915,-0.197626276936393,-1.2312451942951463,9.71356741054698,-2.010400268793801,-3.4243237385906005
2.2560000000000002,2.496889670492039,-1.1562407118251512,-2.2830308827768797,0.7466586565363849,0.01950931277856971,8.755489450014743,-1.267319963834732,-2.5212387786441397
2.2600000000000002,3.335522308104783,0.732137568193011,-1.729176910411061,1.3279327969058763,1.383754065078426,7.874017491522346,-0.3313598929367514,-1.2792244406397033
2.2640000000000002,3.465752353879188,1.7266017138971135,-0.8009716042473287,1.1060535630432489,2.6476902174704056,6.926609365104184,0.121531792544465,-0.39784176299225416
2.2680000000000002,2.6720281795483176,1.2281693658634933,0.17321434410659498,0.10770168044771133,3.628104648495023,5.775792531459305,-0.3854419047825237,-0.47465708331990814
2.2720000000000002,1.372958451301327,-0.45306617492530155,1.114451807466882,-1.0362677493703196,4.302419784053911,4.477649293937772,-1.7642095027992437,-1.6086226469631917
2.2760000000000002,0.47952068157813166,-2.2193945941887825,2.2453654547855932,-1.314268956249582,4.879708731532393,3.335711940845729,-3.302757468758628,-3.270514958550371
2.2800000000000002,0.912167408578672,-2.7687901557234564,3.897734552706046,0.13172245485221,5.7287070919935745,2.76615358384571,-3.9992773643494095,-4.539393912490104
2.2840000000000003,3.06033595082592,-1.3216603311042905,6.208653181994032,3.4488646324716,7.185963533712998,3.064660490688778,-3.119635880759838,-4.5837135092039025
2.2880000000000003,6.522499258309745,1.9322289215509678,8.926255591773005,7.840719454731563,9.344611153236524,4.216875262615735,-0.6404804622431486,-3.1216298982417676
2.2920000000000003,10.25702706753971,5.893546806945803,11.418666331222324,11.820422712479626,11.934548444875237,5.860249178987434,2.6742878452329975,-0.5912827550428782
2.2960000000000003,13.08840003807554,9.10714501995055,12.940436980323632,13.889162311857753,14.389657030653337,7.443849469704331,5.649751756172385,2.063277837797611
2.3000000000000003,14.271300472960505,10.49588610956098,12.981991923609337,13.275981750762455,16.067276036337887,8.478836542495207,7.314772504063283,3.876429573421782
2.3040000000000003,13.79754314360845,9.871336643380932,11.518047047252558,10.341638652685287,16.515668900860298,8.746519181788091,7.404776177713474,4.344118960654941
2.308,12.305273609052582,7.96556158951668,9.035590809196734,6.42248263104066,15.655351855790448,8.365066513420889,6.4728802026716625,3.6333933803115084
2.312,10.636305181185643,5.9572968300124565,6.28895549511367,3.1514138383117007,13.768927335562708,7.668955688796915,5.5231194735025095,2.425545107075786
2.316,9.343532918203739,4.79712417169549,3.961244156764347,1.6383999080412899,11.334179011771445,7.000327057444426,5.4067952088136275,1.4970820553320774
2.32,8.434698271696343,4.713077744634636,2.393963169995457,1.9427507152889847,8.79882710922967,6.525133388936463,6.340210182411553,1.2967585315322996
2.324,7.49114301562217,5.1774270489131045,1.5432675851916833,3.133957022852977,6.442034096083171,6.196125571779154,7.8398471690721525,1.7722455167258806
2.328,6.086210920541097,5.349857653924333,1.1819583914279783,3.9134728994289087,4.399712049468537,5.873170143782019,9.124715856843068,2.5245099120732366
2.332,4.2003964420807725,4.685988680868633,1.160621402722581,3.409711840115165,2.7941528670309252,5.4950309838448685,9.693677333033214,3.1726522369371355
2.336,2.3732998601392508,3.3441329964174544,1.5764430794085424,1.702864661995149,1.845901557809012,5.179744063292903,9.706834802850175,3.6555540717307733
2.34,1.4449435484596331,2.1038687474255613,2.6832749809126195,-0.2593677306799408,1.8283225083049923,5.137734274805173,9.879205718797913,4.247516237292475
2.344,2.002980011979726,1.8149869286214655,4.574314465201547,-1.3156487901161371,2.8418301110968924,5.436773056956996,10.903727720360454,5.249564482157133
2.348,3.8723668106629843,2.714794640075448,6.841770474203229,-0.9187425833920699,4.53467291249031,5.7697161790801665,12.752678211555015,6.540603210896853
2.352,5.96033629263295,4.035728072468988,8.444255734331325,0.34763485445636694,5.9684923525956375,5.404195468722237,14.305043354290516,7.318159113800533
2.356,6.643093641181213,4.229767765067969,7.997082113085927,0.9386463225645685,5.82965637152452,3.4387540841295596,13.654582047466647,6.277708483826695
2.36,4.557259688222528,1.7641344002885866,4.41191980332339,-0.844323519807657,2.9770915776040194,-0.7196941987450121,9.044071184427361,2.2400433728612645
2.364,-0.6003144437276231,-3.9176052627216444,-2.4024760069314617,-5.83335999080686,-2.9012127229001052,-6.895201384754633,-0.03277123017855299,-5.070792075176545
2.368,-7.676105668886754,-11.796787050049602,-11.153113361346243,-13.31641138118569,-10.85986158809609,-13.971614487556288,-12.154654308712626,-14.541024402740081
2.372,-14.35748379330264,-19.45724578132496,-19.40641290573207,-21.12673000103066,-18.799520427239308,-20.174931557508543,-24.185455749534647,-23.79842030582073
2.376,-18.07143175090573,-24.018326427337527,-24.41465370545616,-26.492309625478505,-24.142874069217065,-23.720835098335762,-32.37371155783737,-30.010293077684395
2.38,-17.11364804904653,-23.426430404379246,-24.240549230145383,-27.267486391742654,-24.856463513067297,-23.55917986660687,-33.888476188451435,-31.028071054309617
2.384,-11.459930023800446,-17.462901915575113,-18.64850320061323,-22.91895294433321,-20.351871761021826,-19.833757135826584,-28.06697550605432,-26.332873047334296
2.388,-2.8408818518160865,-7.936337281848052,-9.298323190476989,-14.77264862766165,-11.8252343683471,-13.824263375797237,-16.742818188812713,-17.310163737135504
2.392,5.954779850722064,2.0420443522504543,0.8691640408266794,-5.427944405637677,-1.842241295679175,-7.395256255109281,-3.4858988698292706,-6.673690477840932
2.396,12.262875350048198,9.385378738840435,8.844114858385936,2.382371180010545,6.685292565831801,-2.2031679334769247,7.908091436668315,2.691750851267856
2.4,14.617310758754817,12.281051076633773,12.74106966282979,6.872867480297287,11.633482060028022,0.9038737149191933,14.929767621290154,8.885986271914089
2.404,13.223469735386459,10.783267866249169,12.430688040955642,7.747122567216199,12.411833338088123,2.0411564488858356,17.166940174068063,11.60952871361897
2.408,9.668688220524302,6.534664804425887,9.35949455716665,6.0221018469732375,10.002302813924025,1.9759319974124965,16.105185352257408,11.967005934735283
2.412,6.021944775085788,1.7923805766754868,5.653282566104249,3.280494926313166,6.2980951040932664,1.5493261460968506,14.083524477512118,11.622045507239555
2.416,3.848899820780944,-1.662576978012783,3.048525046517853,0.8448881090965257,3.1325189420476383,1.2099282676160061,13.020656927639877,11.802835291206339
2.42,3.620211561851627,-3.1918448045158367,2.1696517737905348,-0.725209501957174,1.4809010546319268,0.886306995510792,13.565304266155064,12.699625036567937
2.424,4.746962473102048,-3.284052803834149,2.4823601121349776,-1.6270635387190815,1.2043462005791046,0.22719837283519528,15.03595349052613,13.541383142169774
2.428,6.141514296403213,-2.9651857408684617,2.8737545931736763,-2.3992746163733987,1.3917388090462772,-0.997052113301638,16.0757388233806,13.235322159798045
2.432,6.917058173942455,-3.060993439072939,2.436336120946943,-3.426467272012613,1.0431902378868685,-2.6146237991243506,15.567385596077502,11.172860691365088
2.436,6.836716552284194,-3.7248308047759275,1.0287204959274217,-4.6507285599665344,-0.29042039269510944,-4.073035913554667,13.28662749478096,7.703163472961204
2.44,6.277480764433558,-4.469193286942548,-0.7141018297354851,-5.647052241430602,-2.268867638932404,-4.758680190884822,9.958499315897512,4.008020873246117
2.444,5.813638331147621,-4.600938108863981,-1.855007445319087,-5.953561482092756,-4.007949151294383,-4.391201569090912,6.771260910908591,1.4789895262352863
2.448,5.759356736843955,-3.7159158348446337,-1.7564676665925791,-5.39388036052496,-4.607913621091464,-3.2261471601415708,4.711198955376174,0.9708943713029399
2.452,5.942986165995601,-1.961052400538617,-0.4661213976449261,-4.207341283863743,-3.6590215352339923,-1.9435309303763804,4.106168005980013,2.3786054419808726
2.456,5.852638982947642,0.08277880736181942,1.356693968481605,-2.901678238525175,-1.4391859429539942,-1.2750571056795816,4.613032861759503,4.750377614396408
2.46,5.0152038896635975,1.7681126976624038,2.8568716011054374,-1.966590124143008,1.2596714821106985,-1.6084220421707078,5.567404021977887,6.840307541805548
2.464,3.3434406851009015,2.745463852003612,3.4809389045709738,-1.6252162393897365,3.5538662928473874,-2.7846452450350023,6.433275336100769,7.776651113308296
2.468,1.2203283076996798,3.0981264215319215,3.245371919349943,-1.7718896665569877,4.8787171437285615,-4.21747963119457,7.0502701798080345,7.44404529487803
2.472,-0.7467297895581757,3.172829541286262,2.6028428179985887,-2.1300932640135923,5.160893047352904,-5.262732379484609,7.547356004075184,6.405227590934166
2.476,-2.098914770606557,3.2687432772794427,2.0791646627069764,-2.469916597323932,4.718748661117972,-5.585304544480302,8.067290122121493,5.456322897763625
2.48,-2.7746942989028804,3.402947662784557,1.9174714553254462,-2.7398302371440346,3.995359042728806,-5.316196614559988,8.52908180499324,5.12235199499848
2.484,-3.088486986485959,3.3004251445224932,1.9609997649422501,-3.037825340500995,3.3091011876042877,-4.920149802217345,8.622767213635239,5.399133922376123
2.488,-3.4599249415998807,2.6083894112515305,1.836952950643063,-3.4553536903616138,2.7510837768252276,-4.868012699109358,8.04578264070371,5.85280847550521
2.492,-4.105186596948803,1.16593040944462,1.260292082975968,-3.940625476102275,2.242006141217896,-5.334898982816608,6.784029810393191,5.981609964146395
2.496,-4.892666727344702,-0.844016220978919,0.26560594002871696,-4.2771990006649965,1.6771779856099016,-6.085078174410338,5.236673469130706,5.576870506260699
2.5,-5.469927074428567,-2.9680459858884296,-0.8141559173100972,-4.223062981767788,1.0204735976579125,-6.621624109128683,4.051951060168598,4.8555365920968185
2.504,-5.551149421874936,-4.716870928802976,-1.5858809884008431,-3.707956578700631,0.294953334765349,-6.48717702417882,3.757306105195618,4.307268631054573
2.508,-5.1449464479600255,-5.797078203351349,-1.8598285500518796,-2.9393430136603502,-0.49117649375768635,-5.522961014546614,4.421685436105188,4.365199728077995
2.512,-4.568576984557874,-6.207615224997264,-1.7764228024148552,-2.3376763486582686,-1.3986691656295958,-3.948126639120715,5.55741704616076,5.136449449930659
2.516,-4.214557866447451,-6.133773744909698,-1.6664568314590698,-2.292558988206716,-2.5098093048217667,-2.214559351388562,6.361717038536468,6.350183712716984
2.52,-4.2480014678659135,-5.742759475015635,-1.77303402493804,-2.891493234361238,-3.8048390591395167,-0.749306401718135,6.155630194238471,7.5370821948447
2.524,-4.464962932953993,-5.042184090514012,-2.0410230793014907,-3.8081284291041793,-5.057433239183909,0.255951365853492,4.7574085439152345,8.301668364552688
2.528,-4.407685443239258,-3.890882456438942,-2.113014794914453,-4.429960183995678,-5.8557368245663195,0.8881149986635186,2.5812111048992223,8.491609949960603
2.532,-3.695895716523586,-2.177852208176288,-1.592990968552062,-4.198784278499978,-5.790385438192257,1.377675484836006,0.3920840083294481,8.17869281593837
2.536,-2.3389401276171142,-0.022704576814094324,-0.36902543389339204,-2.9531891732759745,-4.702037335682368,1.9070416473737752,-1.1116235335819165,7.486187547033931
2.54,-0.818176571236247,2.139544474415486,1.2020840646024782,-1.0904992105265385,-2.855372043765777,2.4755448532996693,-1.6578409354650385,6.407001559403035
2.544,0.12727774304773254,3.665302549300492,2.38684460756338,0.5588046307905092,-0.9076456016561902,2.9053455358849467,-1.5076893764568204,4.759764955121289
2.548,-0.08748068945758547,3.9826187198321765,2.439135027898839,1.1117888091738237,0.3534636753318612,2.978662813931966,-1.254176312268017,2.3166297252221546
2.552,-1.5606170065614648,2.8684320202414346,0.9980031851261337,0.04967166723966354,0.3663523181056192,2.5914779455156527,-1.4732257872772552,-0.9785269462609352
2.556,-3.8393817662443945,0.5781511340441976,-1.6871794860713383,-2.5327873366507956,-0.9400549896327979,1.8333932011915266,-2.427246688787469,-4.868577102261911
2.56,-6.166338184331026,-2.249806464604325,-4.866235390963503,-5.97791086681888,-3.1306297219205055,0.9365842191585269,-3.987424543372848,-8.827110849842844
2.564,-7.876803592061904,-4.865705989394792,-7.663151831961445,-9.375430665355843,-5.500829702262991,0.1468201797780766,-5.78502969169588,-12.265530819586807
2.568,-8.701564313109074,-6.70738181767098,-9.484905650629372,-11.961792094308041,-7.428327641185903,-0.40008179255489695,-7.454924248051553,-14.794195985176344
2.572,-8.833699820266864,-7.6053937479251,-10.275350954167054,-13.428330596745447,-8.656501569763257,-0.7310759093689323,-8.83241589414203,-16.374305862469505
2.576,-8.712548650877967,-7.773934599727111,-10.446853060942304,-13.953982740209147,-9.344473602251337,-0.9648474000030629,-9.97552912621075,-17.27179324074576
2.58,-8.709509771140098,-7.641155986653005,-10.583495214027241,-14.003387281220235,-9.89455164330098,-1.195947250609346,-11.046288999930596,-17.855308328904353
2.584,-8.920360646367602,-7.6229431560947365,-11.095429435836962,-14.026330408884096,-10.674270612158443,-1.408577367687092,-12.15564949803364,-18.35894310546943
2.588,-9.1619919920901,-7.943205253459309,-12.013470451568738,-14.217923313405743,-11.808833604390287,-1.4896040681713658,-13.26939469447402,-18.768534010261476
2.592,-9.165129152299244,-8.595662512377071,-13.063281484765072,-14.473788422373719,-13.165863537062544,-1.3308492660433142,-14.24556891198629,-18.87657199219734
2.596,-8.792674811676118,-9.422578291812652,-13.906216840835254,-14.520872273406587,-14.501302715816966,-0.9304426050551857,-14.946976070627212,-18.45667275083475
2.6,-8.141662298579755,-10.252828571752408,-14.402778795383256,-14.134396855564688,-15.65482753887169,-0.4337708129712796,-15.344840742933926,-17.430130467547666
2.604,-7.479313079184077,-11.01567280983932,-14.721904018853719,-13.298183188090483,-16.64420166257876,-0.06598321046641464,-15.52896858366,-15.905831268661707
2.608,-7.053851831256482,-11.759403829965182,-15.205947373369732,-12.214057195029827,-17.588149671531255,0.010116023048091005,-15.600690694452037,-14.089122799803482
2.612,-6.938521581792652,-12.587950786598462,-16.115474493785168,-11.190984464074688,-18.530614134754803,-0.19270262522313408,-15.542437683633583,-12.12527304788667
2.616,-6.9878779197693195,-13.539268890077693,-17.376145168169934,-10.466054569572275,-19.284316289344858,-0.46576280339174403,-15.147189832011296,-10.00479633667616
2.62,-6.925420254980265,-14.485186231756222,-18.510697892857696,-10.08244521681675,-19.430422073176274,-0.513026925775784,-14.081045027151488,-7.609519490777037
2.624,-6.492045026749789,-15.119647111537077,-18.812314977922448,-9.884538874827935,-18.499822745081644,-0.1291468757690346,-12.064636697478667,-4.871965583206173
2.628,-5.548072326549074,-15.045279958759753,-17.658765126009683,-9.609867456293575,-16.235456048960092,0.6480365690230192,-9.076815661891871,-1.9532947320843257
2.632,-4.1080343503773715,-13.945463015990487,-14.843362563481254,-9.036367838462638,-12.793435398091948,1.4990624098228287,-5.478535282854445,0.7034858137812021
2.636,-2.2962354657470083,-11.736190412440921,-10.705824699756509,-8.07101734425262,-8.728017503215572,1.9567765391982535,-1.9484724436509806,2.5057925552413027
2.64,-0.3011799899391243,-8.637775341356381,-6.023726735838295,-6.76014042097681,-4.771043103729454,1.63081072817445,0.7464224907674502,2.971545530796262
2.644,1.6349000163530283,-5.119005558800435,-1.7129120202627455,-5.22845822465327,-1.5114542616882969,0.4288099331027837,2.0594791500606098,1.9969682819414878
2.648,3.226941014741978,-1.7158273938070483,1.5379802087586536,-3.5868695687189227,0.8587897025671456,-1.3368005636111502,1.9199749566078426,-0.033550701927519855
2.652,4.181809930463475,1.176181115854685,3.4878878702112113,-1.8903136972232848,2.5814264073062603,-3.0365109066328415,0.7874448799315594,-2.365243181386637
2.656,4.306358866810729,3.4487949020722866,4.365141948637053,-0.14283075521707334,4.148490240733054,-3.9542806589393704,-0.5152047460305784,-4.180463366456309
2.66,3.635833426577366,5.268664049341539,4.666280843420465,1.6456999514070423,5.97964485685927,-3.582558573829487,-1.1445832970113397,-4.948565798311064
2.664,2.4909421157039944,6.912275244430195,4.852727773612645,3.405933320367002,8.143359101330006,-1.8421712954877638,-0.6056002654458026,-4.636443077216772
2.668,1.393295258483,8.550893622122075,5.122574166225943,5.007971319169109,10.268535686180702,0.8625867844346065,1.0403203167570545,-3.690822477416556
2.672,0.8251541728781548,10.091530156578045,5.324726847566762,6.300518209035007,11.68002444865544,3.7756663076984016,3.2060861175212487,-2.790751902004927
2.676,0.973675077407133,11.200403279800332,5.092219178493266,7.19510318708322,11.708979868478972,6.075844557085246,5.062848733762329,-2.498474390018135
2.68,1.5865102210550162,11.488140078962202,4.079035385341625,7.718140222001967,10.010224215713446,7.183788429281908,5.928774185682705,-2.9870770728079803
2.684,2.0539315268481513,10.761680489289905,2.1709596109492986,8.006623723457666,6.749117527611831,6.976149831391424,5.570437079502084,-3.9677720424003935
2.688,1.7292109273687335,9.22153188077931,-0.39820240400306295,8.263494899604261,2.593832288815637,5.830651744334613,4.296545901154655,-4.848498758177647
2.692,0.2957681401309651,7.456471443276415,-3.1125345551715293,8.667797227288132,-1.4895283796076306,4.470681783986906,2.796813935249703,-5.023002840436278
2.696,-2.0121433609341555,6.220081316871612,-5.3592932902670505,9.296424430883677,-4.549132683101377,3.6712985813819365,1.8154160591347643,-4.169902319025119
2.7,-4.487545481362101,6.080755609388852,-6.66468811967372,10.070567153840694,-5.960666457362747,3.9171067131117248,1.8071261877514149,-2.4286847719097358
2.704,-6.290665505319642,7.132896470588638,-6.858320217467297,10.770039549482165,-5.605230939170993,5.182920240620247,2.7601960294152432,-0.3536007340047167
2.708,-6.8527360143338765,8.934349415148374,-6.08124070709033,11.120557149100044,-3.8554388532583594,6.932925637006091,4.26670109517957,1.3121683454471775
2.712,-6.150016773171309,10.685593595559457,-4.6982775761711455,10.891870544566313,-1.403182669978241,8.33713794068441,5.752858282648047,1.9388047800308768
2.716,-4.674645373781249,11.586976161681932,-3.124428822863557,9.992104889775392,1.0200587343776744,8.642127267166476,6.757021678585064,1.2540515736000755
2.72,-3.1398132813675543,11.189759988911945,-1.6711066081209731,8.503356311694763,2.9042386398833435,7.512121275165275,7.0977380689791545,-0.5699277710278075
2.724,-2.101036489618542,9.571171674778991,-0.46400930215124614,6.656544905159824,4.111183062471817,5.200670558759849,6.866585812789853,-3.0019230577208944
2.728,-1.6895143868098206,7.27373985905219,0.5642699512408746,4.768762288670459,4.863332558843169,2.46018326389824,6.3016719627216515,-5.3662388078995775
2.732,-1.6246987616332451,5.026966687932866,1.574891263001028,3.1374279450402427,5.557729280157333,0.19777609855622247,5.607179328076225,-7.07996440147103
2.736,-1.45085349008371,3.418051413543671,2.7093273840999483,1.965250064881094,6.514693263912965,-0.9332355393720508,4.848347312191562,-7.817376444609585
2.74,-0.8439700546360074,2.664678953403601,3.9856338671674303,1.3337759516442347,7.77089639688318,-0.8261486047322628,3.9592881848086807,-7.550270046675445
2.744,0.19403166277416484,2.584765841473985,5.243146276816779,1.2254590843697915,9.023462960467882,0.059768279622575554,2.832324398577588,-6.465945466036542
2.748,1.3673553325638945,2.7618527644810285,6.183191389844691,1.577213526209015,9.767011366913339,0.9640362607672288,1.4271814328580705,-4.84267664778741
2.7520000000000002,2.2761841783095527,2.7839246006163023,6.464539436507454,2.3102888344344237,9.542443162732202,1.230007680826077,-0.18008077398535605,-2.9383938610968547
2.7560000000000002,2.647963871229651,2.447208610914654,5.856478547026173,3.329691128797297,8.184247316988271,0.6532988997775195,-1.8084161750230443,-0.9472568841759443
2.7600000000000002,2.4452184432224566,1.8152146603957515,4.355121924499501,4.474210354856925,5.91645682182135,-0.4327276030720384,-3.2357384933847975,0.9714082457140609
2.7640000000000002,1.8027013855529752,1.1256847481424277,2.2088996224677064,5.472540981650008,3.2435473767685696,-1.362703351245509,-4.272661974143396,2.65613556767768
2.7680000000000002,0.8773598564392717,0.6290828727698337,-0.14870776549207854,5.965148803179249,0.6920476500130555,-1.5273152459257773,-4.8035493794117095,3.927049097978106
2.7720000000000002,-0.2898828303798311,0.43290427526889186,-2.275418803291924,5.596818243094299,-1.4605803451686015,-0.7353984994100102,-4.811969547507651,4.630874099116738
2.7760000000000002,-1.764595239452433,0.45745058121674154,-3.883366226038242,4.186854119097786,-3.2913608628467097,0.6766321221328218,-4.372607747943649,4.731744829808823
2.7800000000000002,-3.567772484569822,0.5089541396093591,-4.932517471062411,1.8809610671904733,-5.11950163822872,2.030010963383636,-3.6319395524595546,4.377223756982721
2.7840000000000003,-5.504509118575021,0.4075015403622264,-5.5957653431873045,-0.8093902831284425,-7.227385637280924,2.6872197805285154,-2.780575676766093,3.8865083578193462
2.7880000000000003,-7.090888118823977,0.11223187183675609,-6.077486850197793,-3.117413485855372,-9.560714495161378,2.4226334295780703,-1.9900257846522047,3.6342921477732872
2.7920000000000003,-7.685161317749965,-0.25015991924214376,-6.431121836812309,-4.285296522230223,-11.616717914146165,1.5528859040239005,-1.3544081668465315,3.873451695094664
2.7960000000000003,-6.7600415827049405,-0.4464399676085433,-6.4516478463291005,-3.851109132779538,-12.598452318664682,0.768452532591815,-0.8511495047680535,4.57283025974526
2.8000000000000003,-4.197124600559152,-0.2574858408221594,-5.742442495495361,-1.8490535730920277,-11.784022541861326,0.7421749403725388,-0.3624382806194353,5.364791210235937
2.8040000000000003,-0.43408123766533024,0.41548969259860513,-3.934700686771036,1.1839009819520427,-8.913186275032386,1.7508101530636895,0.2422806040007064,5.668145208585242
2.8080000000000003,3.6476867654494023,1.5280230966110775,-0.9354219553532823,4.415747379338495,-4.379955153165884,3.514177854117389,1.0019681604380288,4.927331319152742
2.8120000000000003,7.029187139428645,2.9341663558915494,2.8994229918533283,7.0179945175513705,0.8703773123671046,5.318021572253243,1.7823093405142152,2.8723122435085084
2.816,8.932794199776104,4.4731496959314665,6.815213799152877,8.44748964756778,5.710210762797503,6.368450190187293,2.3020384995947,-0.3310938011740614
2.82,9.091602040173965,6.038005074251101,9.90916794093684,8.587431804888862,9.269931446935578,6.168897320556217,2.255183923333243,-4.120050334481436
2.824,7.789881475966767,7.577632292634746,11.47068210710172,7.711054158182872,11.235525572628825,4.735400756493476,1.472045048843344,-7.735423867175771
2.828,5.689702072820793,9.042260691650547,11.26457513655166,6.323354189244381,11.862250942262353,2.5542797843002134,0.027799584768679608,-10.508490565325975
2.832,3.5237308436485737,10.309992955689394,9.585829246046895,4.954602486802343,11.713033244015989,0.3222827052586863,-1.78704521189041,-12.08356607079738
2.836,1.8292019435060647,11.18009953714902,7.108696644409312,4.023664103881381,11.306565937707427,-1.3532954213484998,-3.596565831121908,-12.473230813089401
2.84,0.8185531535928918,11.451526583634877,4.591306036365484,3.780823408710904,10.860205806159303,-2.1563941530105346,-5.108540993797574,-11.94436395184938
2.844,0.39577174579090935,11.040329739350016,2.5749700301481626,4.290938800635739,10.246865012521994,-2.090942693662581,-6.223607588690495,-10.81129883361518
2.848,0.29389836864012464,10.07966349715791,1.240818142451463,5.439234491189348,9.173667550780042,-1.3632712887028176,-7.004499339998259,-9.27080207860783
2.852,0.224466802275197,8.912424344070669,0.4297987464827351,6.924476697138093,7.436201862196805,-0.2329457875196066,-7.556491050619934,-7.355494479696194
2.856,-0.01175846318663698,7.965715837977982,-0.18283469967593824,8.28349885893755,5.095060333407236,1.093484357814707,-7.89063711121128,-5.021664534442099
2.86,-0.4793138696742397,7.5548710279932685,-0.8844469772431003,8.97810386553015,2.470491570299938,2.4752156339766382,-7.878629513819085,-2.296476236712166
2.864,-1.1259940461673956,7.706934412931221,-1.8078027819914193,8.555449395894465,-0.026014201921789493,3.7893956591224973,-7.341492253105523,0.6309647055491727
2.868,-1.8152017412737727,8.125738352890682,-2.913073099235876,6.849849655862312,-2.1013934682241064,4.895473791668588,-6.2017796907429386,3.4314620895162697
2.872,-2.39867493251631,8.301976572097722,-4.090156357333091,4.094725104392857,-3.721500352096468,5.625814475117224,-4.6145766705158255,5.757564672310068
2.876,-2.7749983406071412,7.754489796015976,-5.24944775515855,0.9052113912018322,-5.08132842844928,5.836958760500783,-2.94467906318694,7.391190254431367
2.88,-2.9336406765334564,6.27890523691463,-6.358676386002699,-1.91269249809148,-6.440164197342307,5.465964556118825,-1.5977665054381345,8.314327093271032
2.884,-2.97366307795882,4.079166133352965,-7.406157469321571,-3.6518874313106298,-7.915063025050596,4.564367711801424,-0.8010024427607199,8.67077344807506
2.888,-3.0412260247500282,1.7366675504266222,-8.287407126549684,-3.931468649406493,-9.337842904084821,3.303434906611112,-0.4536173643524033,8.643632702011809
2.892,-3.2385669116781237,-0.0005662833128190492,-8.747044551271117,-2.789590545555299,-10.269934376170342,1.931209173627645,-0.17674638033208612,8.328832765536667
2.896,-3.505268707832794,-0.4830326661380667,-8.388286688838885,-0.5712766240201734,-10.142635853698454,0.7366465425776667,0.4774789003380546,7.697481314048875
2.9,-3.5637443326921288,0.6146128774737138,-6.805813221143362,2.2914213432450956,-8.481575556316367,0.0002793707442612092,1.7593185674566267,6.667186745998238
2.904,-2.987137909248643,3.1894561328745157,-3.797710650849929,5.47209077093383,-5.118614518714616,-0.05977370153437567,3.5568287417522333,5.248159254874745
2.908,-1.3634395679060107,6.772000326472086,0.47586308092764007,8.820440417851884,-0.30941139835453946,0.6600301873703045,5.445557294946029,3.6529052278300695
2.912,1.4550064126139004,10.666378922345768,5.414721223681549,12.244818305661996,5.251511727662489,2.078910711858984,6.892126012853267,2.2812769853190464
2.916,5.168498541349496,14.133911366919154,10.08405986393854,15.531518372073798,10.556640898875505,3.9060951784085116,7.514233169385701,1.5709906283465145
2.92,9.027770908445644,16.555099086624573,13.475468525850353,18.241200028803277,14.522758162202832,5.69199721194733,7.253553657619397,1.785060762354671
2.924,12.038507944566513,17.526597033962318,14.821890229361934,19.784028860850906,16.283230536169288,6.964416290125147,6.361303453129082,2.853342569559323
2.928,13.322154310370129,16.911400096767338,13.868598897937762,19.671405821424408,15.456377913062424,7.399884648773366,5.237046966077539,4.349829614689673
2.932,12.462859745626803,14.834108027407673,10.953072937762682,17.79331075788338,12.278452980235516,6.9428696917296895,4.211789940863314,5.642227570818464
2.936,9.713548396407644,11.65907492525637,6.905441348321998,14.58002495754072,7.555840358953912,5.821984994570735,3.4182236223643816,6.152163432907198
2.94,5.943506126029396,7.940673985399595,2.7759156171287342,10.911305602493446,2.4127866607670283,4.437938148472772,2.795703983376848,5.6023909664139655
2.944,2.3238432287722213,4.329973565942452,-0.5064287523045303,7.786007097145024,-2.0771821149302525,3.185831601974676,2.2000090634154312,4.153133971233466
2.948,-0.09896426041349127,1.4583715797188195,-2.385774626663677,5.920313490640307,-5.228972595165828,2.3066414275922504,1.5476844132992997,2.355382510498634
2.952,-0.7894372855428585,-0.20674428277781765,-2.8025202092289643,5.454899899242995,-6.928759736620831,1.8404089829706562,0.8836564056973149,0.9426084995399009
2.956,0.10389892389668809,-0.47835894196732553,-2.1219847800068132,5.947537571058579,-7.562142947845249,1.7021577841757478,0.3630208866137691,0.5421656827237342
2.96,1.845000040485758,0.4952640045510023,-0.9435485950774751,6.6370986948924555,-7.743370174264553,1.7951427324932494,0.16354436067045874,1.412877071677947
2.964,3.4229639896081,2.2668104105027727,0.12323104399463425,6.848696666660279,-7.971989197043885,2.0926114874946906,0.39462694372592555,3.3289774801046086
2.968,3.9718634019039714,4.236502404980703,0.6619312831127275,6.344357053923681,-8.37933902344514,2.6351433828432875,1.064259908190523,5.646278017142766
2.972,3.093153705312739,5.837262017075092,0.5291448871722157,5.403475062459821,-8.70907813537432,3.427278235446896,2.0768325198613713,7.5283182143244884
2.976,0.9849507245401954,6.719103984004651,-0.14742872579194977,4.635480573265972,-8.507943405218526,4.344209376422798,3.2585974006550398,8.25161343582096
2.98,-1.6733899485213688,6.853419469647335,-1.0558559551377416,4.619435178774003,-7.422413029203086,5.115117890182541,4.381587577571127,7.474154526843772
2.984,-4.029458286595767,6.502366449297181,-1.825393868260864,5.566499126826344,-5.428955919074576,5.421267675700294,5.179997129431035,5.364596812052574
2.988,-5.390649747114547,6.096085230874193,-2.1213593079096227,7.208655459273425,-2.8626157083308748,5.072992563561897,5.392704192724486,2.5315537961151886
2.992,-5.476691757667919,6.0443952542900625,-1.745587675149798,8.933138471017529,-0.2622201533854396,4.143034544095146,4.82766593353989,-0.21600245300832377
2.996,-4.464065920723756,6.580501292027896,-0.6773993075722387,10.100874137354603,1.8866725451397124,2.981532930795858,3.451928718659606,-2.18791023347611
3.0,-2.839399639232551,7.684476635187919,0.916420786752725,10.344930313377546,3.3382737877224447,2.06397285772674,1.4390623958688242,-3.087721914257415
3.004,-1.1651299379069227,9.096796811379651,2.689310140286757,9.67751936226033,4.096238192414736,1.749807961554147,-0.8868501837867641,-3.1146886839381374
3.008,0.15815651371368977,10.433493430846754,4.19545534402583,8.396086083761553,4.280121162064264,2.10122181924805,-3.174201346059798,-2.847156705183755
3.012,1.0024197481434287,11.339398711734404,5.004113781153722,6.848658974800008,3.9466951100058,2.8574634910926027,-5.184374604642265,-2.939928553592493
3.016,1.472349921242055,11.621110578054445,4.844381535268185,5.231525911779968,3.005929248366696,3.5907337250800087,-6.855957442107169,-3.783982471435097
3.02,1.7734913135258603,11.320299890095217,3.7224542419715885,3.5540103960372464,1.301247035361159,3.9521581622055817,-8.24975784681872,-5.292089926859491
