Timestamp,O1,Oz,O2,PO3,PO4,TP7,TP8,Fz
0.0,3.694822225952521e-13,-1.7621459846850485e-12,3.410605131648481e-13,1.3642420526593924e-12,-3.410605131648481e-13,-1.8189894035458565e-12,9.663381206337363e-12,7.275957614183426e-12
0.004,-65.53105503496948,-55.914190337272146,-106.7576985756873,-70.22486299112734,-47.66858126735832,-42.995516328821054,-58.646761339649174,5.608427698749324
0.008,-111.62393175987518,-94.16355166878793,-181.99617358679836,-118.95580363234654,-79.77767155252928,-72.59403436632681,-97.83755786094298,12.636878515056821
0.012,-127.48827633910363,-105.10087544274327,-208.25740106578155,-134.36938371143128,-87.76886789472178,-81.39210812982765,-107.03272122556166,21.661873984935028
0.016,-115.26841448057681,-91.00868743691419,-189.06371469474226,-119.06847351983032,-73.52994137626183,-70.95944744421388,-88.94687570711267,32.04708419272072
0.02,-87.87112060973931,-63.97540553922238,-145.3184094299969,-87.59832999481148,-47.606195400123,-50.36087293464027,-57.16798908803651,42.2232615194298
0.024,-61.797945335814944,-39.157564314829074,-103.61819991243857,-58.378474838145394,-23.375629149401277,-31.194211411005313,-28.63579869601449,50.46208846409132
0.028,-48.977908016577146,-27.224529582146033,-83.02693780201986,-44.55914231722102,-10.462126054656153,-21.882900854655418,-15.197339041365353,55.67800737684587
0.032,-51.95560039833646,-30.051687026328977,-87.39101640105645,-48.68576675819497,-10.897206159871928,-24.23968286350373,-18.763261055350426,57.829909124308756
0.036000000000000004,-64.59805738765334,-41.60192266459319,-106.65128820150625,-63.57541028982956,-19.73717470303569,-33.84398384521285,-32.258552771082066,57.75465985032071
0.04,-77.16266009222574,-52.79997461937711,-125.1789805453144,-78.0851874241701,-29.173272419230557,-43.52419688029181,-45.10139360331874,56.567645938829514
0.044,-82.36672562481564,-57.175069015377346,-131.59127771161621,-83.97055947620566,-33.38622807291313,-47.670915986199816,-49.62904396228049,55.03632111785549
0.048,-78.93325894820501,-53.982954415362684,-124.32926698458306,-79.87835386316021,-31.335924343701322,-44.927367575227095,-44.77133602021996,53.27845141791909
0.052000000000000005,-71.0830081198734,-47.47369903210688,-110.6205239149138,-70.74998973287296,-26.294845260741624,-38.09398625058327,-35.39268480721745,50.93831074133425
0.056,-64.97595290968587,-43.385627810259734,-100.5762071325035,-63.76576137592082,-22.9758688436047,-31.79455680561557,-28.39363924038946,47.68896880150197
0.06,-64.60293532144118,-45.11707479040962,-100.56203686788331,-63.66564198274796,-24.31289062252415,-29.547947760933425,-28.26764226077563,43.68598969828338
0.064,-69.6370616852056,-51.91487526411305,-109.87080049102343,-70.26054987469433,-29.857564153227713,-31.975989394184012,-34.77989831901982,39.68100468629473
0.068,-76.19111281152561,-59.83905386322397,-122.10781612830755,-79.21322432153954,-36.478677448990425,-36.9317253009678,-43.75896575541134,36.699094016793765
0.07200000000000001,-79.66967308749315,-64.57968063018717,-129.8436433409854,-85.1882979204417,-40.631314396949335,-41.18474108351876,-50.11372517158384,35.48000284463268
0.076,-77.75594789503774,-64.18925528010357,-129.3206025104946,-85.18887076700321,-40.6108361914001,-42.46487620835194,-51.00214929040146,36.030695375214805
0.08,-71.62991295702787,-59.99765109997486,-122.23414475658382,-79.9913890215571,-37.359563566633824,-40.58833741463826,-47.175371194332115,37.54720783859142
0.084,-64.88549140216941,-55.36050733449315,-113.8814406547616,-73.0814475255813,-33.505490723671016,-37.174457642765844,-41.952203776435226,38.779733893144225
0.088,-61.03882234003402,-53.24574316532289,-109.25114869874562,-68.06504603166312,-31.445565108756114,-34.34092056915068,-38.7621676250767,38.63201327790205
0.092,-61.38400758924212,-54.36588235559822,-109.87494174067774,-66.44046118842877,-31.847614252604785,-33.374224024293824,-39.01535083679448,36.68317716972558
0.096,-64.51665620226552,-57.01881353806928,-113.41031014152969,-67.11649536885736,-33.50212121819811,-34.201582525004426,-41.59964058525571,33.37490746849841
0.1,-67.55027723525069,-58.4925672440103,-115.75876504786578,-67.6606036435588,-34.40825853046829,-35.7820993245968,-44.01227790366988,29.758817978753996
0.10400000000000001,-68.06055851645283,-56.96761656022443,-114.01686166126836,-66.20919244274097,-33.22755383928887,-36.97211227392245,-44.163900437936775,26.96164680950568
0.108,-65.4431791873414,-52.624825522471525,-108.2037497513524,-62.676350709361,-30.09681156898901,-37.19922035865932,-41.595721481891076,25.640336353135126
0.112,-61.005370381188385,-47.40333142921045,-100.92476996003626,-58.6431033910429,-26.399148876350495,-36.60818924554809,-37.50336927637275,25.706199890328037
0.116,-56.98156275705297,-43.76125589007623,-95.5561596385289,-56.22839431016433,-23.810117552174148,-35.75775948359018,-33.816215291289865,26.446543964655888
0.12,-55.14820290837541,-43.2419242444042,-94.17625493010371,-56.71822786753938,-23.270379293557966,-35.14110431259388,-32.01098840405669,26.938182652068463
0.124,-55.8925053481517,-45.70731088419086,-96.52286618109417,-59.816173342359576,-24.517481436752774,-34.87461425303536,-32.40291964011803,26.537155322215256
0.128,-58.15900023359231,-49.56125895734547,-100.3896005655497,-63.857678263851966,-26.370443970030095,-34.70681660566066,-34.19837954557957,25.182100498470447
0.132,-60.22894601975146,-52.75811493535829,-103.10582904066686,-66.80840855897497,-27.54419645913606,-34.30957126336756,-36.16272133014712,23.383005288659774
0.136,-60.81724303712561,-53.96080964307228,-103.15636885962121,-67.42451169873553,-27.47126919072079,-33.62280373735905,-37.423497514406506,21.941691908313828
0.14,-59.757061033480156,-53.13117472971936,-100.88008859914152,-65.83633202563144,-26.596118652718417,-32.965601389125936,-37.859103071639424,21.540274292377376
0.14400000000000002,-57.94280426485304,-51.31731351064499,-97.97460354318628,-63.292415544256045,-26.009383415516936,-32.84290399054731,-37.92737973594399,22.42208449743191
0.148,-56.623339925332914,-49.844203285572945,-96.21693442322908,-61.27643363539747,-26.678256868580547,-33.557693857781715,-38.13323258255275,24.30559357593063
0.152,-56.585235326846,-49.49734446842663,-96.36358832056328,-60.633706794944146,-28.804161484355518,-34.92994305808406,-38.59694575046359,26.561167107926167
0.156,-57.758774665909186,-50.19559768383414,-97.9172028599595,-61.239205148182634,-31.70024784239547,-36.337175094841996,-39.0276593650824,28.541437610811045
0.16,-59.338065241341184,-51.18349142922932,-99.61987706740979,-62.230705619716844,-34.16890218783129,-37.017048629353155,-38.98867474585734,29.85780650967871
0.164,-60.277787019633536,-51.544920630703444,-100.24409378955846,-62.581460667760894,-35.12150228598989,-36.45876906511671,-38.22454659966593,30.471719319412728
0.168,-59.821842067208195,-50.68617943827593,-99.13970098487607,-61.630272755419014,-34.08117295981526,-34.658044894761815,-36.80994577000456,30.563153667297343
0.17200000000000001,-57.86966099300409,-48.6212609978989,-96.43223893459884,-59.39593555128829,-31.3995144843459,-32.167255072477474,-35.13010153152891,30.296094276841416
0.176,-55.07528639780162,-46.01578323444079,-92.97976632089842,-56.62473155425363,-28.155988171082697,-29.944930229426745,-33.79507201430681,29.65007127358865
0.18,-52.555577143283216,-43.91945884707883,-90.03132344696826,-54.479602789350736,-25.734832491317036,-28.994515327458885,-33.46050510260852,28.417649704955352
0.184,-51.32719099860239,-43.28836679743239,-88.69718285001898,-53.98376985243226,-25.23198664805932,-29.915465879638305,-34.58633274322801,26.39033960623624
0.188,-51.71502096048388,-44.475875329969654,-89.36607479905501,-55.44267175583724,-26.925888626339088,-32.54808452589714,-37.16767366761053,23.599221907269794
0.192,-53.13272728612256,-47.005025421856885,-91.44329763181418,-58.22000116461862,-30.116162439686946,-35.96105475888271,-40.62946027119938,20.446334516991783
0.196,-54.43898458752591,-49.80729495477601,-93.65334420319391,-61.07090747033169,-33.471247440209936,-38.87418819603511,-44.03533359707603,17.618738881511717
0.2,-54.61004969707426,-51.757916762615196,-94.66628008800285,-62.802038924926705,-35.68520120676794,-40.28129069849376,-46.49113086120633,15.784186767144547
0.20400000000000001,-53.3617119748622,-52.23972854083706,-93.75639124705367,-62.90679324994835,-36.1120506928865,-39.94735756333398,-47.56622357486526,15.23358250441629
0.20800000000000002,-51.3285622380792,-51.409579252726644,-91.11511266521904,-61.78834289901124,-35.029114333035636,-38.478892378873184,-47.48091618087881,15.677576435682909
0.212,-49.75362663694693,-50.08328945632951,-87.76794881219621,-60.51310024128702,-33.45117836879251,-36.96463772482775,-46.99264046451049,16.33461947564126
0.216,-49.88735175344203,-49.32425351776794,-85.19075659031591,-60.266490784761686,-32.62328596907446,-36.39448073456799,-47.04338028769894,16.29523911699505
0.22,-52.31710855871546,-49.863164869298316,-84.6260173213858,-61.706065562599576,-33.37976239661464,-37.112374607053994,-48.2306669752536,14.970242468484003
0.224,-56.5751470584018,-51.65342168540121,-86.40663016947963,-64.5492246594522,-35.69193212203584,-38.595744418912545,-50.375770328435124,12.404903989831155
0.228,-61.26585825417203,-53.834809013974564,-89.67720573151644,-67.66133645724335,-38.66592253592239,-39.72522262892835,-52.48942155411055,9.261162586663659
0.232,-64.69376449513999,-55.16840432860545,-92.75550264409219,-69.64304821267251,-41.011974762969885,-39.43195843229819,-53.23754460587804,6.479746586149304
0.23600000000000002,-65.64231355289502,-54.70127601995989,-93.92543330941317,-69.56069659109471,-41.707622166004626,-37.340352241559,-51.66552668099416,4.8124495744224305
0.24,-63.8935998369422,-52.284587155872714,-92.24575854114096,-67.40089543618262,-40.48512472806442,-34.037049742754334,-47.779412995640314,4.462854975781511
0.244,-60.31544559514185,-48.716295456005014,-88.08782426019548,-64.0840745128661,-37.940231345822895,-30.851421541231048,-42.70369814549326,5.031964153099693
0.248,-56.41140815791897,-45.35149342657223,-82.98194743894055,-60.96101175298645,-35.166302267872425,-29.194922562814554,-38.21501507218579,5.778227307238694
0.252,-53.5396066594252,-43.354163146245014,-78.77475636261772,-59.038079717879896,-33.1041949952064,-29.78912343656407,-35.83313111747293,6.037015479410002
0.256,-52.26435405836179,-43.04383676724831,-76.63137845071265,-58.428595545579924,-32.018652154398865,-32.23512765736746,-36.00282593639224,5.579243097929975
0.26,-52.193676111544676,-43.734319642900914,-76.49314531988364,-58.37975963829092,-31.428633283449358,-35.186598412100466,-37.868744922727956,4.7137627690732415
0.264,-52.37772187277386,-44.18356811537103,-77.31920290869004,-57.87003298361492,-30.532345954032508,-37.062643076444374,-39.80642913171755,4.099805096196178
0.268,-51.9285448598074,-43.314636682924856,-77.78699018562725,-56.30809968373899,-28.77105666527291,-36.849207166463884,-40.325960200437066,4.382425283348766
0.272,-50.44317909743273,-40.747932158143385,-76.9427444082246,-53.843922756280676,-26.14639808149343,-34.524431806945586,-38.79053123437609,5.848340992922317
0.276,-48.07666916957521,-36.90254241415755,-74.52570717883964,-51.16713874921038,-23.14873069778446,-30.939855778599167,-35.59960020272115,8.286190020198774
0.28,-45.346033721280776,-32.696493288636134,-70.91870482800084,-49.005229166406934,-20.409470359049692,-27.30605113716183,-31.820060564017467,11.10173682817981
0.28400000000000003,-42.872412670916674,-29.090535560574267,-66.89858678224255,-47.70576071272046,-18.36362006794741,-24.62651165545458,-28.55871970082751,13.60702902746334
0.28800000000000003,-41.14425256601157,-26.67926479013056,-63.25843379624007,-47.09139216149822,-17.085680450910218,-23.318038764190987,-26.40308198317382,15.31645868226451
0.292,-40.34184360886951,-25.486934338188462,-60.43216754493028,-46.60242715036998,-16.344650491175344,-23.13990322305517,-25.19560824959717,16.09598094330022
0.296,-40.30981532704163,-25.07582939062445,-58.36988187483439,-45.66282882989253,-15.842324208827108,-23.43660905894808,-24.277985219133143,16.114997120105727
0.3,-40.66912116661763,-24.880818627807344,-56.72953114809832,-44.052395590035644,-15.467901535242277,-23.530788742183177,-23.037653848223954,15.667669968258224
0.304,-41.02190834775513,-24.583061859769487,-55.278052497755084,-42.0885727637293,-15.407640361871017,-23.078148394796926,-21.416582748162,14.994542273088427
0.308,-41.07741275836145,-24.25361242654617,-54.11724473885204,-40.43770294194576,-15.985448952374782,-22.164391817033675,-20.003815758330802,14.200378900550504
0.312,-40.623071716764116,-24.174919384828513,-53.51895165964254,-39.63707817919419,-17.314571178161373,-21.11558622799089,-19.61180041042803,13.290246391680284
0.316,-39.4599940646649,-24.521618963313472,-53.568183391456614,-39.67292317414683,-19.032594468639672,-20.20707202552171,-20.64531807999856,12.286553181676254
0.32,-37.4327455111312,-25.161623277428248,-53.953664988830496,-39.93289621599229,-20.363589401097784,-19.49305379133216,-22.71958145419626,11.323870273891316
0.324,-34.5956974334531,-25.731120761983448,-54.14340204804762,-39.61494788038476,-20.533421485372287,-18.87473191318213,-24.810809132844724,10.647186884725215
0.328,-31.32904887254506,-25.862446874166494,-53.73153987642718,-38.253149198781784,-19.237162017037235,-18.26910761416184,-25.796984705016257,10.50684965326036
0.332,-28.250911759953397,-25.369677195297186,-52.6627238276717,-35.98735186608201,-16.838611652699456,-17.714325677758097,-25.023363444047163,11.003645382989134
0.336,-25.966282642159513,-24.299624454764967,-51.23418456533659,-33.45221458102094,-14.184172735531547,-17.348004109185467,-22.596532215860634,11.994899922940476
0.34,-24.789930788734864,-22.860173213641588,-49.900875610136836,-31.380858976889385,-12.149232762528982,-17.278483761923553,-19.27315689871898,13.13417124495345
0.34400000000000003,-24.644619211344775,-21.34764438341051,-49.078037264104296,-30.22738824253088,-11.22402243747274,-17.491305657667,-16.07604027534876,14.032187630355565
0.34800000000000003,-25.13034422313899,-20.08174609730804,-48.961002930145696,-29.969026129687222,-11.331012418460432,-17.818401028061317,-13.826688546496598,14.442149236049318
0.352,-25.683663719221613,-19.330809856197675,-49.388168283398045,-30.13601244025051,-11.93331015301203,-17.962343939663924,-12.810230829468082,14.358885269261009
0.356,-25.799140007940764,-19.274534417271866,-49.89951086661267,-30.077766511981054,-12.385600564716242,-17.606067799104267,-12.77480208125803,13.972297239218506
0.36,-25.242349602804097,-20.002942649648958,-50.01009125996279,-29.336658076514595,-12.3353565970001,-16.575004187119703,-13.24143384839158,13.499680968164512
0.364,-24.1833668959722,-21.534215313892787,-49.58818569081882,-27.943705560291164,-11.955394310500878,-14.989114356529171,-13.919001849720644,13.013277118786846
0.368,-23.106123396504813,-23.758290957592067,-48.98343908538095,-26.388510926022263,-11.810992710699793,-13.26469326740812,-14.887706353723615,12.384229857787432
0.372,-22.49826828773689,-26.322005929948773,-48.7508117876921,-25.258875137571636,-12.427353703865265,-11.933610369658709,-16.41002023645501,11.383402246845662
0.376,-22.526424568403513,-28.603469014136863,-49.1938745680377,-24.816578285775904,-13.853674147726224,-11.393384983015721,-18.54932366510957,9.894606233073091
0.38,-22.91870912018419,-29.880992889382696,-50.05996819194229,-24.809285402454407,-15.518519461305914,-11.730829702652954,-20.901825189576357,8.102048313681507
0.384,-23.166400035907714,-29.69194361690029,-50.680386091035416,-24.679045296202958,-16.524363830814536,-12.727928423633784,-22.697152287289327,6.511777736947806
0.388,-22.867298784942932,-28.137406789114152,-50.38609129306883,-23.96378479760233,-16.172357344652482,-13.986851223935673,-23.18538138780991,5.751092434424663
0.392,-21.97001510020391,-25.896210233726833,-48.881136878582765,-22.594905192145916,-14.373586771027703,-15.07174123067557,-22.046496498922806,6.22753340988811
0.396,-20.80262805390953,-23.925462866487578,-46.406033953355745,-20.931884762120717,-11.729906159815755,-15.625463205236429,-19.595142008943185,7.849421074509337
0.4,-19.893461689928472,-23.004448095973203,-43.62696872522383,-19.54144111261894,-9.255334641398122,-15.449457608681314,-16.668529000043236,9.987352790793011
0.404,-19.714595129081545,-23.39009182655559,-41.37590537969686,-18.90315974635928,-7.914425137617627,-14.563934871799574,-14.278645054055687,11.740710065533676
0.40800000000000003,-20.423625069586706,-24.710404055102458,-40.27522056325779,-19.152595295229958,-8.170597416229612,-13.185434578727836,-13.149636756092377,12.398453298059167
0.41200000000000003,-21.706428965222244,-26.122928537643133,-40.38161624966733,-19.96952521577532,-9.748420059128193,-11.616778054815313,-13.348770838384326,11.838552085836454
0.41600000000000004,-22.8631384468988,-26.707583330741386,-41.11163139263772,-20.714070386609592,-11.753114961780739,-10.125085995285644,-14.245434104881497,10.630770466883632
0.42,-23.1268895681128,-25.91204214280333,-41.526653291982484,-20.747630082926207,-13.089919442129258,-8.86609003550393,-14.82933907829647,9.768452737880125
0.424,-22.08909776336361,-23.84648126203888,-40.895099379179555,-19.797471607810394,-13.003538582068586,-7.904526670492487,-14.263265000101228,10.157867730882117
0.428,-19.96446807487871,-21.238586572249005,-39.12591387775569,-18.11803641859774,-11.431648503182714,-7.279520568852604,-12.330778978902117,12.123597116921474
0.432,-17.482197497432026,-19.03082672612686,-36.745288394499084,-16.30764129891145,-8.968503331156171,-7.035423635064944,-9.50902226178755,15.200767089757392
0.436,-15.489794073559665,-17.869955362149312,-34.49817134599016,-14.94009234615487,-6.511136969782001,-7.218248938469969,-6.688602355631247,18.333317834468744
0.44,-14.519390723696006,-17.793063836018064,-32.862102486768435,-14.269599317621214,-4.813052629335971,-7.863753320379601,-4.733162855930686,20.371345561707585
0.444,-14.587616885452576,-18.304610536538803,-31.833830828742293,-14.21621250440603,-4.199874652067592,-9.004459717496047,-4.137831687211474,20.609063848721462
0.448,-15.273439959902817,-18.73108014341915,-31.017399054815314,-14.544785706625362,-4.522091931592968,-10.636464808538221,-4.882668986914041,19.08108270613843
0.452,-15.97098503124164,-18.596949339892717,-29.883250774228827,-15.046713535665049,-5.297539865756789,-12.633625572860637,-6.477180646472107,16.476546831459473
0.456,-16.202899981772816,-17.836671850964194,-28.08722372036982,-15.615063287026715,-5.961160561131919,-14.681406545037134,-8.165881026010084,13.756134995685215
0.46,-15.836316076945195,-16.751491898273116,-25.67922705271576,-16.179568895924604,-6.103790146285519,-16.295108350605915,-9.209559017126367,11.701186110783055
0.464,-15.126009037868357,-15.792799530233196,-23.149521338202703,-16.608387511057117,-5.629401191401939,-16.975422836789676,-9.165598837706284,10.637481450534324
0.468,-14.523091717003126,-15.270419558249387,-21.19045832028428,-16.62600205827266,-4.730641101795982,-16.400416949386454,-8.018550681244278,10.451996162959858
0.47200000000000003,-14.330904197458608,-15.13195556711662,-20.25326844547999,-15.817978764985355,-3.7080221719629662,-14.549109287300325,-6.104339768939553,10.816380113076093
0.47600000000000003,-14.47556730918177,-14.989751755205361,-20.230009267470905,-13.816939323555971,-2.7863578436604257,-11.733633176874719,-3.9243830573086598,11.437253288753027
0.48,-14.555901942063542,-14.391862643413106,-20.487158625261372,-10.601910099269844,-2.045930594378433,-8.523790786426162,-1.9562273441829348,12.178257962024645
0.484,-14.175905613219584,-13.199585134088238,-20.312669397702166,-6.764349243540892,-1.5199420727653887,-5.6174375240207155,-0.5633369833624329,13.008596561034665
0.488,-13.309544229409312,-11.795092346377942,-19.437872476620214,-3.478621230319959,-1.3356563037116302,-3.6673389984757705,0.03301366340951972,13.859958448264024
0.492,-12.397670432617815,-10.933446018231052,-18.242624167686927,-2.065614335071814,-1.7413860838125856,-3.0856697146864462,-0.2124758052245852,14.526571208344421
0.496,-12.119371033187463,-11.32397040162482,-17.54253575829216,-3.3579564353424303,-2.9849673084013375,-3.9167041894120302,-1.15648033849061,14.70401344701736
0.5,-12.948943464687886,-13.164523439606114,-18.06837202445081,-7.1870443644631905,-5.08878329624099,-5.821224960302516,-2.4826102576494122,14.16203657876531
0.504,-14.80601537402697,-15.94713781129451,-20.01346672559862,-12.347123328257794,-7.700026713217767,-8.218407856968952,-3.7925478613133237,12.916750160550464
0.508,-16.987771213722112,-18.63646335474789,-22.84890908674174,-17.046689318764038,-10.111790590242435,-10.482578602461672,-4.724966293893203,11.261813729224514
0.512,-18.42283733686145,-20.113925278772626,-25.47042526446603,-19.615986609258698,-11.472855287947368,-12.097034582893684,-5.032434031054663,9.612576154028602
0.516,-18.168806889486177,-19.6939927993335,-26.673390695491435,-19.176893405332976,-11.141833896896742,-12.745275896150588,-4.61988703516613,8.26345665855979
0.52,-15.908685103827338,-17.462843020750256,-25.736899059899088,-15.976591486313964,-9.0335769163039,-12.338881624814121,-3.564575884842043,7.221037471874524
0.524,-12.204696323019107,-14.28653875663042,-22.870285001297134,-11.277292351448068,-5.789956696972922,-11.0291947045896,-2.145924515261868,6.233868995074772
0.528,-8.301285920540863,-11.434110278810294,-19.190267534788518,-6.805518587222423,-2.601415830669339,-9.166311257454481,-0.801244538191213,5.014553683640543
0.532,-5.5084307842255384,-9.94937539216005,-16.137301615927527,-3.9735252025170666,-0.6800086020225535,-7.177400031806883,0.047112376621271324,3.5185500682348447
0.536,-4.518460142192453,-10.117952923354324,-14.687097054463948,-3.2756467241131304,-0.6495223304086721,-5.422726983934126,0.20439224770620967,2.0876215403484366
0.54,-5.051667327343921,-11.323860990176286,-14.812250043801214,-4.149747942459271,-2.189474504421696,-4.088675600295801,-0.16154264454371514,1.3383650814860175
0.544,-6.069535143006419,-12.398628233088289,-15.55736760388072,-5.384806766219526,-4.169428097383843,-3.1826911059054055,-0.5840849076159884,1.8422066511482171
0.548,-6.414631230028931,-12.250217098462258,-15.627281572429183,-5.802037852738977,-5.215633083868397,-2.61196085629399,-0.5311488592278693,3.762980050732267
0.552,-5.478730975667872,-10.407837832509358,-14.10326964794558,-4.822549686739194,-4.41075276856327,-2.276154197853657,0.3292995688248084,6.661925978374256
0.556,-3.5458532551705275,-7.219813198182237,-10.928309227761929,-2.6829620348124763,-1.771715165104979,-2.1433694198699413,1.94694645056029,9.611582495736684
0.56,-1.6348250731896314,-3.6349553187710626,-6.928567593739672,-0.24867808718477136,1.7394731464589768,-2.2809169049851334,3.877570152571252,11.574902379317791
0.5640000000000001,-0.9652803403673715,-0.7281752149299336,-3.43568943399805,1.4039613012203063,4.659878046407812,-2.8415269798069858,5.438403170736137,11.86441669981491
0.5680000000000001,-2.3111189347266645,0.7992229379029823,-1.6598109718938758,1.4552093080218356,5.729153382046206,-3.975532804493241,6.007707391560643,10.442846037900154
0.5720000000000001,-5.549007057228209,0.9233356655267926,-2.087876496246281,-0.30458713733560216,4.514139444899456,-5.679216966462036,5.351226005298031,7.9141847737048465
0.5760000000000001,-9.681292648553494,0.2317768964081779,-4.271457159548845,-3.407301656027471,1.5998068426573582,-7.694836401926295,3.767710887407702,5.220734595646491
0.58,-13.309640757066404,-0.44775909990073615,-7.102197699156477,-6.913415724792685,-1.7503387733697764,-9.52234253070037,1.950688144446758,3.2149544082487864
0.584,-15.338458680617919,-0.5398812281874825,-9.465142229858884,-9.820709260727881,-4.30063519539317,-10.589768945300875,0.599529224949265,2.330373876698104
0.588,-15.501011356415688,-0.04044931038913546,-10.841126036447577,-11.45705465705862,-5.499230518353897,-10.50311086312854,0.016384816579602557,2.481720369998584
0.592,-14.392847842123729,0.5420385070679004,-11.456270641989704,-11.650883477686989,-5.690608699518066,-9.220915585257671,-0.04035849345427778,3.211050147546075
0.596,-13.03834420088026,0.5609921046747104,-11.961250093208719,-10.668536547926692,-5.792910955934303,-7.068868715085728,-0.16354758432134986,3.9719713581889664
0.6,-12.273141308242657,-0.319858449652088,-12.87521463735743,-9.015133503385414,-6.657359396151264,-4.600942560475914,-0.8808996306620429,4.37572840060011
0.604,-12.317674238997256,-1.887917984444698,-14.20230886987963,-7.242046520924077,-8.509310110030356,-2.391833044617897,-2.2867938031770336,4.302009365695085
0.608,-12.734305637572561,-3.4545456830823014,-15.402146227392564,-5.796628284962253,-10.771219746356564,-0.8307474598084355,-3.916726399279014,3.858452687891713
0.612,-12.730152350101775,-4.1722256824839405,-15.665052387676951,-4.913820655967811,-12.337846877372954,0.009902908061121707,-4.921745944144959,3.253124491129711
0.616,-11.634317711465826,-3.4432773369265988,-14.35792475083133,-4.586140829860938,-12.159793655172507,0.3563797234676258,-4.480320499128538,2.687097911816636
0.62,-9.286335600266398,-1.2060203447937283,-11.384837927087915,-4.610813189529608,-9.812773012937214,0.5821463039685568,-2.2331541361305653,2.3180328621433546
0.624,-6.184753852826816,1.9953237725808322,-7.32294885671547,-4.74153346602418,-5.7718964498373,0.9702930607652434,1.4638276010189202,2.280520369134365
0.628,-3.305255789849525,5.205430364699282,-3.2167850612538587,-4.843665244285148,-1.2286584036564818,1.5347670742369246,5.626250156224614,2.694880071182979
0.632,-1.6509734650125552,7.460315585159378,-0.0886656057205073,-4.941179549985691,2.4611648325260376,2.016587209383033,9.057804626995562,3.6144064734195354
0.636,-1.7927243446163175,8.182266028364552,1.5272572415424293,-5.165920064478314,4.384390363953798,2.0321303558614545,10.869787196615903,4.935040481208034
0.64,-3.610171652874385,7.395396940807814,1.7855939971366297,-5.627468114812359,4.425884030416114,1.3078253977505483,10.843569058281105,6.34222598729491
0.644,-6.364293144462408,5.662399203706741,1.3278883183779726,-6.309979197390476,3.19834042464322,-0.14187202390826315,9.449673830947859,7.382682979790275
0.648,-9.018006859546233,3.818855436509466,0.8708968502359085,-7.027681417866688,1.6580270323968307,-1.9620593905899568,7.583039843895222,7.666414976353735
0.652,-10.607006326039937,2.6701703338181915,0.8866028858990376,-7.432689491323686,0.6686181591909417,-3.5316641376296047,6.201799006368219,7.1094245639663995
0.656,-10.546408742065012,2.7382525220684784,1.4828821184148637,-7.132295543709688,0.7002816949955104,-4.169112895411217,6.006045257428013,6.063005828706878
0.66,-8.807765827517073,4.10597092307205,2.4704127908020155,-5.899333754126019,1.7361125650780878,-3.4128345087367506,7.23084647079304,5.189674194543613
0.664,-5.966189444437248,6.347148349829126,3.4466353159637038,-3.9180811154908497,3.3219821959024785,-1.2957277524467372,9.541716378450928,5.102486068413441
0.668,-3.0828992117811254,8.571444533785211,3.8497012064452747,-1.8945194107553789,4.68284834963049,1.529645841987076,12.043303882097575,5.9210036482459145
0.672,-1.407425292430105,9.62830465216291,3.0315213450686542,-0.896739534468793,4.878938459706774,3.924095649273113,13.445285399723275,6.994046635896325
0.676,-1.9744084322653066,8.443317801329897,0.3702542593423459,-1.964234991200783,3.006415849666382,4.6369233160867225,12.386458422340525,7.019159962745448
0.68,-5.20175004963744,4.412166483829935,-4.51317739570743,-5.6289310129564,-1.533238484302501,2.8055596562376195,7.898318752530486,4.587112896209646
0.684,-10.67996741130338,-2.3120583518913236,-11.5255404205368,-11.614174445226809,-8.752288206456683,-1.6531792684822904,-0.1469360390510701,-1.0602047515319555
0.6880000000000001,-17.228512481837924,-10.727525575016273,-19.90183717844957,-18.834081040506476,-17.849379784924167,-7.907108098489402,-10.754592105433971,-9.423067374710854
0.6920000000000001,-23.185467563440227,-19.125895663290976,-28.125835756980905,-25.67196719231879,-27.16257222268382,-14.388301312847489,-21.837758617290547,-18.64597451526049
0.6960000000000001,-26.88199017369243,-25.495030067353127,-34.16537423893965,-30.45957056454506,-34.463531313283056,-19.27712797857896,-30.683288030075005,-26.05546860777929
0.7000000000000001,-27.149972007610245,-28.082299699819146,-36.03434762792165,-31.96496060891093,-37.58806336075543,-21.111055617698185,-34.769810994187765,-29.156211062764214
0.704,-23.719276952026178,-25.966587163412214,-32.57278234416867,-29.751641646702865,-35.22993467079664,-19.304173628729473,-32.68244483905869,-26.65318200179354
0.708,-17.317261700997562,-19.39728972301282,-24.05191218986033,-24.25812462955537,-27.53045952948139,-14.339463644785724,-24.695901972710317,-19.020107175424982
0.712,-9.404313271404305,-9.735231749201375,-12.218706962402962,-16.56942248691388,-16.13105841293725,-7.535476250411193,-12.711960254306632,-8.343648206696798
0.716,-1.6857445329171128,0.9646779009250395,0.2541273379215454,-8.042270560660654,-3.6291926899144755,-0.5171830319585524,0.4287272847456052,2.496905522607449
0.72,4.410435775474298,10.576665643059698,10.710745099951055,0.05598544036519115,7.35295631145334,5.372871493518005,11.968106803629667,10.93661474463056
0.724,8.064411874291409,17.47732005859649,17.383924921713742,6.747841479394424,15.056989446312627,9.445140623163297,20.109595424264853,15.633244394874055
0.728,9.134195535307981,20.89723731322823,19.851370040860843,11.397803430943497,19.04647172875275,11.693419269502215,24.39791691057303,16.781389375526373
0.732,8.042355727955453,20.999894000167274,18.97018983899727,13.728480380264557,20.087396509707105,12.565383977589704,25.525705421599355,15.744707361126757
0.736,5.560903297597918,18.687389450478747,16.340088008368753,13.836853507188835,19.551635993767036,12.622677751713695,24.733089366917284,14.2506672710673
0.74,2.5895486579306635,15.235722514755082,13.583483764219068,12.204739527692197,18.673268439066305,12.27848870675814,23.14564838674096,13.553221778395937
0.744,-0.05319269072987254,11.857506007296422,11.70936830906669,9.613585095357507,18.006031756816014,11.692320484876632,21.33535461203246,13.946949754938487
0.748,-1.7835490831099605,9.348006007237814,10.8449151674414,6.953190751169814,17.32694547281153,10.833295145900593,19.283412977358694,14.807638824197966
0.752,-2.33195917325628,7.927982112524035,10.42183155885698,4.975948678032182,15.975796280520058,9.63579678245037,16.68753342772368,15.059351112288027
0.756,-1.7641632429221659,7.29795137210391,9.627729656827341,4.070365931411402,13.38111716310084,8.135848816273665,13.360952097480094,13.800616210847465
0.76,-0.431105703978119,6.869608943916944,7.8812407069194705,4.173702978690756,9.472077474261596,6.519831456422253,9.47990755362639,10.782803118539164
0.764,1.1216921095478938,6.048153866611585,5.056667675302037,4.840545273098201,4.740263780343696,5.050371276667761,5.535317140490861,6.542344157486468
0.768,2.305052451991685,4.481652722190518,1.4434506459507475,5.467536084752055,-0.020714417429132936,3.953301975086333,2.07829162720941,2.164097847410744
0.772,2.700553775114031,2.219729563221051,-2.4133187982122877,5.608511518699913,-4.08335652130171,3.3608226568827604,-0.5269587103115327,-1.1796855115649123
0.776,2.2361858504452528,-0.2935294753743847,-5.907035327416111,5.198959125782665,-7.051766426742574,3.3091813394955807,-2.208983586002546,-2.6939645935565295
0.78,1.241089301899848,-2.378039197523833,-8.499058237671875,4.582072161598603,-8.8877853109895,3.7698949683538103,-3.109662506444124,-2.238462563290568
0.784,0.30196066994216153,-3.385102490126485,-9.822340803775944,4.29669827459287,-9.74426868338304,4.650765627260398,-3.4247183853237857,-0.30652691777083874
0.788,-0.01283038770813505,-2.9495025224986193,-9.742919657995344,4.768420698656257,-9.739070377605572,5.767790177083498,-3.2674720287988066,2.25613650804155
0.792,0.5960753428068983,-1.0966989158684441,-8.334227052491542,6.099765599631269,-8.798238789634752,6.845771163708946,-2.6139437536256764,4.65113246320152
0.796,2.035225516031261,1.8133270843488276,-5.813859100294053,8.045699137201666,-6.674233860313393,7.5704225385917425,-1.3523362401872419,6.4726065683966
0.8,3.879448758317409,5.244279225355797,-2.4533959531092933,10.164049791385366,-3.1239354127629326,7.686524370876327,0.6144626156508934,7.826746940816292
0.804,5.535133417696187,8.605371187530238,1.4264154912657432,11.974856754236555,1.8214518866931257,7.0612486777420145,3.23202795892297,9.160273956373658
0.808,6.436804480706428,11.306070339813232,5.414899696246721,13.059442998796214,7.660866489185025,5.696514055385023,6.212244751280764,10.896820862753259
0.812,6.234315617313143,12.802788615185136,9.021096167578548,13.117190553727426,13.453525363983772,3.709772286461998,9.076366151028708,13.080360996822549
0.8160000000000001,4.886329564402644,12.666619157316916,11.7188312640385,11.990818240792237,18.064705502029426,1.287311213387511,11.28175335604567,15.232126462245333
0.8200000000000001,2.6572317111318,10.717563000099858,13.065694869119227,9.72657853773859,20.548909053360205,-1.3303334951184524,12.392379838707996,16.5273434264098
0.8240000000000001,-0.0005588957927784577,7.163661887341618,12.819023883277339,6.630330726506429,20.485510565600407,-3.8489029451437773,12.207857975037541,16.229607063977426
0.8280000000000001,-2.596591395827403,2.663347964674756,11.022761794551855,3.2825178160517794,18.12249234121981,-5.913314399078331,10.805612737145964,14.141045639045103
0.8320000000000001,-4.700576861326681,-1.7706687121566347,8.059339482251744,0.47223145571592795,14.283298811403654,-7.120216340201978,8.509530966519321,10.798788939937708
0.836,-6.007640260296739,-5.067466519301206,4.583423686298374,-1.021703544924776,10.05521308926592,-7.115211477215894,5.781038879039841,7.274022515825095
0.84,-6.373718048077222,-6.496702247738199,1.336323736553311,-0.7373308361136424,6.3846336231549685,-5.756254973029513,3.0658347416566016,4.640083219408098
0.844,-5.8572329342444505,-6.016044850401386,-1.1581572394760542,1.1891052747789104,3.725239109783672,-3.284001448545723,0.6340715864417916,3.397257826494979
0.848,-4.743655472817011,-4.352490744477507,-2.8432126974846597,3.956425739264148,1.9086171226746842,-0.3660202424043746,-1.49734810666871,3.1936397239072107
0.852,-3.474783239301047,-2.69350585408705,-4.125804119715838,6.377089195680071,0.324432065620158,2.0952395705519393,-3.4825344630277755,3.025535324182954
0.856,-2.5048491082587248,-2.1269575441895654,-5.616929528736193,7.380466686168063,-1.6828954251590744,3.318087890240463,-5.449972255165903,1.832954031157385
0.86,-2.125292434360489,-3.099604778484917,-7.71247520953591,6.503034281128862,-4.389112426195538,2.9955090702770804,-7.2985728474803295,-0.8503569263968416
0.864,-2.356884725392831,-5.209274051045952,-10.291454026944791,4.07168041892578,-7.476453046323854,1.4351780782417336,-8.635409173595917,-4.560278294546606
0.868,-2.957743584190041,-7.439793028833208,-12.701340076657686,0.9863880573751089,-10.140356834667898,-0.6029272941194677,-8.924019939616812,-8.091894457642297
0.872,-3.5513111080236968,-8.709690340249097,-14.03691585783406,-1.768445753039714,-11.452405711029314,-2.2980051234466714,-7.771318373450583,-10.132836998840332
0.876,-3.833671210321029,-8.452472663648138,-13.606219873353382,-3.6242751476560215,-10.815512852745144,-3.1832692449851834,-5.215738214722421,-9.97674569790422
0.88,-3.7335023849113043,-6.894739509042154,-11.305289876371148,-4.636429464873686,-8.267623728240437,-3.3239316465250113,-1.8388879561452995,-7.9067777918440925
0.884,-3.4808086058286563,-4.917392593527296,-7.745230441631634,-5.335846737454062,-4.5085442084787815,-3.190584501669605,1.3665896803277633,-5.032692931475708
0.888,-3.5212014526297537,-3.5793643521117247,-4.029854214725049,-6.318470951139801,-0.6278587983385933,-3.2977688513608996,3.3472467210874015,-2.6827111661795016
0.892,-4.275783539005886,-3.5513316673965107,-1.2415575220840651,-7.804635638811192,2.3471001603229524,-3.820112216070413,3.4307121266960507,-1.7167515675799336
0.896,-5.882808049841884,-4.79109003123088,0.05596450448479118,-9.462140746065074,3.83563678160192,-4.447406531845388,1.6202440788902663,-2.1564807666234174
0.9,-8.054545934357208,-6.61564936650916,0.052539566055656906,-10.584221671958062,3.8560305890047175,-4.571656580688796,-1.4024913032686186,-3.3274816812473773
0.904,-10.159229134728207,-8.126703898818391,-0.5129353293976919,-10.539339487397797,2.8787399964171527,-3.7151111868828366,-4.604118802080848,-4.393280940750003
0.908,-11.494333768323912,-8.728239732664292,-0.8623178334827344,-9.201269062543815,1.490848890907273,-1.9162826824011745,-7.084662842939906,-4.924402634248736
0.912,-11.604153535889736,-8.428686004966437,-0.6645182655103099,-7.075603437330187,0.07832415699198236,0.19067056819631034,-8.464805214554588,-5.156516143635372
0.916,-10.485470132878277,-7.775145648984676,-0.23576014943586188,-5.047817570297525,-1.3186071879058545,1.6853685332246187,-8.99315130563184,-5.784171290599602
0.92,-8.569714023923382,-7.476042342652363,-0.31565809938410894,-3.8863154433808518,-2.921504351255635,1.908673908649007,-9.318712623466467,-7.448315867306292
0.924,-6.525729621646974,-7.976011975814458,-1.604512674213538,-3.827801686685916,-5.002273642681473,0.8959557591285829,-10.090760703470664,-10.249115320369128
0.928,-4.973256041843172,-9.219380419805475,-4.32380652231268,-4.479277821877531,-7.675898188521842,-0.5667923189575959,-11.598236663647867,-13.591011592516452
0.932,-4.229515980858764,-10.70254747575683,-8.022023748642596,-5.065325813127799,-10.789617571119948,-1.3162384334923445,-13.610127579467985,-16.456176187647998
0.936,-4.232880454266933,-11.783522848789062,-11.772274540186686,-4.898178254699474,-13.971470185939552,-0.44808345584101517,-15.509595580218502,-17.94341443677331
0.9400000000000001,-4.636237232023518,-12.037850051948226,-14.604379548928364,-3.7698328812874706,-16.77378557249574,2.1635556418850683,-16.61575282385502,-17.749925323921843
0.9440000000000001,-5.018897285456262,-11.473326059148121,-15.969141385032685,-2.0706972216009945,-18.836171405287587,5.734260203817257,-16.53373875717898,-16.30821047548625
0.9480000000000001,-5.086003517629365,-10.480425462464154,-15.956548369710731,-0.5685298300222712,-19.98002881161267,8.91893792853216,-15.339268734695906,-14.511183368161028
0.9520000000000001,-4.741231834072892,-9.553967912436974,-15.123378314450747,0.029634913302515997,-20.1968064939374,10.4774645462453,-13.496494397584456,-13.216521659319369
0.9560000000000001,-4.027773608952771,-8.965360645158285,-14.077282272276989,-0.5349445175323808,-19.57105875979562,9.893422565268793,-11.586239993484241,-12.814464453115988
0.96,-2.995979494022947,-8.55541696816806,-13.038677001268297,-1.9202920481644696,-18.17856902323979,7.642875242817354,-9.970773007772664,-13.0875610012788
0.964,-1.6393413869832898,-7.799488649571003,-11.706858283369229,-3.3764072462383865,-16.04530030448734,4.952887850791285,-8.610269401928235,-13.407428753901286
0.968,0.04936318359705183,-6.1147034611256,-9.513472131364551,-4.159755315406073,-13.184716306899873,3.1897076992131588,-7.1393986461337136,-13.125143010450302
0.972,1.9444135855777631,-3.240206713953853,-6.085105059210491,-3.9188404998430997,-9.674629524017973,3.206497064765699,-5.140025273660967,-11.935864925482974
0.976,3.685128924088417,0.5118776916290244,-1.6427620115857735,-2.8537158773390274,-5.731762640272223,4.965199705909981,-2.462142339371212,-10.027353324286878
0.98,4.750958419479275,4.316251297824465,2.9809130407804787,-1.5375671540144822,-1.7078260657492592,7.632406715754769,0.6200429334594446,-7.958901349152029
0.984,4.68168758528634,7.161806300361832,6.692720810870924,-0.5519916094747259,1.9728390580803534,10.038999578200674,3.4887464215169075,-6.37471384674177
0.988,3.349089234187659,8.307930119291086,8.686434434272087,-0.14211127925113942,4.923197472941297,11.254912777960271,5.468642073022693,-5.7074263442191295
0.992,1.1410939220722867,7.674405828212912,8.911595191797005,-0.05681264327017743,6.928931481507334,11.00662392599179,6.189101465601425,-6.003476826406768
0.996,-1.0948249893217508,5.937514939605194,8.13901773730413,0.3230017977659827,8.02448097937122,9.739457338925149,5.806920436394876,-6.922298096101713
1.0,-2.355505267743979,4.268432798578374,7.589116116699643,1.658926060395629,8.475949691620826,8.344696448545392,4.965405717436624,-7.89219904620245
1.004,-1.9470728332387353,3.7768981023200467,8.241763999169052,4.264251071328545,8.636771108535868,7.690399738276028,4.460154506709159,-8.340667003767066
1.008,0.11943176677164047,4.91361416405141,10.197839290119646,7.845541526712168,8.727137777569624,8.198302346167566,4.77578744042512,-7.912025111368621
1.012,3.0347245325915537,7.154668769278032,12.497314107627517,11.529522905992962,8.65642657681201,9.674850186630465,5.772328923893156,-6.611037751548338
1.016,5.486560436398804,9.153420680594309,13.51031001499041,14.165835983341367,7.993497941674832,11.445291187413886,6.702405980442109,-4.81675246240502
1.02,6.249749344284282,9.349242836609847,11.77469874844519,14.800745394778005,6.1524746702157245,12.711361742569807,6.606175141334461,-3.1528535051229483
1.024,4.768579697531322,6.743562005276658,6.808182537540915,13.081873055650703,2.708513069489527,12.926017001364016,4.8554691846861715,-2.244676854337513
1.028,1.4401691192604176,1.4559194595999543,-0.538385061144254,9.413581580410664,-2.303691265382895,12.010176783632687,1.5608714532922932,-2.4415512475736705
1.032,-2.5240157240111785,-5.224279432658477,-8.349478876885541,4.822949064776367,-8.252968383250163,10.336792129205605,-2.380657200501446,-3.6272936099185245
1.036,-5.608684434237034,-11.353992103474866,-14.439536964132913,0.5838228226557476,-14.044652044747863,8.501393126551193,-5.657865037288957,-5.217123155340687
1.04,-6.611339280247421,-15.162189278173628,-17.231438721978066,-2.2104351051561935,-18.46539291606223,7.044091243543335,-7.129408249671542,-6.3722833686369995
1.044,-5.110092479961281,-15.812762350668663,-16.34925852145693,-2.9906414477204635,-20.616407162666974,6.23754629445466,-6.346234241701495,-6.357604162560165
1.048,-1.5839175280721065,-13.720934108816891,-12.654621593211232,-1.8478232733543791,-20.222276568569214,6.029794852055147,-3.7368629456116196,-4.880500438187937
1.052,2.863089936537108,-10.2442064989566,-7.716212682618561,0.5965492951556826,-17.650067821027733,6.164109816155815,-0.33766978381618173,-2.2412160507396948
1.056,6.999837001161609,-6.934857352048766,-3.0410484957897097,3.4847325574780825,-13.651783006765072,6.368421766659139,2.7566862723019767,0.7861273805183373
1.06,9.966324371418636,-4.744703236019177,0.5711061288770907,6.067149372557651,-8.966596363574354,6.513615810238207,4.930187606195432,3.274457850637191
1.064,11.532470791847572,-3.624719796355066,3.1953086276130307,7.93046288859432,-4.029568950730436,6.641584573292221,6.249469418669378,4.517634343764712
1.068,12.03516990107505,-2.717612096939547,5.455844303975709,9.034640266250108,1.0634546657349802,6.86065747568864,7.243917374345074,4.280666039380776
1.072,12.094584842427821,-0.9953667269608104,7.976778735351218,9.605495324848334,6.354167710000411,7.208321304627589,8.43608354464368,2.8189564116150905
1.076,12.261626193159145,2.0310941337054373,10.906986174594294,9.948187696933019,11.721708055639056,7.572099779856671,9.911011963559758,0.6936802235845789
1.08,12.791094439356584,5.9690475346490075,13.832889337918004,10.31068874449511,16.717881713445422,7.748311152315182,11.222780137078189,-1.4855954233726152
1.084,13.585010211261988,9.729875047873293,16.034342596929946,10.806436609917455,20.634591002754405,7.578259670577609,11.669987901449076,-3.251042068773586
1.088,14.27848669820446,12.110823928524042,16.883529073828413,11.393705848549189,22.763814124593864,7.069372777174067,10.754111251134418,-4.325223072311928
1.092,14.421129164570175,12.447558868947908,16.17935491426124,11.918069470126284,22.71189440431135,6.427955026138079,8.551842375432443,-4.563217556406471
1.096,13.654929856295666,10.943872079993753,14.197262764486823,12.16270980328568,20.557732003338515,5.951455098280803,5.7441470938510975,-3.88918495380085
1.1,11.857599218034466,8.522478168811858,11.497543083781238,11.914987354296045,16.777315187095155,5.855787611568758,3.291858575900733,-2.3177703454548464
1.104,9.191517875917043,6.27940447375363,8.58993823056926,11.011846724973793,11.970781803196132,6.129196873943783,1.932493910896028,-0.04852655335662348
1.108,6.067469552956936,4.878032299841379,5.661891479984206,9.374287591492703,6.579574955056614,6.518374677655629,1.7936576224183227,2.461483016412785
1.112,3.035384955614063,4.23339059822365,2.543861376359928,7.038632718934878,0.7743457300175578,6.66576533275429,2.348456114601049,4.535829885134717
1.116,0.595045070397191,3.630869983661796,-1.1171526836164958,4.15745399043908,-5.436004212543139,6.310863150679779,2.718971454838538,5.472371451012805
1.12,-0.9705458144246677,2.222335820554008,-5.531619309668713,1.008183550020476,-11.920359258202552,5.466885965345227,2.1691968880040804,4.830933967092278
1.124,-1.6972952316650662,-0.420261871022376,-10.523384845178498,-2.0368223570039845,-18.18949250021069,4.4264759320853955,0.48308942099993146,2.665406246936982
1.1280000000000001,-1.9295302767602607,-4.021990578988152,-15.507294658221781,-4.585809605970098,-23.401622665322975,3.581245085086266,-1.9835151888564724,-0.44314145306179853
1.1320000000000001,-2.143866765836947,-7.698342476758853,-19.64893450568752,-6.29235488465747,-26.614690414378856,3.181864979540478,-4.5491843015488485,-3.594191884346401
1.1360000000000001,-2.67703811423371,-10.354169914693557,-22.137093878711312,-6.906628758903935,-27.16408410751683,3.1724155661931945,-6.577602333552477,-5.925249731931217
1.1400000000000001,-3.4684809727773427,-11.139754230608105,-22.398249272925568,-6.282970789425235,-24.94427017218277,3.223668085843201,-7.733167001286347,-6.954955621572935
1.1440000000000001,-4.005969648887913,-9.759216354226737,-20.231011697379927,-4.401101105572252,-20.459083333957096,2.929876480040548,-8.022068748909987,-6.745491955639409
1.1480000000000001,-3.552616995626522,-6.529005550298734,-15.861050891593095,-1.4225196756669902,-14.622359083063657,2.055472410611401,-7.661303852465608,-5.8117199222128875
1.1520000000000001,-1.559742021204329,-2.2053370797552816,-9.898619797882475,2.2607608047387657,-8.415542628977164,0.6989822417426694,-6.89032736078434,-4.834765185891683
1.156,1.9387939114560595,2.292138102426634,-3.23448116579857,6.02901222328228,-2.5925485146944993,-0.7318788526645221,-5.868703609268323,-4.329685896890169
1.16,6.2162982894321885,6.159250101090038,3.1670140042874664,9.169591731082164,2.4592698441906578,-1.691496235570412,-4.684885652217872,-4.433137916686519
1.164,10.096483280785833,8.888057844549166,8.495899945896781,11.093273818133639,6.655079164459039,-1.749253915261761,-3.4352100597716344,-4.900834803843281
1.168,12.453357565806073,10.333005378873622,12.283284696925875,11.543843080440183,10.034032126457078,-0.7936182645980807,-2.2625076755930422,-5.284356327878413
1.172,12.740658185918392,10.707015917937042,14.508555436805636,10.715436454632254,12.61589026557931,0.9268151216983824,-1.2859669958525046,-5.182590699948378
1.176,11.246692777443968,10.499731999034339,15.540647327901752,9.17919792287421,14.364194973442409,2.9102004322003268,-0.48417997361775633,-4.440761047488195
1.18,8.941729277217064,10.331005708780594,15.96470841245582,7.648880544255007,15.269364055111055,4.609270665960139,0.38698298088638694,-3.2105240613736896
1.184,6.9627833101317265,10.720134460850204,16.299890749737642,6.647589008449813,15.429027270742154,5.609738948557606,1.7082678018405204,-1.8615173247517305
1.188,6.006299333085735,11.835738382363616,16.72202628062496,6.241267822293594,15.031547255210171,5.718518134726764,3.746187654995083,-0.7963214646379129
1.192,5.975424894219032,13.355759415661396,16.967520186784895,6.002345689991671,14.238701017256517,4.966632292301256,6.400142124604827,-0.26581217626426223
1.196,6.057145237997247,14.521077364140638,16.445630139513923,5.215782037983445,13.022898087847807,3.546301843951369,9.115593649337825,-0.26186505767600465
1.2,5.22018665979158,14.439988206695944,14.568422237823142,3.2690652672054057,11.108466465546826,1.7674153428861246,11.092919557961068,-0.5318018540119738
1.204,2.8194655604979744,12.492080285017437,11.070760494897513,-0.016337485723852296,8.05595629653044,0.007989648857801512,11.673275011117767,-0.7103942378180363
1.208,-1.0473829540451334,8.620947026222439,6.133384047488107,-4.29990079537356,3.47055526344775,-1.3758019349452297,10.677049480183996,-0.5190373240056942
1.212,-5.585736563669343,3.3855557389119895,0.2990341248942059,-8.88543127798539,-2.734131479628104,-2.147045508840165,8.50323735164875,0.05276456169485755
1.216,-9.707279350480349,-2.2622052016713496,-5.763019465909565,-13.029880275762935,-10.148278814922378,-2.269626892452834,5.906749035460052,0.6830988456968043
1.22,-12.514603796756546,-7.32892216256505,-11.43359473405053,-16.181909029398412,-17.827192131638185,-1.905372723257642,3.5929411145389167,0.8088005798135782
1.224,-13.608393946034084,-11.07987400172351,-16.1854077500293,-18.04258273187861,-24.449906630084115,-1.317114625814611,1.858075268457469,-0.141569563406847
1.228,-13.099832524702833,-13.160187583589959,-19.521309391424438,-18.468411522326278,-28.645298512631598,-0.7252413301239358,0.48241687332483707,-2.4627986583000165
1.232,-11.380874990360098,-13.518197981475168,-20.90156243708043,-17.32975174345256,-29.38617745955071,-0.19167580636258208,-1.0598862221386298,-5.989521164422513
1.236,-8.860776267943947,-12.25475322112743,-19.818976686240603,-14.498025029402925,-26.33191711611198,0.3801566563779488,-3.21864930247375,-10.11307687903627
1.24,-5.822596379859533,-9.512483180562867,-15.996931804116684,-9.980398581659301,-19.97003097650304,1.142024728054821,-6.017348966600366,-14.003725101281816
1.244,-2.4886917138537683,-5.515399381057705,-9.667591025268848,-4.148891472385003,-11.52286176304915,2.1193858950646245,-8.973854408781335,-16.9434936280868
1.248,0.8010693864448513,-0.7137738485380396,-1.7489088255697425,2.1120467601513155,-2.6304882953736524,3.0726459501593126,-11.333754432304886,-18.60050085909097
1.252,3.5026709180438047,4.148349828604751,6.287800126578986,7.539989389724724,5.120407566261747,3.529170247403272,-12.45021341228221,-19.094469507485883
1.256,4.985825059884064,8.168379169394939,12.860461928226869,10.914477664955484,10.661821678270826,2.9968486224324806,-12.082005888411004,-18.804605338114925
1.26,4.85059449108212,10.632466491862033,16.898916228216876,11.60217050220308,13.747619232412944,1.2751500093963841,-10.409262372923877,-18.03903645757964
1.264,3.2197238596381794,11.369942023014573,18.274882091584004,9.891880504580513,14.9308229544813,-1.342568699925323,-7.823596621329671,-16.772620999667197
1.268,0.7675602714216438,10.859226719884646,17.755132127251272,6.865890106339975,15.18747134791738,-4.125860329070747,-4.6760280702483215,-14.628267394574323
1.272,-1.5567696477346544,9.984370295968802,16.511127324572954,3.844451729923094,15.359774539072532,-6.21726060504443,-1.1576238943462158,-11.1466654358901
1.276,-2.9930818796092353,9.523837678128075,15.427369054347764,1.6716285445463654,15.680652475037277,-7.0580151377116636,2.6038642539369903,-6.193344706944117
1.28,-3.333593955761444,9.68230143981782,14.65977918518547,0.28233694764003303,15.661506078111415,-6.662193666552412,6.3636497143224915,-0.25258494719491864
1.284,-2.9912532242765337,9.945129303669091,13.66886289973263,-1.2012705349243333,14.408964827041927,-5.594311131215363,9.66110251959799,5.605690541773583
1.288,-2.726430285079914,9.359935246312943,11.678153192195168,-3.8826258079443505,11.206779317655673,-4.662521918729908,11.918020019937103,10.120504307464216
1.292,-3.171442212371403,7.119364564379794,8.300944934573636,-8.315682087449204,6.067304703533409,-4.479216633502801,12.731015777017092,12.410746232899328
1.296,-4.4397696192881995,3.1024473965144352,3.9111071632023595,-14.00720449025539,-0.08041010813212779,-5.149725189625315,12.169029293553649,12.414410926570781
1.3,-6.025969828487632,-1.9371912900169264,-0.44445269358038786,-19.47746469206959,-5.691006608046337,-6.242705447888511,10.86519262782258,10.920492193545215
1.304,-7.065126970251185,-6.6688896982850565,-3.5722611614583,-22.889577908600586,-9.261766558664021,-7.056196895951871,9.780407785091484,9.167023094753858
1.308,-6.8077029199257595,-9.818285364541225,-4.797384873650117,-22.929812254234093,-10.016144027276823,-7.018426026668749,9.718875432524328,8.211740046566774
1.312,-5.011584810894419,-10.756281587636295,-4.317948992156744,-19.43421574333661,-8.220828851503029,-5.970000231543963,10.871795684560311,8.41044563988271
1.316,-2.0468538138798067,-9.71102405804777,-3.03351824537458,-13.434030641152276,-4.959635507208077,-4.189256397845384,12.666927146020498,9.29748520132489
1.32,1.3589127343075234,-7.46995766933469,-1.8924652635132588,-6.5807868879846865,-1.4691169853267638,-2.145446032307518,14.070629852177262,9.924302550019092
1.324,4.5460023994710355,-4.798324944805245,-1.2066602979984964,-0.32168899173302634,1.5595086754256045,-0.18154840297574992,14.161808104074225,9.447351987095317
1.328,7.237608298997657,-1.96830572194267,-0.4025863935257803,4.686005657886199,4.291131672999654,1.645113461470828,12.641271440225864,7.622690569322913
1.332,9.576881498965577,1.3128173033001076,1.6330890053122857,8.634092596735172,7.501185695027743,3.4816074720511097,9.995635724510976,4.923614083905704
1.336,11.873138564938017,5.521223928088148,5.770650111033319,12.097043516962003,11.912174899208367,5.415897471077187,7.212919629719181,2.2367869852878357
1.34,14.260935472503206,10.763206973898377,11.939623838451553,15.409149750088545,17.540075775808873,7.258198078672649,5.247290811500534,0.34321024964083335
1.344,16.467287716599913,16.400941864192646,18.92063822374712,18.265170709171798,23.43872700247357,8.52083125716672,4.536174774528263,-0.49073753837728873
1.348,17.830388644587856,21.124597129522954,24.770382004888233,19.77692522901998,28.01395459285959,8.63085271113232,4.8373580622801455,-0.5648301739765884
1.352,17.602183340361535,23.49064240968619,27.70790773923727,18.963501359095062,29.763535762485844,7.273973518522325,5.4822615573357325,-0.43418604835824226
1.356,15.341453819270555,22.60788042767126,26.937855887616024,15.329452244717686,28.00766479201411,4.615713002098346,5.836612836067616,-0.4719842294762202
1.36,11.206105415952607,18.60816699357565,23.00825674947555,9.20295099478426,23.225366936659157,1.2683889591098705,5.684659282142093,-0.6128957830078434
1.364,5.964205154712545,12.62016593111548,17.48512878780275,1.6272323699404296,16.80380869101282,-2.007658721788175,5.285102824924252,-0.4386264093409409
1.368,0.6920554274056485,6.234807626640759,12.116579725106021,-6.13142947214692,10.341759598181852,-4.708399616640236,5.0836881779978285,0.45424503967478813
1.372,-3.6603310874697854,0.780096834599135,8.000468562552669,-13.11704578527133,4.924696266826686,-6.830005788260678,5.305548917429405,2.0620140987557534
1.3760000000000001,-6.636278483349088,-3.2120425703933506,5.173002251825892,-18.956993600624628,0.7566140870803792,-8.815054721628258,5.705963616368535,3.83975841706706
1.3800000000000001,-8.362808120597037,-6.046431064038188,2.8565898926954105,-23.70592693378785,-2.6589463138279825,-11.200687983464377,5.691744182469847,4.931812411397914
1.3840000000000001,-9.349449830437152,-8.452586421798514,0.12933034202069393,-27.428709165421424,-5.95805622084481,-14.201726273755412,4.715834008344245,4.638095480524498
1.3880000000000001,-10.135528622092352,-11.009560311063979,-3.444077308056876,-29.862439060072575,-9.359368170512425,-17.518439308671077,2.6590662670278107,2.8183296721654187
1.3920000000000001,-10.951297483832604,-13.715803289169344,-7.538280748623947,-30.376129773086177,-12.422765515109859,-20.476708461537783,-0.03672387788719789,-0.019439759469605633
1.3960000000000001,-11.571883791050823,-15.940178742665012,-11.279562723091658,-28.2842993889426,-14.244417515961686,-22.417772581877216,-2.5899872253539797,-2.9897465071971965
1.4000000000000001,-11.400269009812291,-16.72418270801336,-13.709034166218771,-23.29131467706611,-13.919432913879064,-23.07522456726656,-4.290664571957677,-5.292050864085468
1.4040000000000001,-9.747088662456008,-15.247194479169593,-14.202207579633978,-15.784048158595397,-10.987001616225825,-22.69827674051703,-4.830574070538205,-6.557542231723346
1.408,-6.189857749015573,-11.215551242535184,-12.635615097104164,-6.799463234333416,-5.628675303060845,-21.847304470640665,-4.357399159896886,-6.8776520012979745
1.412,-0.8121446538443706,-4.978914985049414,-9.236986163743495,2.344126114538085,1.4648536003905974,-20.977064667975355,-3.220709649944183,-6.533138671205961
1.416,5.74589508320787,2.6028662912567597,-4.349575335529153,10.501763433804626,9.387950530624948,-20.113552470294962,-1.639828355566351,-5.6627825939249306
1.42,12.458943176556204,10.431825041579032,1.6997200941787014,16.99695046787383,17.266629855052088,-18.84791066789512,0.44548077536092023,-4.16509360379132
1.424,18.202728869795465,17.411710533503538,8.488657439569579,21.585243573314983,24.302808180518696,-16.69563304791518,3.1793936590038356,-1.9276191860881227
1.428,22.01440688938601,22.56494876882607,15.226548736243785,24.14231116595056,29.65236804143933,-13.617749183620617,6.3524065323381365,0.7691272046649829
1.432,23.261192753091564,25.07914159345546,20.617704982370924,24.353201943806198,32.33798307853431,-10.342120977022205,9.059064893004688,2.985104624163796
1.436,21.68696458685008,24.37214262656289,23.074165252237435,21.655168663676704,31.389044339230168,-8.22111091138504,9.784164461740147,3.2901203436431388
1.44,17.438250055938624,20.278943997507668,21.34834969057738,15.572710138243565,26.269808194678262,-8.590203304038369,7.047800507607462,0.39790893919416703
1.444,11.067649593767783,13.269032992291613,15.251111394396503,6.23403420930299,17.364664632739732,-11.971444742042877,0.3077151871602837,-6.038229202053117
1.448,3.491083057499054,4.523793893893526,6.008723056700546,-5.2786413575822735,6.194597629912096,-17.58213937666369,-9.399741235994952,-14.92844931732543
1.452,-4.0981579663184675,-4.229874579620628,-3.9819772897280927,-16.992983274041762,-4.840598752609367,-23.462524413496794,-19.498947955518815,-23.894629203186923
1.456,-10.42549172686995,-11.16492222157649,-12.004254960467733,-26.600636680437674,-13.207921702718522,-27.25289810052891,-26.726280640490586,-30.097133768580534
1.46,-14.39431193890141,-14.90311023099639,-16.049541640177267,-32.230079181697874,-17.144148104394844,-27.23215285490005,-28.423319505223844,-31.382377145197097
1.464,-15.34740374881676,-14.941967785953238,-15.543991353380989,-33.071380189932825,-16.28798922844362,-23.106227243826652,-23.654937146457087,-27.178910432965495
1.468,-13.265770601175973,-11.788704486212737,-11.46233976523763,-29.58053772855419,-11.742472225212623,-16.154889179990278,-13.622872890979124,-18.705717627408376
1.472,-8.769733167480808,-6.7066843459506345,-5.756942236032046,-23.14629166722807,-5.501929716667291,-8.634503093566309,-1.142985625891015,-8.39998189324433
1.476,-2.918654838983457,-1.2066475275969424,-0.4359271835455729,-15.429822268823045,0.46821373111743014,-2.75447183120923,10.542083390962944,1.1406669023963332
1.48,3.150085724717428,3.509770588405445,3.281804183996428,-7.695469186804985,5.057330360985361,0.2679538931370189,19.03786222065719,8.159029826028927
1.484,8.575346934480876,6.907278268919072,5.313570344875188,-0.4706944396129984,8.335152100848063,0.6054928249195655,23.547589003772373,12.225485388715242
1.488,12.966285758040613,9.140759944890306,6.44295362093726,6.345363292675756,11.247072617064987,-0.47283354170394887,24.796798834102447,14.06749578241579
1.492,16.383735710442124,10.79659985937542,7.690722174353141,13.08052258729549,14.894096858819466,-1.3672983993019443,24.294361532345647,14.924671331034915
1.496,19.132628173067133,12.49685598465021,9.688465378025285,19.85329219864252,19.789838113510996,-0.9572425083097187,23.395841438083153,15.833614851773746
1.5,21.53705078114399,14.591688671704105,12.435063406161134,26.38860427517102,25.51379345575151,0.9859804171792348,22.710154087031697,17.204922028964575
1.504,23.786708381000608,17.035925406092247,15.465415224056414,32.121834605644835,30.900649423903815,3.9081217828661465,22.08063948753079,18.82987172061621
1.508,25.88358555740888,19.442760513627945,18.212356466912752,36.455896992618364,34.611084907706754,6.947100701481759,21.014037164988622,20.21225258908271
1.512,27.679651376041875,21.263449234041218,20.32323819543126,38.99658258536692,35.76425198140532,9.446709175750584,19.218933280373676,20.953624121289977
1.516,28.921325419820278,21.98512376751387,21.7222368042967,39.60808201382861,34.28862763516554,11.190508339368535,16.88602412074033,20.964842680423317
1.52,29.28796771745965,21.294576765681995,22.475087906883346,38.32282628906614,30.85906282085307,12.304272678720736,14.587649021948891,20.42706387002181
1.524,28.42231395143608,19.163518106841366,22.590644197272923,35.20818126859194,26.49412410056175,12.951468386916531,12.900471860775724,19.59254092330957
1.528,25.97458948347412,15.829452747135292,21.90264759681486,30.29657467585821,22.046248035057943,13.06011978414972,12.017435453824874,18.594081740451657
1.532,21.728089139615804,11.709085416840026,20.15256824541575,23.662959737286656,17.87351980688618,12.298091103551997,11.620323127226584,17.380567182948653
1.536,15.782940492536,7.275391933430001,17.201694688521457,15.59479516182364,13.839020943987634,10.311882207664894,11.083278619704288,15.810543386898644
1.54,8.724089624838598,2.9617893312006345,13.258246165487435,6.745075045455451,9.608307841599526,7.074607928600017,9.88636944361133,13.810893635218235
1.544,1.6257440658609994,-0.8999610458540701,8.915226055414678,-1.8845071734995145,5.023572069003421,3.0690917222418648,7.955688363908848,11.48679506636472
1.548,-4.205151807624134,-4.109174589177201,4.940847225134348,-9.177122443728877,0.33095047998358496,-0.8490552730036143,5.722388810736447,9.125438608494733
1.552,-7.644500003199028,-6.558207357757055,1.981590608773331,-14.222075692179715,-3.8322538277425338,-3.824959172579838,3.8973348835625075,7.099131538232541
1.556,-8.17321399579032,-8.17693389874512,0.3204432560050918,-16.59067365574265,-6.684684310626835,-5.424522597229952,3.0846649873401475,5.72405051444548
1.56,-6.079991567966317,-8.886942352593906,-0.1324500839036773,-16.409162367957833,-7.6197080523234035,-5.826567193435039,3.4896932108531473,5.136609330089414
1.564,-2.3490620212542126,-8.629656388224248,0.32139072727841267,-14.233135087008122,-6.447972673910044,-5.6879732425295515,4.851887372622514,5.228446635730506
1.568,1.7116502936123652,-7.46947224804353,1.352500214270549,-10.829006734986251,-3.4697377149641397,-5.762995390548895,6.5936252647425135,5.658393203360902
1.572,4.946652383737273,-5.694875800738373,2.71033674220962,-6.961467254170202,0.6399613960456918,-6.488557798216789,8.080123438609007,5.927967230978538
1.576,6.703730098586675,-3.8367317432948767,4.180626402510825,-3.272823338795206,5.049434235486842,-7.784543403598946,8.827789507047783,5.515134292814764
1.58,6.9611572309822805,-2.5129530706835794,5.527063338040534,-0.2135232358614303,9.017788715456845,-9.143073303726851,8.615755898630596,4.043795411620522
1.584,6.194422439184564,-2.1635909920969425,6.475109325498124,1.9854730005172314,12.061202265471366,-9.953999323537573,7.47538293452817,1.4335447761222895
1.588,5.068992159929621,-2.820255881690173,6.768022468470008,3.314553628772046,13.983772147361378,-9.87454191732104,5.597438619784953,-2.034479405348975
1.592,4.151339161691794,-4.033612154171351,6.310649964678305,3.9817733486652287,14.81003161173794,-9.012944727463037,3.2641578023758484,-5.789566886773173
1.596,3.734121091473071,-5.0536976243129175,5.259128171184784,4.343686883390546,14.660684143324488,-7.849230980059474,0.8134955563236872,-9.174302610061204
1.6,3.8353897808765396,-5.177428073923238,4.014226688625513,4.78191143658114,13.653502600707725,-6.93926742910844,-1.3699538466435115,-11.711111005552993
1.604,4.298386826511887,-4.107710472560939,3.0615748397267453,5.529622686226503,11.859905737617737,-6.592527151438844,-2.904360554553932,-13.305301618473095
1.608,4.867855338745358,-2.1566044147166394,2.69562676654823,6.495478993085271,9.303784605075634,-6.734580015450774,-3.537137113602512,-14.271573960846581
1.612,5.226139655340376,-0.152078530876679,2.8264429824557737,7.210085591490497,6.000760369239288,-7.008831875995384,-3.2814105510879017,-15.162530197307206
1.616,5.010248222685732,0.9137490205685026,2.9791008467946085,6.949025987003552,2.007358458766248,-7.040316481528862,-2.47582238360701,-16.463072581969755
1.62,3.8796819047129247,0.3351840997875115,2.543586837222392,5.03110302537425,-2.534376341765892,-6.679500332662428,-1.6858750224473624,-18.3174926716747
1.624,1.6239989445930405,-2.0026423746112414,1.103842034623085,1.1320743612996012,-7.4017276420745475,-6.100198302228819,-1.4793490477495652,-20.439041895802802
1.6280000000000001,-1.742337414868416,-5.627104409926687,-1.3743991161227314,-4.5564504103058425,-12.35537897665563,-5.707698522652208,-2.1929465554785565,-22.24847299621615
1.6320000000000001,-5.940625102804006,-9.750825689330668,-4.569395701564645,-11.38004314061618,-17.20770192656346,-5.917219610655593,-3.794982609935687,-23.178381427038403
1.6360000000000001,-10.490769176069989,-13.647670538477541,-8.033737004427167,-18.457945294672754,-21.845927904385462,-6.943100958247669,-5.9183530231075565,-22.97746966500381
1.6400000000000001,-14.834158569648025,-16.903824849621742,-11.419828628335381,-24.94168654287205,-26.156450261207283,-8.690686650112184,-8.017456319903431,-21.859131237488327
1.6440000000000001,-18.471470679677623,-19.43152393744822,-14.569413440987773,-30.18198806156397,-29.895718015943203,-10.805843762656878,-9.582468337284809,-20.429793852155854
1.6480000000000001,-21.072864709668465,-21.29700590671564,-17.451937337480558,-33.7739917731742,-32.60730470250019,-12.844392584196612,-10.334822547627482,-19.437889331309634
1.6520000000000001,-22.49585579872837,-22.491952441927424,-19.974181136381958,-35.48726368921598,-33.65442270011408,-14.440470305831695,-10.29083604486732,-19.477853127071285
1.6560000000000001,-22.72631112725776,-22.81810790138843,-21.82014167862144,-35.180030591342074,-32.40749792027418,-15.396612650016323,-9.689033122891487,-20.77714847487914
1.6600000000000001,-21.80520691489528,-21.967939742326053,-22.467003394551284,-32.786205762859026,-28.536133055346,-15.664732629713399,-8.851912088588506,-23.14878584451617
1.6640000000000001,-19.801627733701935,-19.74430611067328,-21.405826208656435,-28.394647199129395,-22.277090566889456,-15.264641517329437,-8.061352797700238,-26.093960378533666
1.668,-16.843249901769923,-16.27111124959447,-18.453845517473383,-22.359166230322444,-14.5273539078662,-14.207908798762219,-7.50098555680961,-28.970289829383546
1.672,-13.160415165175436,-12.040414691786282,-13.957787417015425,-15.325001943147072,-6.663548805292521,-12.474134549487644,-7.257177919040259,-31.15336741414285
1.676,-9.121208634303002,-7.784810402354196,-8.802620545284299,-8.153932136563526,-0.15974691168048594,-10.073158706003596,-7.3850217323106335,-32.16060907199608
1.68,-5.1882515098068325,-4.2274078648379145,-4.153343481008051,-1.7405183807277353,3.8643813217204297,-7.119376841234043,-7.964473095804351,-31.743270689066776
1.684,-1.7886550118710147,-1.8307681529186084,-1.0197017062855593,3.217359103022318,4.9796494175116095,-3.8557070989118074,-9.088697368017165,-29.9576569527635
1.688,0.7990226132187672,-0.6973141026883241,0.09865333930429188,6.355186704171501,3.5038966281972534,-0.618150543923548,-10.823461431651594,-27.18894438454663
1.692,2.4841755267270855,-0.65553481752886,-0.6657374524329498,7.6403474495800765,0.2691253940556635,2.244874145519134,-13.154598224224173,-24.100820139788993
1.696,3.2909869710292696,-1.4658312421152004,-2.7391572518408793,7.239097463276266,-3.789415891844328,4.448988909814943,-15.965240918165364,-21.47281118047067
1.7,3.2406165878801403,-2.990004014369333,-5.449056257039047,5.382081588933943,-7.991127114459232,5.835744303511092,-19.032586753281066,-19.938739523622644
1.704,2.312887576558751,-5.194716106924716,-8.285730371664613,2.34141844034275,-12.03662443315261,6.413755562422011,-22.001983618283703,-19.71998935013835
1.708,0.4897443573918281,-8.03226287666621,-11.013925118833868,-1.5255292015572195,-15.907044677547674,6.349545627110274,-24.39895079676353,-20.486952354232926
1.712,-2.1328053076485958,-11.291660459542072,-13.598185724056748,-5.725308770201082,-19.639479367446256,5.923395895644717,-25.69822485831355,-21.45419204808968
1.716,-5.267812824964494,-14.559026911182627,-16.067220860368252,-9.682444065570962,-23.15442280707248,5.441738621413606,-25.473452163390903,-21.69928442584569
1.72,-8.454429348994381,-17.323787233883195,-18.383949738443334,-12.896394531904662,-26.223856046475703,5.144666971713377,-23.576072590685726,-20.58046425415523
1.724,-11.164393533280418,-19.162146415745156,-20.370451136970587,-15.115040080803738,-28.56075084702752,5.1409046724911605,-20.248288567370764,-18.06523161730729
1.728,-12.98392738795792,-19.906542120884296,-21.750957502277743,-16.44190694237659,-29.946329250225972,5.383852304739776,-16.118363798888822,-14.78479734139728
1.732,-13.762131188799685,-19.68344715854255,-22.240807604139263,-17.26909711250846,-30.28562941616474,5.709686768677784,-12.026765814709506,-11.775092541085542
1.736,-13.646667409975635,-18.804262130885945,-21.655862038911437,-18.053560053927868,-29.56000977041367,5.915376371380262,-8.74526845660148,-10.010626079721987
1.74,-12.965442112721576,-17.557423992856457,-19.956569273692367,-19.021802216379,-27.71478951397694,5.866295545896719,-6.692072174360874,-9.952253809764443
1.744,-12.003635715412202,-16.013655510701028,-17.20257628231775,-19.957203263866177,-24.596225123468685,5.583841026364098,-5.771572583560555,-11.350699247814191
1.748,-10.837511202970745,-13.99248795369931,-13.519390235567698,-20.23234335964389,-20.039888587220048,5.248814199225308,-5.463345174799542,-13.383541819544917
1.752,-9.310762669126234,-11.207448297678638,-9.099100283085136,-19.084667946644004,-14.081681984962415,5.118096156271349,-5.117570723125027,-15.049914956231078
1.756,-7.185610205725425,-7.526505719469242,-4.276500331432544,-16.031092389537662,-7.179239031100224,5.379447990966582,-4.33846375176654,-15.61515172854888
1.76,-4.359343423386235,-3.171941878486905,0.4256715854280628,-11.164985819727008,-0.2534309107741137,6.056192977399405,-3.234615021816353,-14.868473023658225
1.764,-0.9867680573588586,1.298941514281978,4.377195531646066,-5.150230292008018,5.549271799611233,7.029450220372382,-2.3631969047200982,-13.084698562806807
1.768,2.5554385973500757,5.215525710859765,7.0053404725840664,1.0651808692773557,9.283176993561938,8.16439564790744,-2.410771407507127,-10.732250780660252
1.772,5.847108290062351,8.104188892838465,8.006601931183468,6.659850955791626,10.603127009828313,9.455332816054579,-3.7765191773742117,-8.137555936127683
1.776,8.600855594371751,9.875294640685752,7.446662118727545,11.2054850206423,9.878690518895382,11.048304214175005,-6.3181762280837575,-5.322779997874022
1.78,10.746063809081534,10.788241860363087,5.718886350539833,14.673645223680069,7.957656355889412,13.122384917985983,-9.393437354090565,-2.1116749612720014
1.784,12.3897215087336,11.22974628281463,3.3949153143821604,17.218628263472965,5.705269068456801,15.681381449714536,-12.16512980520747,1.5655800315689703
1.788,13.642936177266165,11.405742285611268,0.9791470232212305,18.864236396473643,3.5518578325491035,18.364062268141424,-14.025975023387218,5.389675104703201
1.792,14.452553058603371,11.170777193206959,-1.2802640239679022,19.341368538800452,1.3255787137404695,20.441518077788714,-14.880832124183144,8.611015898593905
1.796,14.549565048236218,10.104741361278684,-3.4527616718642093,18.1958256335256,-1.53359542598173,21.058763378965523,-15.125921251292311,10.339953494993097
1.8,13.57182478517825,7.816787456516977,-5.790778530152238,15.127520868337342,-5.488454687723788,19.654887051578044,-15.327131006577474,10.038301124444843
1.804,11.317832674049896,4.316781594251552,-8.450836615713342,10.361392280638938,-10.434354232500482,16.34420566224071,-15.784161273853897,7.917831413224121
1.808,7.960691473220322,0.20055437064547732,-11.255698259839846,4.775846141371403,-15.543595060431471,12.016342916402209,-16.26943509622106,5.002752870910626
1.812,4.083879225519922,-3.4943689155579705,-13.627965785128254,-0.34089387961103057,-19.538634179598375,8.057193309168724,-16.10460967441577,2.7500935021489568
1.816,0.490808483685214,-5.729076719706427,-14.78381354625617,-3.829876171336764,-21.269585888105212,5.762568560900036,-14.563413840132853,2.3788915721233934
1.82,-2.1081890931345697,-5.95603871685671,-14.068930740589167,-5.1914978068480195,-20.260166997177294,5.73878091005281,-11.36628140384164,4.250577625052756
1.824,-3.3439807702652615,-4.359152033184728,-11.237952595623938,-4.776174584687396,-16.903862394901807,7.617898892418452,-6.942503770764233,7.630101760154503
1.828,-3.2724813805175472,-1.7230919206276667,-6.579935317100535,-3.52928271183373,-12.21775365270787,10.239847943044879,-2.3138393305162026,10.991308326867511
1.832,-2.254081297403445,1.0062934986517575,-0.8119430955830467,-2.415663001978828,-7.3077045873433235,12.212486178583276,1.354044014817191,12.710051073965587
1.836,-0.7327560803337292,3.2037661833010134,5.161162366237477,-1.866298341210495,-2.87184185883234,12.551903814499383,3.28182903886227,11.802511693285851
1.84,0.9696134834002805,4.817532141642005,10.521190960349486,-1.5513399498859144,0.9950348371949076,11.102311985365304,3.401890853579971,8.334732640705624
1.844,2.7510328117277822,6.2636664423052935,14.72969687236764,-0.6078031663864749,4.602276721613634,8.527275151722279,2.3096753166591952,3.2897098571102106
1.848,4.656146438588621,8.01366970399431,17.53506704847041,1.7829537990073732,8.212726171632312,5.89706882727296,0.8689791893739311,-1.992131731189147
1.852,6.726440087010815,10.161653691299762,18.865662824164247,5.8251012294940665,11.652088578865914,4.136184672337549,-0.2809230278853647,-6.471737057507198
1.856,8.865277849249196,12.243051146260768,18.680377151295033,10.854321048710517,14.22041906593222,3.613656452977011,-1.0504389746411107,-9.803329550379203
1.86,10.824484845901225,13.451516873750734,16.938615785574257,15.586498472358471,14.998529808130115,4.098298606844764,-1.8544415353044315,-12.258848514281453
1.864,12.338421778170414,13.143211332901046,13.733905639875047,18.74199010123175,13.373163721807941,5.047890379821183,-3.2368306652415413,-14.300768334092936
1.868,13.283378198940682,11.290761561192994,9.450970620482622,19.665217905631835,9.451143989354023,6.009811366615395,-5.429256776777947,-16.089822518981236
1.872,13.755555376531447,8.597008123199885,4.82211912512048,18.60125294909085,4.116692291175241,6.885255730783683,-8.10769421590885,-17.257418678200338
1.8760000000000001,13.992801406933722,6.1541290717595984,0.7472953969390801,16.464646227133017,-1.3357654916053434,7.896176872784054,-10.517459118892475,-17.08755859822486
1.8800000000000001,14.188522877924242,4.832321094548206,-2.0494228145726083,14.271969351978441,-5.780130604510305,9.328169113217882,-11.882147201297812,-14.986197599528168
1.8840000000000001,14.335600221881577,4.780128619302559,-3.3258776093152846,12.599128951405874,-8.72091569442182,11.243377999995573,-11.828793005447551,-10.945842681718204
1.8880000000000001,14.172953800623873,5.320739374810728,-3.4491841518101864,11.347205140145888,-10.405544965775334,13.347694679567212,-10.589480109679243,-5.691783742174266
1.8920000000000001,13.293571269365657,5.3293315346372765,-3.2230703413051742,9.94329015916992,-11.537846264936888,15.106369027773326,-8.85470188097679,-0.41751240788744326
1.8960000000000001,11.347777173615668,3.871078943479006,-3.506106131148954,7.797810813859542,-12.789480760792685,16.00372431370124,-7.383445338635283,3.7438276483317168
1.9000000000000001,8.239413627438807,0.7386111536816315,-4.784790393312505,4.730328323535105,-14.381761862258827,15.791977300306826,-6.598767119538024,6.20299351812173
1.9040000000000001,4.235987726029634,-3.3958730123458736,-6.896254980402773,1.1246910117615698,-15.946632930599662,14.586155634058741,-6.388254735354167,7.071427275606766
1.9080000000000001,-0.08366102155196131,-7.3112900892283506,-9.083107621643649,-2.2751217408876983,-16.73067735972836,12.75280665716673,-6.234680316483718,6.940051388923166
1.9120000000000001,-3.9996941783488182,-9.844581801679851,-10.32764403750025,-4.7572029649418255,-15.993513123887169,10.695783238177683,-5.567104604524502,6.432455442089122
1.9160000000000001,-6.885229965726467,-10.443398442161197,-9.840530230638251,-5.994326610574717,-13.397946555012823,8.668762032519226,-4.139127206305602,5.8230659794317035
1.92,-8.389946963874536,-9.35945948548806,-7.423057110064292,-6.125306762452055,-9.17519524274212,6.743209490504341,-2.188997272013694,4.96405499388311
1.924,-8.49484664771444,-7.409292991341317,-3.519121779680063,-5.546015660444027,-4.019002759783689,4.922868080194348,-0.29355181328355684,3.520822993286856
1.928,-7.472866742356928,-5.503786736186157,0.9962461983468529,-4.6032613091038,1.184865770932447,3.290109259876772,0.953066319343634,1.3456540141160076
1.932,-5.7650185681222865,-4.212141558599342,5.191770489304872,-3.385481995494956,5.657620826242237,2.0793118961819346,1.2590516340505928,-1.2766832228171552
1.936,-3.843550510685418,-3.6031427952516424,8.378900341004737,-1.7654363486235525,8.902739863775423,1.5911321440071333,0.7510920621916739,-3.6864596819305007
1.94,-2.09152175517238,-3.3872576092103373,10.235608470424268,0.37882668231486605,10.738491581374547,2.024214004708483,-0.15472138258701307,-5.172302632514402
1.944,-0.6937639334055348,-3.1841782988972227,10.773814432858671,2.9610819559184165,11.24103349598954,3.3456011264770495,-1.002234895260699,-5.368238215904057
1.948,0.39455735440196804,-2.750503346348978,10.189529169583693,5.635861662935895,10.652872226462023,5.278420650589396,-1.5241405831748125,-4.461073341984957
1.952,1.3888434053947094,-2.039624471275147,8.732435252408322,7.94861263720577,9.303508865980803,7.432639631319034,-1.717904289861508,-3.084885861058865
1.956,2.513974844751374,-1.1362013106127051,6.608199594385951,9.550606339430487,7.520098305245483,9.46728506530053,-1.7779246688687635,-1.9700724072681624
1.96,3.799782468292051,-0.1694726855666886,3.9509403481915797,10.329360093240211,5.5347633919109285,11.186148158427386,-1.949406145688954,-1.5523525751368652
1.964,4.9648668976997214,0.721109979321227,0.8743110970017369,10.381231648525954,3.416981423528341,12.525274280877966,-2.3908844832267278,-1.7784944167087815
1.968,5.448286580758577,1.3353995668849166,-2.4911128372941675,9.839172038364723,1.0570667359752406,13.434813042407768,-3.1417851049800447,-2.202293226329857
1.972,4.640161207252731,1.3918478527175466,-5.9542853938382905,8.723528649535638,-1.738211678857624,13.776741553960164,-4.145986267454646,-2.2867915491806343
1.976,2.209811664572044,0.6098990363148005,-9.255552549914682,6.931036303278233,-5.06257584343075,13.319253082878276,-5.294524178716529,-1.716864075237936
1.98,-1.6110187970871266,-1.0853732350692553,-12.055102264007473,4.416991454134404,-8.699180329496357,11.873425350758225,-6.426667490837644,-0.5255726867871999
1.984,-5.937708660795124,-3.3313732313749824,-13.905786748329774,1.4619793822303109,-11.99645179270874,9.502636047140186,-7.271167085146772,1.0145549194494379
1.988,-9.463139701837918,-5.28848927056697,-14.316986734022976,-1.2215308854051727,-13.972367135654167,6.639478553866866,-7.444141786996624,2.6373641139925894
1.992,-10.934976525499678,-5.888581446100943,-12.899243390113952,-2.662814998494923,-13.646078963243326,4.010412768366223,-6.5515649712306185,4.281645681255213
1.996,-9.686461504318231,-4.311338251113739,-9.580594288566317,-2.0658602879839236,-10.477678781079248,2.358488624335223,-4.3921050810031375,6.110411021600157
2.0,-5.949427340795864,-0.4377320636940567,-4.754527252835487,0.7475613299016004,-4.6837861744716065,2.1140899153433566,-1.1482404061935085,8.355523226286095
2.004,-0.7567163253188482,5.0119900986287576,0.7929712375166673,5.173877671983519,2.7590763052007787,3.201561841558032,2.5972172875781325,11.093150045040602
2.008,4.495650536384346,10.742710693573372,6.130945487030203,10.042054541819198,10.432918822947158,5.074274636391237,6.047490375990492,14.10588788005407
2.012,8.635987209690484,15.459565986937832,10.543615430682166,14.141352960968106,16.996623591409843,6.993582972519107,8.530386364365768,16.926995170591
2.016,11.132985161314537,18.42862679918153,13.769582295406053,16.73962095210163,21.628555701904588,8.372429485915745,9.791469100579889,19.0248142176697
2.02,12.144506364941208,19.710537078477955,15.98688511189357,17.810311479604024,24.184253352705127,9.00854643922139,10.062703908562526,20.016366520243537
2.024,12.234716048390283,19.963263079211174,17.5775059137045,17.874619515675477,25.02566930991088,9.100864973591342,9.87638077401607,19.790673613646504
2.028,11.926482585323356,19.931681916568323,18.76711998648807,17.547251391151804,24.637973852096366,9.042843889209507,9.710552931077473,18.498574895808815
2.032,11.384263345421687,19.962270264976723,19.40771641799165,17.10625883964667,23.293410718567884,9.154025990326772,9.69243902885728,16.446255805728924
2.036,10.401569983730269,19.830941128536324,19.03872214908506,16.34696483351354,20.958112113507013,9.505868747571185,9.541074452666635,13.987594325731152
2.04,8.684219304179578,18.98189136124938,17.22894390545798,14.81709140974317,17.49202037274199,9.948085818205072,8.79788873711459,11.479318408892595
2.044,6.249990781314409,17.023209514359223,14.026011556387857,12.279945115624287,12.994682460158401,10.297745743660016,7.216031137425034,9.275625957807733
2.048,3.6370326914552606,14.121295517034469,10.167535346834484,9.059190243564444,8.022202150085832,10.530121522794616,5.032288599996264,7.721451898676605
2.052,1.7481222124497435,11.016107561560602,6.8754381143226055,6.009955015734249,3.4872420614201474,10.819593837592947,2.9342601063408438,7.069815161260976
2.056,1.3625089971615125,8.603053846561124,5.23774226534988,4.065987070263873,0.23091444382680493,11.36058236253757,1.6910733647055167,7.330428964218299
2.06,2.6043425156467492,7.353059409395428,5.526653502708086,3.644617523991201,-1.480001418349275,12.108375679548772,1.6665061463445454,8.163821782216019
2.064,4.726094896582481,6.970158023465274,6.903337315901354,4.310722204820195,-2.1943076329671385,12.638164434920327,2.540599556048619,8.92544847467343
2.068,6.359847329246122,6.515896241627615,7.706015572212436,4.925742820478263,-3.072255751333614,12.253021932217962,3.4150861742214147,8.909105799961708
2.072,6.171889272843373,4.986072672617411,6.278263267577586,4.265966768525686,-5.27025362036602,10.356649601984373,3.2836432811100167,7.703206449287336
2.076,3.5795306948734833,2.0018972943507833,1.901978335795775,1.7605364031933277,-9.235756622673762,6.883725576683446,1.6063029358224412,5.4822683088573285
2.08,-0.8543373066906952,-1.8060960913644521,-4.659984145008821,-2.068948470468058,-14.298002714088852,2.5377306989671524,-1.3379085791070793,3.0526068408826177
2.084,-5.561038660794566,-4.964672898183153,-11.320948634608612,-5.734358472276654,-18.811891931637092,-1.3486256765581857,-4.507453902643647,1.5667705545265562
2.088,-8.639635829018971,-5.855724613373013,-15.559204749151377,-7.479816131430653,-20.85702066526028,-3.345251597674178,-6.57857932466095,2.0042852877168116
2.092,-8.73049135890733,-3.571147650876128,-15.58750907461308,-6.180437773575932,-19.14908610121074,-2.6009055003960384,-6.593314834942703,4.654410083289804
2.096,-5.670799782300719,1.5299949225041019,-11.242106476037861,-1.9787976216919105,-13.714855890957551,0.6631905781732712,-4.440917564860683,8.8729208119139
2.1,-0.5923809586574862,7.884100448446588,-4.102952564172483,3.7084807226844987,-5.959161606234375,5.143796850164563,-0.91446460650468,13.276180808861682
2.104,4.59460715013779,13.397565672298697,3.2506956338706914,8.831566778629167,1.9239537646940335,8.974966025836238,2.679624700023851,16.285271465263577
2.108,8.04717946397318,16.373429156675,8.436596856421602,11.651666365443134,7.8965195253358615,10.54663128070797,5.127709712408887,16.80263599152113
2.112,8.779196758976468,16.24446391239985,10.348880149928391,11.526073470660322,10.924896892945071,9.24619780986177,5.846415813951808,14.703693458397083
2.116,7.0107614140677015,13.748824128233991,9.544489507065919,9.12734310629503,11.306591249912344,5.735365651776647,5.081241231963304,10.904975173944877
2.12,3.933126012006369,10.484353196307893,7.770711733713597,6.0190757891136855,10.350107590796142,1.6363405681722725,3.697896363511518,6.974598104197867
2.124,1.0814234567865242,8.11970235435615,6.945654494790688,3.8530982912084255,9.620341741901257,-1.2147989061841145,2.726026316716343,4.449872236983538
2.128,-0.36976968180579206,7.640377627847556,8.10689616649006,3.594627526822933,10.139146799476748,-1.5929156944275746,2.865106688074775,4.186359333073142
2.132,-0.051347029801718236,8.987066759726531,10.903850731503326,5.163026214337606,11.945756088988674,0.6164108928510359,4.190803730355128,6.025653396726739
2.136,1.580534103552509,11.201404902737067,13.83822803954854,7.598029257728285,14.183740005787058,4.440566880060032,6.16103401015971,8.929402626796218
2.14,3.606210487078556,12.955585766149397,15.10509408419739,9.618555387466131,15.62217082200982,8.341122998945593,7.895955023500392,11.516121218964145
2.144,5.168566347220803,13.201062056717092,13.58740474723254,10.269286632040803,15.312600152659115,10.94831684674682,8.604187848471383,12.72142144078407
2.148,5.853318581396593,11.604544523853292,9.432996206365715,9.303121817945566,13.025549744341333,11.630572820227826,7.945342065834666,12.275135724784377
2.152,5.777430196158889,8.620222067853092,3.9592342676141925,7.167586700109041,9.286194683142185,10.667352422366093,6.186542161036641,10.76837448677361
2.156,5.3569231877226,5.185024215108342,-1.0741626549433931,4.6376422891175935,5.019184694599744,8.949855358951936,4.069366146849461,9.281082996268651
2.16,4.92346776413865,2.2159832254808407,-4.394580659608437,2.3454838077573186,1.042384176319274,7.42281423201166,2.4493523048436145,8.776661082147257
2.164,4.458304820501098,0.18681725888677647,-5.804769206725268,0.5002553187609919,-2.291155191968528,6.597477903508661,1.894714498187568,9.577434714192805
2.168,3.5792055957720095,-1.0382407201936985,-6.152191325843887,-1.0852311972851112,-5.129562072800354,6.371773999001562,2.426617074568867,11.220036367912599
2.172,1.8221877482883428,-2.02235014638336,-6.68010208170881,-2.68746566279151,-7.82216631698293,6.2375574705283725,3.553412250461406,12.767364910057495
2.176,-0.9552340473323966,-3.344708723944791,-8.163109288301712,-4.313588686749199,-10.4826721690265,5.698580431231221,4.588878767678807,13.4083228058239
2.18,-4.310654029630314,-5.192293756853815,-10.32738104020791,-5.529463501872215,-12.685425371215842,4.642442820435008,5.079375030240726,13.001041637746994
2.184,-7.248056365180446,-7.158255232181091,-11.86920238918401,-5.587112244567834,-13.488365698003236,3.4389399294586838,5.1112405319536265,12.207485238753634
2.188,-8.630913148408581,-8.418608027833443,-11.146926265771981,-3.8533392720491975,-11.847820469503176,2.6697172301512637,5.243223298719158,12.089166088196635
2.192,-7.789498061623021,-8.204498084856823,-7.166374081105687,-0.29526267694473063,-7.2371782613224696,2.667540916473172,6.067708855707224,13.35488626373126
2.196,-5.019121748443013,-6.339995495762082,-0.3533751858708456,4.234775632700689,-0.17267061287702745,3.1320100285365697,7.621795818388591,15.690994874107218
2.2,-1.671210007973059,-3.537480837517137,7.338038927805201,8.1203036367408,7.667797293236163,3.0931391559615804,9.015047499588945,17.618083693960898
2.204,0.31529424471932543,-1.2107392243726736,13.143819469449227,9.549538575451265,13.8926765988233,1.3161911386887368,8.60988124130381,17.04806730375526
2.208,-0.7265386077215226,-0.8426594896076267,14.69768571887198,7.302182422584565,16.278796124865266,-3.0352124614159948,4.774551784722917,12.350890341740978
2.212,-5.301021935095605,-3.174010541806183,11.191698031911528,1.4170652768383434,13.750961924811918,-9.80036315309576,-3.0998915361496984,3.3972313846493307
2.216,-12.30784920957558,-7.658040846973336,3.876192758613797,-6.628661847885837,6.985708935003686,-17.655286561333924,-13.885390787992264,-8.015463678735841
2.22,-19.33566250019237,-12.526608100414023,-4.376359946339221,-14.367528868113027,-1.6919664138979442,-24.517013505638943,-24.78546525134425,-18.66026167987002
2.224,-23.59472843230833,-15.484464222166366,-10.239585219735318,-19.241628552317707,-9.131071674544728,-28.35238561524602,-32.28083160489109,-25.151513037045106
2.228,-23.118796930763267,-14.759924541471946,-11.342076540139374,-19.605986047367196,-12.596450695250041,-28.030360222419404,-33.598025377937574,-25.3869962819208
2.232,-17.663148544417993,-9.989208106861156,-7.244792215783832,-15.381226863975826,-10.885808231264832,-23.794303057206434,-27.9913633220242,-19.462220001351398
2.236,-8.872189997711303,-2.488018773260592,0.41163399789161303,-8.086477837077382,-4.8387903538459796,-17.15073771211337,-17.194774649645865,-9.606476076088825
2.24,0.39263401294920186,5.264669582292299,8.65205064105703,-0.2162193518621507,3.027045256959809,-10.213661292800452,-4.7549430015843654,0.8442122764118949
2.244,7.280590811466482,10.71867310900268,14.472864140134902,5.786238851687813,9.60918110261855,-4.8225949602112905,5.483962526594951,8.907534102526142
2.248,10.114026551006475,12.355332962373552,16.048888863246475,8.46289913849455,12.521248929677085,-1.8845395411003665,10.977833753630875,13.124010177100558
2.2520000000000002,8.97945867159558,10.289064291187117,13.365866519066003,7.813825095461084,11.041451900514744,-1.2050663468767198,11.414391477638901,13.906380936968162
2.2560000000000002,5.4830313480398445,6.086500754337294,8.031052047473395,5.112748196947223,6.285764863885106,-1.837850558583341,8.550906165885408,12.98538636202943
2.2600000000000002,1.839289414685311,1.923695314740712,2.42289842012849,2.2008293795405507,0.5722115782454011,-2.7063935065771147,5.099515109919253,12.33134430793666
2.2640000000000002,-0.1825397158941655,-0.44045433278529345,-1.3370004577409418,0.63898290194129,-3.669485942668757,-3.1490874977168914,3.314549508891673,13.141563520603086
2.2680000000000002,0.031000013869629583,-0.38994100140689625,-2.174170105804251,1.07301675080339,-4.9381490598359505,-3.1350108326865893,3.9892759219711706,15.39757540000869
2.2720000000000002,1.8847639269023944,1.4489517620827428,-0.2890308787311824,3.088921794018347,-3.1757731881965583,-3.0838363811526506,6.331535329016219,18.11992711398989
2.2760000000000002,4.103105558203197,3.6979788896660466,3.161113408239089,5.544582123155465,0.4017873869095183,-3.4798367833170687,8.663646086772701,20.065454499887778
2.2800000000000002,5.482694808181861,4.9892938456776506,6.695347721271446,7.174098858446314,4.007397043652475,-4.526868706136156,9.479010274690495,20.434027516193964
2.2840000000000003,5.4875996663950275,4.614756079727272,9.173116674307607,7.184690901445265,6.154884162515145,-6.016473752309594,8.27938560404948,19.20608423046474
2.2880000000000003,4.373643606377698,2.7404474239879164,10.15890148495697,5.547071829002505,6.259188559411882,-7.472278499285267,5.745051277154914,17.003064924969863
2.2920000000000003,2.882044433019786,0.18036532673772854,9.931009635232442,2.916995148600222,4.746457150745698,-8.428739686640938,3.258338204695633,14.640687982256225
2.2960000000000003,1.7482235323151087,-2.0705086523072964,9.189206751498944,0.26871823726133925,2.688911709829256,-8.672261577384347,2.1189482831479154,12.686451827390442
2.3000000000000003,1.313912237247763,-3.2823636797633355,8.63258682740775,-1.567373249846014,1.1978734449720605,-8.316509265781235,2.8789406279312857,11.255089011817233
2.3040000000000003,1.4478718268139232,-3.203243366140441,8.641555075729514,-2.2325587254150605,0.9000596532245027,-7.699330127978669,5.144017464027627,10.080491857826132
2.308,1.7447498714932692,-2.0195872522633636,9.149096129067402,-1.9173092275493673,1.717230480595731,-7.1920006436785116,7.848389481985635,8.763475659900905
2.312,1.8342440072147213,-0.1588545924972209,9.747034071785606,-1.1791705408534199,3.0167532828302797,-7.027009759883981,9.800017838043402,7.009655068685788
2.316,1.5785246767776755,1.9037242743989395,9.916134203754154,-0.6384147731824896,3.9903158656622963,-7.242262622364933,10.179357458099275,4.7404805151619485
2.32,1.0734928886609225,3.7551395962780134,9.278719351323957,-0.6860514050705433,4.062412509541332,-7.718165394806078,8.793388195219336,2.093723550041659
2.324,0.517592076024755,5.084874935753135,7.784559055474233,-1.3213472551570362,3.1321684590046175,-8.25817418637962,6.053195919894392,-0.6447784939639405
2.328,0.03168630838982267,5.676129396401734,5.702716909856235,-2.2151546946432745,1.5293781290891957,-8.684954243413586,2.7326518196545067,-3.1054956999798833
2.332,-0.4136414244107982,5.430192044683736,3.4825560579170087,-2.913406896308743,-0.22919273787840666,-8.893936798509799,-0.31567060250290524,-4.880435809819687
2.336,-0.92378040733945,4.421675345205529,1.5410720308004784,-3.075877149882899,-1.7366475519813775,-8.875212835910247,-2.3873065981733816,-5.585628763937507
2.34,-1.5453711273656836,2.922203476526022,0.07877154769983008,-2.63241700081835,-2.8817230093123953,-8.718415660782625,-3.078711547352327,-4.966422845537636
2.344,-2.1587356763972707,1.3645574472031967,-0.9421279024237492,-1.7652714457204297,-3.815895908245693,-8.591060957557147,-2.3483927056306584,-3.03150543712934
2.348,-2.4984183205297086,0.21501347676286287,-1.690368800378792,-0.7656077714696039,-4.745789975643845,-8.690253203925067,-0.5087489923259909,-0.12409357599949544
2.352,-2.2817985368655513,-0.18681719523641505,-2.2591777858068554,0.1664313897856573,-5.672868552375462,-9.150504198755698,1.8739938669590401,3.144349977770844
2.356,-1.3846220887581353,0.2402635740838832,-2.5292622361995427,1.0281543534833872,-6.276658210024266,-9.962416356333051,4.146730224809858,6.083730341619912
2.36,0.03300241644291191,1.2793319251230741,-2.2049976087952246,1.9580039773694011,-6.035504107348515,-10.93915864948633,5.763275854228482,8.164271084264328
2.364,1.5584705163238937,2.5128125072895955,-0.9844505630005642,3.0773543458229824,-4.524572358503519,-11.757078109722443,6.4610783999288515,9.175612096726582
2.368,2.6802152661306877,3.4833745815026305,1.1821009319583027,4.30357620803818,-1.7467530262007358,-12.09279370748959,6.3103706766804635,9.21574188576426
2.372,3.004074779348059,3.8594445029442,3.9450939654291233,5.288333896262202,1.7257331424268614,-11.779206723642346,5.62645850837464,8.522673249757304
2.376,2.4324679930840034,3.5355608411856565,6.619200029245576,5.537508330521064,4.906929739406905,-10.90752363120157,4.784535516281494,7.270588422963328
2.38,1.2041976926026337,2.626932791555703,8.443302074518101,4.652917308466044,6.797064531912042,-9.815610678554094,4.02687381545968,5.46706454884702
2.384,-0.19222534100038047,1.3974946046788546,8.94181486798027,2.587098361062772,6.844441449349915,-8.943909363907323,3.3867880990692356,3.020550926382157
2.388,-1.2169556481754285,0.14460997957365862,8.14745121877263,-0.2683740091799791,5.205353918818673,-8.642162467224125,2.7359028683891893,-0.06109126420892608
2.392,-1.4992786422509425,-0.9017958540279096,6.5744467242428755,-3.2146095832042647,2.6582670373559267,-9.010817678237117,1.9151269724436588,-3.4952380900086837
2.396,-0.990352187328142,-1.633446889814934,4.9335291701409005,-5.549615774322547,0.20340760194426366,-9.869220108140553,0.8509669188833868,-6.712650122972036
2.4,0.021166283083175585,-2.0575513069075555,3.751130936622644,-6.880612295808874,-1.426457168876368,-10.847415961503202,-0.41579767133077894,-9.038452656932805
2.404,1.0494280304246217,-2.236798108268829,3.1351616788759884,-7.266222251352815,-2.074692541624131,-11.556158543110996,-1.7737985698614693,-9.999098248424957
2.408,1.6213686704003294,-2.228027842994152,2.7858992533713263,-7.1343577950960935,-2.1405182639861096,-11.757605682446638,-3.122324413600154,-9.563980456030322
2.412,1.4897896719918435,-2.040418160017225,2.2655801156109874,-7.007386611854031,-2.253903605158598,-11.438792663960157,-4.4039851531598515,-8.1813801627967
2.416,0.7212517551940891,-1.666368382517021,1.3047199139157328,-7.232788814130345,-2.8824214412911715,-10.795587195638518,-5.575728438575766,-6.583726426316389
2.42,-0.38722594664335475,-1.1662528375336478,-0.05493184514762106,-7.869330341522186,-4.10214946988242,-10.1285754533003,-6.562152013721516,-5.4458476577968895
2.424,-1.4905688228748772,-0.7304666678538752,-1.53629208149016,-8.748814935047562,-5.641666833477871,-9.699459685656393,-7.223782464411215,-5.085413666231602
2.428,-2.3895411624290546,-0.6772316821248978,-2.89140881427943,-9.657132752297116,-7.142330752904968,-9.619062224237723,-7.400488722739283,-5.350869162549316
2.432,-3.1202150717821837,-1.34626899891839,-4.119111429154032,-10.473697032789119,-8.420924811475743,-9.797128962197803,-7.003584798532302,-5.754077453167952
2.436,-3.897373430380867,-2.936181737019524,-5.49341769243722,-11.194922420251146,-9.560388574058607,-9.988689723141306,-6.11343996356004,-5.771335813466521
2.44,-4.949137037567027,-5.36346267229203,-7.359208949006188,-11.836658426867416,-10.761208338789856,-9.904912743072146,-5.0019535720912245,-5.130052398305224
2.444,-6.331657002512088,-8.21262769710961,-9.792602538143,-12.297614807776654,-12.05930600894419,-9.343385783055282,-4.027244276251963,-3.9438779713651684
2.448,-7.86328712043985,-10.856319538719845,-12.39893263986255,-12.344413956169547,-13.144813792272544,-8.301825684484584,-3.4648255683430307,-2.6293496474672793
2.452,-9.19513535219869,-12.691440690859963,-14.376346990587308,-11.735714402895269,-13.425320182106702,-7.009087458301337,-3.357184477650094,-1.6686216062960284
2.456,-9.977288106613969,-13.379333416331974,-14.859624169452104,-10.422463555901345,-12.336904857399645,-5.859815997178885,-3.481073988722187,-1.3583801970899003
2.46,-10.036727959086306,-12.97379970793827,-13.36994461415884,-8.683010452636609,-9.720010967938492,-5.2569735970555485,-3.45633021229321,-1.6663319796052747
2.464,-9.423973793149287,-11.84130761874269,-10.077868154446378,-7.043871451791006,-6.009431690520614,-5.416798105789439,-2.9237585865325855,-2.271803859544434
2.468,-8.331846785180005,-10.43967604612726,-5.762257484971997,-6.015013295773429,-2.115443149759585,-6.242612813020969,-1.7184370262868924,-2.7403623752738895
2.472,-6.939566783096836,-9.061783099663216,-1.4568552407002926,-5.762397343510202,0.9692710768688357,-7.325224022643624,0.06055118714311902,-2.7367743203021746
2.476,-5.311114476477314,-7.704167372655206,1.9929350343591068,-5.946037967746179,2.6075812823473825,-8.111391486060029,2.097145460642878,-2.169178147212506
2.48,-3.432259655759026,-6.154107253085272,4.21176799060072,-5.8550720602207775,2.756120177299181,-8.157224245817588,3.971503452236675,-1.1952957963776498
2.484,-1.3281289423185854,-4.216294091829241,5.313183562364657,-4.765835819378367,1.8934941909043346,-7.333285947869172,5.2937483416963005,-0.1146220823168278
2.488,0.8114105460732617,-1.9563035777249524,5.652666723465472,-2.367544634603746,0.6847496390359993,-5.891682224676742,5.777932871313169,0.783458892025692
2.492,2.629518846158021,0.22083477959802167,5.540652138197174,1.0175064513007328,-0.3886319934075573,-4.326490597604561,5.274763243623283,1.3430085822828914
2.496,3.7514039497880276,1.7192515140505975,5.079999163794582,4.549507848092617,-1.2251831658437595,-3.106965472735965,3.7886476652397505,1.5827015582508466
2.5,3.9904452784794557,2.041790646525442,4.203959389559259,7.257537803226228,-2.0372257286885542,-2.4234030045929558,1.4944023976686367,1.6493759011684688
2.504,3.498455570474789,1.0820828729893037,2.873090898035116,8.507089613299286,-3.0858935014349527,-2.0757657636102067,-1.2317144651508443,1.7222627113837916
2.508,2.7239764289881805,-0.7738601845977655,1.2303134229796342,8.270930372220278,-4.415013444270016,-1.5836993962782344,-3.826808357455775,1.9475553110694364
2.512,2.203033710600721,-2.789891131420063,-0.3742053834728267,7.085210260277336,-5.741473403214741,-0.4508241883484061,-5.6238267193209595,2.4267101120174175
2.516,2.2794679257516464,-4.205320026276809,-1.5385891911619183,5.71821221927928,-6.577259960271476,1.5315469669046706,-6.030346447049396,3.2384505295874533
2.52,2.913812728916696,-4.5762754007207604,-2.0351537370670485,4.751504955346718,-6.494823078694708,4.112986490715002,-4.757679188349357,4.466415261681959
2.524,3.716171521339561,-3.9385234271794616,-1.919574509725635,4.330116343042619,-5.363986457972715,6.6470495019148075,-1.97251670831929,6.175010865508966
2.528,4.150493927553498,-2.7485290174797683,-1.5001798159119062,4.168135685461152,-3.451322956541844,8.343488479261168,1.690118896169679,8.333640769764088
2.532,3.8070437089053257,-1.63276889697147,-1.153649636506998,3.7928825995087436,-1.3273996633733987,8.611767270217342,5.307996078442102,10.720726056693366
2.536,2.5835875556866768,-1.0916412482565647,-1.1220393530670663,2.854525118484389,0.3478665877464664,7.321588678829812,7.989342171636963,12.880660210352062
2.54,0.6734471807102409,-1.321267295898565,-1.424085543746287,1.3103560437782562,1.0514194638367371,4.858500589135929,9.187264213008348,14.200609852094885
2.544,-1.5705592110166435,-2.197968360413938,-1.88704760726705,-0.5741668954799479,0.5580864118537647,1.968821720623282,8.895288262072881,14.097187797751985
2.548,-3.796365048544317,-3.405081094987736,-2.2812082766934054,-2.388963937012022,-1.0065016454902889,-0.5339902770613207,7.626141488356097,12.261571732718949
2.552,-5.7153204643731215,-4.58340546943964,-2.41982034059788,-3.760738502833192,-3.193835949402228,-2.052542355153264,6.196219420261741,8.848614553784046
2.556,-7.055322479719507,-5.428633951605889,-2.187450162959294,-4.454164172344235,-5.329571239894449,-2.381713748523225,5.400019689049714,4.504128391594577
2.56,-7.506191123819576,-5.720364002214069,-1.5160385943324854,-4.378556112244723,-6.67358491058053,-1.7171121519425014,5.704387346174599,0.19558022908222483
2.564,-6.746881855308743,-5.30234323933405,-0.34465325888663756,-3.5325957517879942,-6.620311998356783,-0.5113296870779322,7.094132104138225,-3.113241997092018
2.568,-4.621771219622701,-4.1063446933296746,1.3233353252835514,-1.9944091989520984,-4.924202681273073,0.7208149250864153,9.090664347390884,-4.809075306307022
2.572,-1.3499119054979474,-2.214860258540398,3.32898570073462,0.050833386275371595,-1.85165038352784,1.5831813304921525,10.940162181762616,-4.855478347120425
2.576,2.3850731698499885,0.0707847025657884,5.288572607342076,2.271895130243138,1.8214588857240415,1.8923148642666092,11.881793993214615,-3.805541919560028
2.58,5.57439430054751,2.2228911825720843,6.63407368279627,4.209468322407702,5.017296331702937,1.6836479605681234,11.400087633124713,-2.570506742520365
2.584,7.27898583848696,3.6240704924507554,6.835787173448352,5.421382244235929,6.738065778649798,1.1705905671547043,9.41564811116632,-2.0463381879599183
2.588,7.051146251634577,3.7834573722436744,5.649931372593755,5.661675544802392,6.438727016625307,0.6483703484518628,6.320469273778372,-2.7632905528307674
2.592,5.161107317106257,2.549266570262489,3.278385624763132,5.010650963255102,4.231888822107294,0.40232618873642423,2.8662427903223033,-4.6975920078709805
2.596,2.4821163459740774,0.20343061770086024,0.31142308735365987,3.848402199543216,0.8129372391642846,0.6330077152260856,-0.06430624611812163,-7.315398926211856
2.6,0.05200244586410463,-2.63663646349778,-2.553669024318424,2.647408934938312,-2.864178802384231,1.3948511939574928,-1.7395496632989307,-9.810599430880984
2.604,-1.4309735314564023,-5.253308051159138,-4.838913647471372,1.709230830275601,-5.985689431387527,2.5626438374306417,-1.8144178898353402,-11.442144744285542
2.608,-1.9156159435083282,-7.1058334116960395,-6.499863219244617,0.9830219206405673,-8.15827993536368,3.8408556936515197,-0.45052148707759443,-11.810218432197871
2.612,-1.9198966147342844,-7.999672658894042,-7.8542508846499,0.10749182656127232,-9.423754584361859,4.852310061951812,1.7510901151445069,-10.961296143845402
2.616,-2.1306227664974813,-8.07766243271135,-9.281167211497404,-1.3416247496325013,-10.044153134509543,5.2764700044467645,3.979726879713553,-9.300645995055675
2.62,-2.9454815127970733,-7.67772667465988,-10.891068067860033,-3.5455965175656274,-10.219944103702346,4.990618884183277,5.5116279884091455,-7.370574868553604
2.624,-4.219024043013519,-7.137204301119482,-12.349105212289942,-6.253884934474399,-9.919455422615329,4.15525905671484,5.967659534813947,-5.622159225367795
2.628,-5.369684604557733,-6.662564927520862,-13.009379233760228,-8.852526284322494,-8.925205638945727,3.18160570877626,5.417705371139164,-4.269787284176346
2.632,-5.738658242220481,-6.294501837352527,-12.251846462403819,-10.63384810455318,-7.035168666106756,2.5907840261356796,4.305302286443066,-3.293905472899496
2.636,-4.974128745458529,-5.950373792076562,-9.833778622594991,-11.123020095940092,-4.275022427871818,2.7893769488646285,3.238404082804209,-2.5686574427272717
2.64,-3.1945863687101337,-5.48502906681756,-6.04588998072677,-10.268346721093394,-0.9599593328498486,3.8718563180273122,2.751662131482817,-2.0093014040412527
2.644,-0.8369163800055048,-4.7198906034566335,-1.5631289068073784,-8.386811061430535,2.4395284142631226,5.543947484157343,3.1431568463831354,-1.6708842138073123
2.648,1.6555154487007258,-3.4655712039541413,2.8738070511681144,-5.938774650648611,5.528574938980228,7.205218046853588,4.422027844522745,-1.7260295992941792
2.652,4.096504570580009,-1.5562595946048532,6.7862930829164725,-3.263753003005604,8.176401124375843,8.192260204913055,6.374085054520492,-2.3388919509384323
2.656,6.573606216146345,1.0583783955707986,10.07610527767747,-0.471414582380703,10.518968274534927,8.056580637617117,8.66441275501029,-3.5208901385876743
2.66,9.195160504337764,4.177236165061231,12.867536314154677,2.4395512661376415,12.772096370332974,6.749284106096638,10.904031464568106,-5.043675366105617
2.664,11.802068551373168,7.292644658011795,15.24452606790669,5.372798284508008,15.0007944669469,4.6470811246435915,12.703443840286582,-6.467356313829441
2.668,13.85732458734401,9.675003150686962,17.035983871533517,7.983064380167434,16.989507531540767,2.3932516759164173,13.713677781190654,-7.268792179012053
2.672,14.654630758953545,10.635031444611968,17.840641689519543,9.748568171515217,18.325740857314486,0.6484484043130578,13.705334953109741,-7.010691305189539
2.676,13.753916710563544,9.858944067605307,17.26975464682255,10.251072965830645,18.644509505968472,-0.13709741433603995,12.678076378644164,-5.4795488203417335
2.68,11.358838389957555,7.625174994605004,15.225727607369663,9.483401620675977,17.869034066176482,0.1579111161813671,10.927553813211944,-2.739333284143868
2.684,8.391092393502731,4.776980522147596,12.060544209194177,7.989008455084786,16.299403377098315,1.3561804601567928,9.01161176887399,0.8940050782844082
2.688,6.126375624128968,2.388600603177565,8.452832937777202,6.671668289533272,14.466519826388094,3.1049109559244243,7.559642706243267,4.934054185480363
2.692,5.57161023760068,1.2734904863596057,5.098445428267951,6.363664680784495,12.84916102772786,5.030860965571264,6.993357252990336,8.819097163701372
2.696,6.923491848884169,1.5818874516210144,2.3870931516144083,7.367376281854604,11.625354080017132,6.840235039987419,7.295861135106861,11.993062885044765
2.7,9.410223766570198,2.7054794207110717,0.2508822838717606,9.234832526650507,10.610647722967315,8.343597074875106,7.977353618024608,13.99375148675881
2.704,11.663791671335503,3.5958203496995793,-1.683053180738625,10.970496746743947,9.44191604408934,9.445424359338176,8.313952405553664,14.546544851190447
2.708,12.410546030281239,3.3168565366420353,-3.7801808791355143,11.539011550419673,7.872287729881464,10.106519725834005,7.742647191434116,13.653974554521028
2.712,11.120734070544358,1.5598509898320572,-6.08213459870467,10.426679160312005,6.0028505704231065,10.32810985262904,6.227199650158582,11.638371672800531
2.716,8.27848621392718,-1.1563927241352303,-8.197981882840395,7.9397372562400506,4.301301731582043,10.152140992906425,4.3715409203909985,9.09233605520103
2.72,5.109344704748537,-3.736119537879631,-9.490826118418681,5.04901128431834,3.379680808527155,9.659506096690166,3.160993526961647,6.728669362124492
2.724,2.954813753194685,-5.044775026118032,-9.403391036862558,2.893852359083894,3.6788462930885544,8.966252036120295,3.4697373994304144,5.159649485455702
2.728,2.6078889432446886,-4.483749527883219,-7.784207303983749,2.1867162806854594,5.21617034156543,8.190848954474404,5.563932388983176,4.684929263039066
2.732,3.9588843871563313,-2.296459493059956,-4.998935556076503,2.862056039356503,7.549275645954367,7.4247183764477995,8.889910565120317,5.17737503502849
2.736,6.123678260256725,0.5628900115268607,-1.7728811753595437,4.16454698697612,9.9725171811383,6.716714734321613,12.294308956589248,6.132574477460366
2.74,7.935832711390958,2.9040986334255194,1.1226834915262316,5.106732382151904,11.824099237776863,6.080808557194359,14.573021090720431,6.877734449913532
2.744,8.539417637653514,3.8894222050798817,3.200605002479051,5.050147956527098,12.757287992774536,5.527607861595243,15.07084182311337,6.843838978132226
2.748,7.745814413937524,3.4086205649205112,4.392413702476688,4.052555107238504,12.83418154403239,5.0691718940333885,13.991623755724731,5.797607126729645
2.7520000000000002,6.022519820735283,2.087865031375486,4.9802075296704515,2.8232535943520816,12.436694084153942,4.724774332960806,12.265072278914431,3.940949254234283
2.7560000000000002,4.150673872124798,0.9426758413642347,5.363985813062527,2.3041417517156333,12.050153654003225,4.504323023122652,11.033703810435327,1.8298313351194793
2.7600000000000002,2.7654038533760286,0.8610769417712163,5.794976264695833,3.122201517696112,12.03863306603671,4.400870341809423,11.035505396211875,0.16889757283342988
2.7640000000000002,2.060913261564224,2.1957539292891397,6.254895660242255,5.246645499135184,12.518513333136525,4.411268584410664,12.242360290152646,-0.4467397558205448
2.7680000000000002,1.7872116519372412,4.63189835330104,6.494264772712086,8.015821680904537,13.346375591977903,4.556645574455615,13.924510883370658,0.26061412669969286
2.7720000000000002,1.5133324706450821,7.369003938189962,6.214842099674797,10.516429045450877,14.20845055795371,4.8975191053377785,15.09411325270139,2.1643285186305548
2.7760000000000002,0.9620390658064935,9.490652340419274,5.269744017025687,12.072424212786473,14.739983189528402,5.49967656198487,15.04991162579563,4.77774838161713
2.7800000000000002,0.1953224691392279,10.3246061850341,3.7574570151859916,12.551157946785679,14.62610947486678,6.366582252271201,13.702980261190987,7.414015367652155
2.7840000000000003,-0.426104349051343,9.674334904090074,2.010013054437877,12.350831089238,13.68748649793065,7.3901049802316265,11.541971471929173,9.402519681390004
2.7880000000000003,-0.5100757890651266,7.819213069733905,0.43674507494233694,12.05950399233734,11.914983937740999,8.328319267327515,9.266243458816007,10.286710010825118
2.7920000000000003,0.06745401569799014,5.351078159723329,-0.6423141569653126,12.039675485744283,9.484510708702146,8.878439342405272,7.353770231630733,9.948369639486373
2.7960000000000003,1.020437410068098,2.9419110084045315,-1.100959429859131,12.19010445096319,6.7429295423846725,8.806544058636973,5.838541180453376,8.61807455524604
2.8000000000000003,1.763431708918688,1.13625416829791,-1.0147584087003452,12.023878906048594,4.160724815813637,8.072970631015778,4.4118448708702545,6.781463305513171
2.8040000000000003,1.7415837654368715,0.24943737569378754,-0.5467245693637324,11.026669781414057,2.2577407816331743,6.88339115529061,2.774414495289875,4.99715021309521
2.8080000000000003,0.7650999602778938,0.33898285390273486,0.16789086107064577,9.038835091639385,1.4813414177544928,5.6009796964995076,0.9602460082708149,3.69355758158099
2.8120000000000003,-0.8335413991642326,1.2403321435854195,1.1036733818766606,6.437322982071009,2.0833761736139422,4.576398092533054,-0.587699791024761,3.020033005215282
2.816,-2.325197716764592,2.637988571665346,2.341650451048281,3.9858075593838294,4.0292908161700325,3.977190350413366,-1.254045903820952,2.8132265738561273
2.82,-2.9657469096215436,4.130606696652876,3.9581300042329985,2.411654310651329,6.956845894721027,3.70566430759618,-0.6786043479228283,2.6937082507342893
2.824,-2.4018517549077387,5.320776266871917,5.914396877369654,1.9801835418188602,10.225665515640685,3.4695907707473452,0.9215493927245006,2.2412729280672465
2.828,-0.9026182430790186,5.896005340051715,7.967188955420852,2.292491532271015,13.043759698942267,2.9472048529028143,2.7348154837593484,1.1755804803044612
2.832,0.7533713521369236,5.7148615672006144,9.711556362891315,2.4757691436414007,14.679562994955404,1.9854631715033975,3.705124484852149,-0.5242870388569827
2.836,1.6770092367111147,4.8639959667580115,10.730713035489316,1.6615905855453548,14.690644036298181,0.7053043017049276,3.065801178867787,-2.614049789319779
2.84,1.326085369393354,3.636128511154766,10.762676349635512,-0.517729832871737,13.090231545138522,-0.5463113545788474,0.742710664698734,-4.673011151704486
2.844,-0.1921790239815664,2.4494153530209815,9.846119084697023,-3.6660700562142665,10.393104595643933,-1.3462416863761746,-2.574589835207462,-6.237712509808716
2.848,-2.1658898629218015,1.7015724215992236,8.320122357510513,-6.776503297464501,7.474596938953482,-1.3849948140886,-5.750384546865234,-6.917663650516943
2.852,-3.6398188960188236,1.6146989151235402,6.689980463514985,-8.709231241298994,5.278451440689878,-0.5922355923257783,-7.728876987033118,-6.471497989536829
2.856,-3.902458437706173,2.1412932875779234,5.418747875670533,-8.7514883086576,4.4651458606329015,0.8443694203269843,-7.986218126258336,-4.847295533488705
2.86,-2.855212874479321,2.9494039204394085,4.709679183573826,-6.982922974808844,5.130275080917727,2.5482878175741916,-6.709113600215915,-2.2042928735006626
2.864,-1.0518103444194367,3.529613856380479,4.414840655988428,-4.244447235480948,6.738449628681337,4.070473252177862,-4.638023689085685,1.066711100718294
2.868,0.5833610248897685,3.3856441130368466,4.086455660742331,-1.7473471221926502,8.319492237543272,4.999272703617407,-2.700352400739348,4.370818940594063
2.872,1.2201270844132068,2.2516972903738406,3.184080696861656,-0.5043332294599168,8.877345868950215,5.058963825928004,-1.6249993227759205,7.0131855939055185
2.876,0.5279775887465803,0.24748695740913718,1.3439841414603961,-0.8724591664490617,7.8346301564074565,4.177717135041348,-1.7131373607082878,8.375900991501794
2.88,-1.189334981692923,-2.122422747029532,-1.4189227537524403,-2.434060250194989,5.3172220640544765,2.52896088562602,-2.8247014571757063,8.145056277914364
2.884,-3.1484638008532784,-4.117393900576303,-4.632591144472826,-4.2300773256807815,2.1506519569720695,0.5336648769721251,-4.501640568951416,6.481927003739202
2.888,-4.475530798443742,-5.0384639598100875,-7.5077730804462135,-5.250811148672824,-0.47642482145602116,-1.2453232880966425,-6.163554779838705,4.017109505938151
2.892,-4.607035680877175,-4.5158187151980655,-9.211045392370806,-4.91800958369754,-1.517287872657107,-2.2922841102106304,-7.2822315144055665,1.622142264755439
2.896,-3.505847539458273,-2.677213565706438,-9.168931623590879,-3.3372683111325614,-0.5104322050551673,-2.361080384459001,-7.501214206980194,0.038294771252367354
2.9,-1.6382364446354813,-0.1348434813020276,-7.311579631525774,-1.2377074844945355,2.227851861037948,-1.6299289299777229,-6.739628634927612,-0.4608189647906329
2.904,0.26282282871272855,2.2370700052534858,-4.117079848003641,0.37392279858636357,5.759225085886783,-0.6604854091690413,-5.241696246903302,-0.1991978820485656
2.908,1.5113179822313896,3.6352283227313364,-0.4602250797515808,0.6665833507420302,8.945136239468866,-0.14114325007267325,-3.534847216010803,0.0973583642714857
2.912,1.7459066896756212,3.651193495300163,2.723239589432069,-0.6289826941731462,10.950551107758884,-0.4985264477968485,-2.2436948615531946,-0.2613537413317317
2.916,1.0554257011181107,2.433923037167119,4.797720170038588,-3.080493133762843,11.571121524458022,-1.6025128173459962,-1.8112271662212152,-1.4946315081072044
2.92,-0.1039564194659306,0.5979187092378879,5.627029020299801,-5.72948556772792,11.225759015866743,-2.7547721012720103,-2.2645937965648955,-3.1606576499550556
2.924,-1.1387006812574327,-1.0730252858744507,5.552103197908764,-7.490399568301996,10.636336757576487,-3.0188879703996463,-3.1609554664004236,-4.372283954896147
2.928,-1.6098085005756957,-2.0047577536396375,5.120253265738256,-7.621447177999926,10.357725277744407,-1.7593995380266279,-3.8042611127207238,-4.311658661673391
2.932,-1.4439230621657089,-2.0920757926803617,4.742106580905443,-6.0436498734120505,10.433657757971446,0.9176933921414729,-3.6389604567344804,-2.7672633214237976
2.936,-0.9650392769278824,-1.7062163542817643,4.458160274592842,-3.3682472680064848,10.368759208934762,4.095270918134247,-2.5987258865650347,-0.3655372053874544
2.94,-0.7332516751855565,-1.4509200977973933,3.9405395639947756,-0.6120561619129603,9.443203073282689,6.453616453952918,-1.1867931059929333,1.7018331593221774
2.944,-1.2241519011779474,-1.7629160990763921,2.7874987168971757,1.2986139593955386,7.220232645350393,6.980700265787618,-0.16614550837277875,2.3266825179346142
2.948,-2.532571369413631,-2.5998637374333384,0.8907346716954407,1.9667168677771087,3.9314007709546104,5.574093023306659,-0.04277645231366023,1.1553049143890348
2.952,-4.258239251091368,-3.404225201216036,-1.34555614968599,1.6895197850692512,0.4992056263720315,3.176800689986294,-0.6627396968260655,-1.1396209076820014
2.956,-5.6705170078071205,-3.40148357535611,-3.124567780309576,1.236926019464363,-1.8810940926310877,1.2940584982100063,-1.2367631971596893,-3.2178391191935134
2.96,-6.1408986098550145,-2.1282558229096367,-3.7401075319321535,1.314025836182168,-2.426884994725583,1.0994748238442753,-0.8815004537265168,-3.912447863240004
2.964,-5.607855811059153,0.11012262966602293,-3.1351314456301225,2.008249229241642,-1.3413940054317663,2.6280958587432224,0.6157464121031353,-3.102458423939993
2.968,-4.816165124327654,2.126512668497071,-2.2146599670033993,2.5304213671544176,0.07278179022023323,4.539000354758059,2.28973624417722,-2.0696259001462067
2.972,-5.1109126508488885,2.2409882608949943,-2.6116507371039006,1.4782643534732642,-0.0782856383947319,4.681250598041629,2.175318208424528,-3.038115902579648
2.976,-7.801532673755901,-0.9426531976762362,-5.9196913292863655,-2.4463094962289915,-3.341721644076415,1.2206868745907968,-1.7775646892035866,-8.049638200073446
2.98,-13.376499314878686,-7.7172909492799135,-12.732980021863114,-9.596369229628863,-9.985724199802348,-6.238973632536954,-10.450669965265433,-17.697117162296763
2.984,-20.945814966643184,-16.807271491861343,-21.963349548718952,-18.83858989931207,-18.551684098090504,-16.151440196382737,-22.63368539754947,-30.413421069441256
2.988,-28.303192143859633,-25.588678042528386,-30.917628741661588,-27.697022411514297,-26.209683527734683,-25.492870005853547,-35.05414358949611,-42.76720938680717
2.992,-32.66081591186685,-30.970694602930507,-36.19651445292391,-33.18639498077289,-29.814786634846655,-31.008768156775886,-43.48044714040907,-50.71401073186064
2.996,-31.792432704670773,-30.599903666214686,-35.0866025284804,-33.02355086153398,-27.226310378469407,-30.66653898252423,-44.46319792324573,-51.26230882472521
3.0,-25.08870784642437,-23.881616600123607,-26.840317392651627,-26.68376719196698,-18.29590715338611,-24.594800293584512,-36.903544576765626,-43.76492265602121
3.004,-13.982626035036674,-12.329889474962101,-13.181486135328896,-15.767677362570282,-5.048047308034938,-15.029512882630229,-22.649197227383297,-30.232493527036695
