Timestamp,O1,Oz,O2,PO3,PO4,TP7,TP8,Fz
0.0,-3.346656285430072e-12,2.5579538487363607e-13,-2.2311041902867146e-12,-2.9700686354772188e-12,-2.7000623958883807e-12,4.035882739117369e-12,2.8563817977556027e-12,-5.4569682106375694e-12
0.004,-8.360937855552606,-14.76582952621969,-6.371925553214943,-0.6664208769459918,-13.054678661004921,-7.237677189291404,4.624164068572597,1.112390192170551
0.008,-13.642232873826217,-24.30913634440281,-9.721610314635626,0.2762379839697786,-20.797240749316806,-11.455933201295394,9.847472555448974,4.00010105326745
0.012,-14.142824317128827,-25.76623306100349,-8.468496298963437,3.6432407243199805,-20.47221117904558,-11.014621827048245,15.831629079668986,9.585502642323455
0.016,-10.206642610355118,-19.784351539617866,-3.1455340556497973,9.054845019540764,-13.078584076158265,-6.3364755732073235,22.112012978432958,17.490529305377542
0.02,-3.871956579793789,-9.934988623094924,4.019940447159939,15.122784788457523,-2.6226643998781114,0.4054290658829274,27.76316423869656,26.20290544162669
0.024,2.257780765417067,-0.7525704532973521,10.355355405858596,20.12950883404514,6.1331291629692615,6.406394351297024,31.837527172099144,33.75930302996733
0.028,6.2786080186582325,4.481546870841136,14.083201125032609,22.85380404061928,10.127972918053132,9.546840054621612,33.82851885425353,38.59268223998074
0.032,7.709653286784928,5.023753628964947,15.008975969213445,23.11407495573998,9.318119444416716,9.2302924123872,33.890737583326995,40.12766758785015
0.036000000000000004,7.362270038053445,2.455340792182554,14.241809451754584,21.7657549626623,6.226573679925515,6.377461032495546,32.69570046470959,38.867397268693324
0.04,6.544992352058188,-0.7104187005551665,13.235574702337125,20.18872204817616,4.144889582940998,2.688601906256494,31.02583359264854,36.00160009590419
0.044,6.180693600645917,-2.620444941089062,12.83006581272111,19.57246683798047,5.161758600721811,-0.3146000663662534,29.364127367513888,32.801471624093125
0.048,6.3549399239897895,-2.9453101895514493,12.866045308357826,20.374294678589607,9.130626101477532,-1.9306844252937623,27.71914324963346,30.123190745536583
0.052000000000000005,6.4776645101002615,-2.6430680815543113,12.527389381555253,22.207832893913434,14.039644045260864,-2.3316327457515342,25.77253609509755,28.23055847820394
0.056,5.844836933837186,-2.9660948179722624,11.09344920413616,24.169320660439396,17.385757792802302,-2.14247792097224,23.240887606055963,26.937450044661553
0.06,4.175496914590717,-4.460268589141016,8.551897209081726,25.380827937797676,17.63205578948424,-1.8891620541329388,20.217649354023067,25.91345727649756
0.064,1.8012562792916142,-6.562147000700357,5.6893294973828965,25.453903320333893,14.940892304945674,-1.6572232512809961,17.275076036354704,24.9469826758487
0.068,-0.5834015681617686,-8.02019177613304,3.6007544335410415,24.615040440484215,10.837360719249215,-1.1661721194841874,15.233012636251004,24.017998233266987
0.07200000000000001,-2.390240449661853,-7.8017122240584555,2.9635904560713264,23.46399686669767,7.134774494068559,-0.14061687411533796,14.711790334767485,23.189021890001186
0.076,-3.494648791099287,-5.859715928614769,3.5634528870024695,22.53559460075934,4.850703513971759,1.3212719342518255,15.724407213699074,22.424249581582586
0.08,-4.270600064233193,-3.2727134288652238,4.376746858368094,21.93904796902725,3.748128438728042,2.6452230681286437,17.559163656753775,21.491327524964028
0.084,-5.267073454135122,-1.6264957762976238,4.193651494678072,21.313488136953232,2.736285884979967,3.041476241974479,19.059556513549843,20.035180963842727
0.088,-6.7673383919013474,-2.059682517377368,2.379049411159773,20.11743424961596,0.7623803231229971,1.976524610426111,19.185210683339697,17.78831533395097
0.092,-8.534868864778666,-4.57830501338367,-0.700094450193248,18.059573544200454,-2.431792541929031,-0.45547152288533255,17.560325257148705,14.779803107758447
0.096,-9.912151839883954,-8.052321098217135,-3.8436837815667992,15.387315166205788,-6.160803775907258,-3.5021695228127925,14.704024783076584,11.39910331640398
0.1,-10.202358270715813,-10.870618090455324,-5.685618199087877,12.832839886179421,-9.288302083438047,-6.0897823171211485,11.792547777839296,8.26299468536925
0.10400000000000001,-9.065587327528995,-11.788550846187938,-5.427635872689265,11.259354571629942,-10.940366500064819,-7.320679849755223,10.086106723620425,5.963715646480999
0.108,-6.711436932921888,-10.4946388812388,-3.2319411627844197,11.197948067701638,-10.981558419411328,-6.870054504657432,10.314493098152617,4.829446217025776
0.112,-3.8118039563650896,-7.629757872071437,-0.08431398550038338,12.529707322330069,-9.999646225996976,-5.084570648882391,12.329914473048106,4.803102318048467
0.116,-1.2152447407318405,-4.3279681942644785,2.7552073106504196,14.499455180087956,-8.88077162498632,-2.7624998578702957,15.184314126218894,5.487975310194052
0.12,0.368239299302644,-1.6078182110186887,4.376391049581574,16.059424334549945,-8.29895999734422,-0.7619657378610754,17.586721265309357,6.333800943871779
0.124,0.5875526517993279,0.07187062959707191,4.617799746173397,16.375176551002944,-8.397588624956075,0.36710401148533833,18.524928911950248,6.8720165505411615
0.128,-0.48911442658862825,0.8702842281452732,4.048852201731677,15.209209843673307,-8.840276290538355,0.5537197388140243,17.720638319152563,6.891140385141551
0.132,-2.4541556408895495,1.2631053277873292,3.5749769925787724,12.974796633692236,-9.153411331662056,0.11671608205253392,15.695744551902756,6.470877465367419
0.136,-4.722427696152458,1.6112477831113736,3.895387358745655,10.444991368495991,-9.108599051471387,-0.5039309283026938,13.431627965112718,5.864114042317318
0.14,-6.712246270544593,1.8795399084108197,5.114502616041818,8.306460893018652,-8.881833983463611,-1.0121727831884044,11.8323819092981,5.310719634758794
0.14400000000000002,-7.972185558230137,1.7043862095082076,6.7133350176308255,6.850986243792342,-8.857955488169488,-1.3568391030014055,11.298554712208151,4.900120546813607
0.148,-8.260816449910983,0.7100398564949657,7.836841423590323,5.955071353344842,-9.261380370493569,-1.6576087688172905,11.615353078759625,4.541046981014677
0.152,-7.5968661454240625,-1.1731367410977498,7.723818197798765,5.3264804564900174,-9.888308880244313,-2.044777754812017,12.178257671247728,4.036916479430825
0.156,-6.2696262744054145,-3.601938800242472,6.05911570567493,4.822214509269209,-10.136694595361185,-2.5306472044775887,12.394524273057264,3.2159595194672157
0.16,-4.7722558619288264,-5.987776208538776,3.0842039626938487,4.59997025835802,-9.343404186516373,-3.0023320317801065,12.015976987921903,2.0363903787444073
0.164,-3.620392084910648,-7.784121160757881,-0.5215915930335697,5.010691890660603,-7.19143365785569,-3.312355176417938,11.228015334816803,0.617554677750455
0.168,-3.1444824713378594,-8.738793399301723,-3.928878806886532,6.287724898083859,-3.9628690877079435,-3.375358745944645,10.468170348087654,-0.8173112899828361
0.17200000000000001,-3.344122077555358,-8.96693860681177,-6.48066864680492,8.254097627205745,-0.4919610668024319,-3.2314366610619203,10.09517550271206,-2.0607289881071402
0.176,-3.9025684148534268,-8.829455156583016,-7.917000984183447,10.258955953587737,2.1634336701138928,-3.0358054340233167,10.109300663177208,-3.0486184226221056
0.18,-4.369454917464239,-8.708391246236818,-8.41966186356999,11.431729649361714,3.178801107060032,-2.980757624930561,10.123746727606488,-3.911567945003288
0.184,-4.379915240137006,-8.763530314348309,-8.438354636891363,11.154957338937272,2.3734848443875087,-3.192613036501065,9.619150007458721,-4.898153300893931
0.188,-3.823440217283398,-8.842623644314582,-8.416770550671535,9.467712321079055,0.34034419048060016,-3.6764627623891997,8.30986390643595,-6.215064395298121
0.192,-2.878934746298974,-8.608864094657164,-8.570042932074735,7.133807755843627,-1.7891893524738798,-4.344543208493931,6.400200732819094,-7.876563336242459
0.196,-1.9030399113905645,-7.804851583877813,-8.823110685200328,5.297845965712732,-2.84746481626026,-5.10010090680742,4.557525807586902,-9.647871255714906
0.2,-1.237486964188335,-6.493090764172543,-8.937201869039413,4.890401968310734,-2.183473780274479,-5.9110399992582,3.592692069186338,-11.119534134586539
0.20400000000000001,-1.0196822123094513,-5.067363247098541,-8.707126581462488,6.124575919701918,0.05338482305231551,-6.790920319280744,4.019426229174819,-11.870476674319052
0.20800000000000002,-1.1116683855834495,-4.031001665210262,-8.117665049972686,8.364381157670422,3.0160029905682038,-7.712627395072687,5.735493200758661,-11.643749791223552
0.212,-1.1987361093258233,-3.694460137879801,-7.384527147699005,10.428490223288303,5.564723495565673,-8.536371317638341,8.006255250403377,-10.461510722701837
0.216,-0.9905317529200666,-3.9655040940398436,-6.847282259715028,11.180083529951819,6.779861925003299,-9.020393057450647,9.782753773000206,-8.626992181761045
0.22,-0.4360712626187002,-4.3817728734780665,-6.788248465389627,10.074280542013732,6.325857437299506,-8.928335568809409,10.192792078306699,-6.616698779337337
0.224,0.18863345684352595,-4.348685268517304,-7.2568938964684175,7.391557560695436,4.544225105581516,-8.162663479788463,8.974598529508231,-4.911277359390919
0.228,0.37621608193058087,-3.4870387324426417,-8.028985996542978,4.044437467955227,2.214608771660286,-6.853773229333257,6.607486503783377,-3.849199083884141
0.232,-0.40202939424949413,-1.913173786706352,-8.74223927649059,1.0686579437587866,0.10366589033858631,-5.342873875883086,4.053714494025108,-3.564279278981033
0.23600000000000002,-2.4430548812635884,-0.24648767544627503,-9.104719053814316,-0.8911579836373065,-1.4173639317776097,-4.047165300526245,2.262976384092859,-4.008999891193536
0.24,-5.64118939928067,0.6630002846309395,-9.0638249087661,-1.8370535792490337,-2.504412799769561,-3.280146249268597,1.69288160641824,-5.03575100930361
0.244,-9.481330652136092,0.15673775183662642,-8.818920776858656,-2.3006671291219796,-3.655088019888101,-3.126344087667192,2.1132798105583106,-6.470857990916546
0.248,-13.187218161458974,-1.8611877400529622,-8.659147924934736,-2.950927328027234,-5.302838609875845,-3.429280247648734,2.8060250580622785,-8.135157064492667
0.252,-15.95332184014397,-4.780356830183459,-8.711605999941497,-4.1598539823231135,-7.407234733617516,-3.8775686824253306,3.051861541185385,-9.808298034934687
0.256,-17.18281847367393,-7.462696938286692,-8.760443996483067,-5.767006723056657,-9.299888390065252,-4.1271139098914205,2.6312982264156375,-11.186713855948422
0.26,-16.661442571811186,-8.72095008597328,-8.308666248202057,-7.173645988075805,-9.954329926741025,-3.912924736064223,2.013924759003812,-11.911174307353743
0.264,-14.620924338472811,-7.8788128014635515,-6.876125348482411,-7.70002416908504,-8.559408227939098,-3.1216274998877047,2.100372286347339,-11.684058115087797
0.268,-11.665371126277005,-5.119729010738311,-4.365609881077095,-6.9768576122662225,-5.068645934330102,-1.813764786272806,3.659761405988485,-10.414680871501737
0.272,-8.591958503387902,-1.4332635041807382,-1.272981726430193,-5.157244761895875,-0.39229645346066633,-0.2024731458216138,6.774174523807234,-8.309444634581471
0.276,-6.175611752670861,1.812208760651508,1.4139688842945723,-2.8479190530561773,3.9046578573834108,1.3902332825339947,10.633455118130218,-5.836299984469041
0.28,-4.996076979034735,3.4414186334791985,2.6035691426037637,-0.8145243756678084,6.254668746911886,2.57416267931017,13.836559429108057,-3.5591131909850073
0.28400000000000003,-5.350722334182153,2.9276013732385895,1.6111615009699394,0.3687720931615459,5.776717831564721,2.9737910293282184,15.071347767012593,-1.922567935365751
0.28800000000000003,-7.24452313142895,0.543577517920232,-1.4595341458310882,0.5511102699282198,2.6647393511376887,2.3744021167448963,13.816939756474184,-1.0836901344529277
0.292,-10.422999815881719,-2.810955198857906,-5.6606360482285325,0.023539279364769072,-1.9008808305982612,0.8793996814495841,10.681767214448138,-0.8763091095075053
0.296,-14.419262476113982,-6.008322099092323,-9.530740180983125,-0.6651391062462899,-6.281208688505641,-1.0256022567625251,7.159640800649745,-0.9402687582984921
0.3,-18.624887472411444,-8.156257074088067,-11.703618863549657,-0.9982324462632253,-9.11892759911398,-2.6068163884999436,4.893224316964922,-0.953201187149225
0.304,-22.388967072785597,-8.907829959143719,-11.507140411869772,-0.7400050639678124,-9.914189057371148,-3.199422327943415,4.828376910029917,-0.8321539723753135
0.308,-25.13203359821573,-8.48848813217366,-9.252406394654345,-0.030712182016904066,-9.153433577329242,-2.5519021615867796,6.728490353744402,-0.7738113989301167
0.312,-26.43238439341566,-7.437141890534333,-6.0566172426240135,0.7177902243762242,-7.9328101780840985,-0.9912997497208096,9.31943855770257,-1.0951415947686343
0.316,-26.082220753765107,-6.239312690543055,-3.291689203042085,1.0581934414756793,-7.316012386709662,0.7103560695684905,10.996398788190328,-1.971421271375048
0.32,-24.131984899857056,-5.093358871981454,-1.9413933510580428,0.7397203062365021,-7.806540728669405,1.7233486819169492,10.702803253703827,-3.2399173034724376
0.324,-20.912866963948957,-3.9282359332398276,-2.1899376486770423,-0.17974138076082635,-9.204690443956931,1.596336643671851,8.49098245840143,-4.410050097955122
0.328,-16.996636660676785,-2.6200360225393373,-3.4303704518781464,-1.369082282300659,-10.859066169096913,0.5016428229037615,5.468232902552824,-4.888362336241596
0.332,-13.078611366217121,-1.2214800071752103,-4.640484770702964,-2.3750406862897604,-12.089333305339148,-0.852942253512575,3.1791553225543048,-4.290749623571951
0.336,-9.801726769011733,-0.03386535157162296,-4.910199309865652,-2.8090979775353384,-12.511790859677443,-1.6133288765102147,2.7866248115155354,-2.6594919994773214
0.34,-7.589816217194419,0.5059602482620704,-3.877281346697246,-2.4995632295009163,-12.130365278339887,-1.2603880768687858,4.485154240878001,-0.4593146929019536
0.34400000000000003,-6.548033671194291,0.06445333882042625,-1.858229195494185,-1.5598698149390948,-11.19187754453023,0.09282225094370311,7.454111139734174,1.6505491280734441
0.34800000000000003,-6.4516685534406175,-1.3510236361081627,0.38098922012516334,-0.3418810761606559,-9.935791961543066,1.7845588130236152,10.353953207357138,3.1429171160738276
0.352,-6.835203321181402,-3.3014511539349045,2.0771597974218627,0.7065160936489407,-8.419175404518569,3.0275758711133465,12.080539977826303,3.8626424959054813
0.356,-7.153014578036584,-5.048750086180954,2.88982511604009,1.2236392522101331,-6.537273719839168,3.4069454550856664,12.333513606945685,4.042457623212504
0.36,-7.002247628233633,-5.899176839899064,3.036502391508732,1.0571191352072642,-4.249273029691645,3.1259598070053523,11.685467000896725,4.069859541278578
0.364,-6.3212214811897205,-5.571260664736166,3.088754603824021,0.2982109968833502,-1.8263302246495083,2.8456460703351585,11.151366816375129,4.161371877577433
0.368,-5.4414592061691005,-4.36319864434818,3.5781748812134477,-0.7558820453341601,0.10420113329406355,3.215662658075299,11.541794978142503,4.173860122791385
0.372,-4.937739940551088,-2.9943173410042743,4.661158638361883,-1.6823166642647083,0.8108403679707994,4.401214663068684,12.988443629252432,3.6934581680420413
0.376,-5.3393625118179955,-2.211585723468236,6.03493671612207,-2.041921614363095,-0.11736155563893558,5.915801795031548,14.895287610619128,2.356503342058266
0.38,-6.843385662730042,-2.4108537200389475,7.128720745575507,-1.5097914372326766,-2.4540311629615137,6.86610312406363,16.3059365753439,0.19042883502813623
0.384,-9.1623613912251,-3.4676483995843594,7.459805172182126,0.010181860042345114,-5.3281532434619745,6.478356483058452,16.465147004213996,-2.2600060345541957
0.388,-11.607258528628613,-4.863381722795778,6.9410442900880165,2.313613726727839,-7.562661116437807,4.585840623673142,15.248600210766824,-4.1346229293616235
0.392,-13.363393578392033,-5.991794766692854,5.972078597845218,4.9183147965403915,-8.180773822863124,1.792405011276733,13.227654673186553,-4.6945904382874115
0.396,-13.837675021759964,-6.454702378655355,5.258642937677365,7.20282915926348,-6.816981688272322,-0.8017139320246808,11.351413514932567,-3.7519148496570134
0.4,-12.924365808324229,-6.213333538727128,5.4391529638389216,8.613304220816715,-3.8482580954820076,-2.1787019069189997,10.432528064281652,-1.8296849606424779
0.404,-11.036970649251106,-5.51046051533427,6.731936165332632,8.878203434395887,-0.17387813386257944,-1.9542746387488634,10.732949427707055,0.0799912290917808
0.40800000000000003,-8.89284000944982,-4.640738250469567,8.80083666277913,8.127563766655193,3.233944605348915,-0.5733989298977878,11.86063242768823,1.0346659903659576
0.41200000000000003,-7.158976142171994,-3.7267796103386237,10.909072410409593,6.845606947372124,5.777974097039959,0.9643040644340994,13.03166113316501,0.6537186960756332
0.41600000000000004,-6.151849119365261,-2.6579939270044584,12.278255728555934,5.651685685437611,7.448864543259426,1.6862992528695506,13.545360767720426,-0.6727691059116596
0.42,-5.76989363879735,-1.2735738491222177,12.429487589603527,4.9796179455560505,8.663530072395451,1.1856436321008503,13.1811970304378,-2.0287199445709323
0.424,-5.659042702333409,0.36160959749907073,11.343534284953446,4.8247859731235065,9.861581228557528,-0.18730995218510138,12.299038525423335,-2.5340972633899685
0.428,-5.494393886082723,1.8025702327623385,9.389967245617449,4.705860006586673,11.120903206416392,-1.5610610839019607,11.605584102705535,-1.8925651076620325
0.432,-5.18007084980198,2.362001040840619,7.115455246434433,3.9091516653092855,12.049741703506548,-2.035374615368419,11.727684879401576,-0.5829193363113943
0.436,-4.847832149276621,1.505142593334611,5.0321140767287496,1.9079243866620463,12.025568195739393,-1.1542081267522573,12.829741404484393,0.4250180803060175
0.44,-4.682333678026051,-0.7490466484240623,3.4893574161003786,-1.2725103507439535,10.60856032987734,0.8778937382702112,14.48065316483386,0.25798990399175104
0.444,-4.711413055122245,-3.68068663951586,2.6709839231124537,-4.9515182720338835,7.892223333857027,3.3205606800485574,15.862945173412347,-1.3163607761295282
0.448,-4.720639380075342,-6.102143700925145,2.6622512091259756,-8.037836934404517,4.580813126812325,5.272799657292126,16.224009616320348,-3.7113649265588347
0.452,-4.380664571803827,-6.889283567905636,3.500961438179313,-9.523972480392311,1.73895702372613,6.084644273263814,15.324484031137466,-5.820740925876466
0.456,-3.496434614573977,-5.53388774046666,5.162653671250829,-8.969576553817125,0.3423575954770266,5.594055475972564,13.642546750240387,-6.621491771220381
0.46,-2.2168822576582192,-2.4389638041519044,7.479508635178129,-6.720109157037476,0.8352406545811468,4.113200647041284,12.194323478098182,-5.731200266067329
0.464,-1.0365791430319464,1.2294482461216,10.08061511502721,-3.7400266713634025,2.9210633219991506,2.2207228013946514,12.025682898743046,-3.6039615666972207
0.468,-0.5431603951473749,4.081583460442604,12.433337866481232,-1.138849139509908,5.694428449237022,0.4991460586086567,13.631523317248362,-1.2598520064861205
0.47200000000000003,-1.034093890145526,5.182667480131114,14.017397572992138,0.36769861681486127,8.068576969356204,-0.6472075257277328,16.62521234237295,0.29878030359935437
0.47600000000000003,-2.2565366459221083,4.502908903651879,14.545894878873023,0.760032224064354,9.273255387063687,-1.0655364439864887,19.850758270699572,0.6305546940822744
0.48,-3.4925077011545556,2.8582637579154997,14.078667056048673,0.5987477420397811,9.140029599961862,-0.8461326152368116,21.88807778091875,0.035616519877610386
0.484,-3.9495835773128194,1.405766301040563,12.963407110416917,0.5916103152546293,8.071440012409202,-0.2848389537702105,21.726456522881662,-0.7002347635452253
0.488,-3.2444792517141003,0.9822400977907115,11.631508296171088,1.103746005539775,6.751504982630888,0.18976464858386022,19.27558529451181,-0.8097998495352066
0.492,-1.661488370132832,1.6815974709232258,10.383638870605305,1.9200906784111131,5.78868634806627,0.14386058962987458,15.444922858094266,0.018218825292308338
0.496,0.006763937653792906,2.9015412214295306,9.29674187893097,2.4033268839209674,5.4791447721962365,-0.6782066222276707,11.734044625046709,1.5189704559456487
0.5,0.9554407308125077,3.777019379453664,8.277632186958906,1.9347086883719316,5.752394780706318,-2.1898427113862815,9.522118455214141,3.080342051701045
0.504,0.9056637481815089,3.7284476098601065,7.221300968969601,0.3637185706996813,6.278131561913014,-3.9235192391565374,9.41572996219341,4.139607551567221
0.508,0.34177903071383753,2.8064609125133355,6.164949090821995,-1.8063698647957427,6.652773468767435,-5.173168416136445,10.985595318619582,4.500850921997175
0.512,0.2698310148740317,1.6417085032762602,5.321290033959324,-3.61802923345369,6.565515259572955,-5.295922813402704,13.018937005777673,4.388974363107678
0.516,1.604694101224565,1.0432468202823415,4.9597432720999794,-4.140404571800107,5.877181292683572,-4.052306351158647,14.14540250464761,4.233516798142034
0.52,4.528366977107488,1.4785993694892525,5.194152224093408,-2.9680098271434847,4.598794566152094,-1.7902139634107401,13.505447811240419,4.352690290537135
0.524,8.208984929149004,2.7425130860932643,5.824361978618385,-0.4670564179440464,2.821107554969946,0.6501548484066753,11.11661130598266,4.744249910369415
0.528,11.098246337966787,4.015160132081397,6.357545060369185,2.3648044190190234,0.6659252767968278,2.2975084322574677,7.7760438475851705,5.114461127010205
0.532,11.705459403771457,4.301743229333697,6.245988168910774,4.359383681731105,-1.690554891146614,2.524494391897506,4.599351135463089,5.114447633806275
0.536,9.423334129778695,2.996549427855228,5.221421896555912,4.7133712387305255,-3.9613604783733436,1.381829676975681,2.4797617188412158,4.62022507671867
0.54,4.923362114241806,0.2304454298214491,3.514919540916461,3.321112047844446,-5.749870170877079,-0.418375904838058,1.7493254917464789,3.8593558553615583
0.544,-0.10614693682630616,-3.174190109798026,1.8173347635624797,0.7755309441007281,-6.6399956693375,-1.8749791118836043,2.1859552748461155,3.3066630223210893
0.548,-3.76497407910308,-6.108392044424676,0.9660064812134106,-1.9302134018727877,-6.350434293459816,-2.2355245760653926,3.306780093651817,3.41747888197456
0.552,-4.849351129533684,-7.699217081269822,1.523151214793053,-3.8286813487518927,-4.868681811604571,-1.388309929082542,4.730752145279794,4.361279649485731
0.556,-3.382653591614506,-7.667102788796678,3.4719642527796992,-4.338532446042384,-2.491081383065204,0.10324198254995132,6.36828400933496,5.9114706582064755
0.56,-0.5266206456214348,-6.386428584078972,6.181751757187003,-3.445471851422525,0.23383993189287855,1.328597083311804,8.32667320747311,7.53803519390674
0.5640000000000001,2.0595591736808867,-4.648130944877662,8.670407738893386,-1.6624784888178272,2.64707268741968,1.52559245381387,10.623405290547009,8.638499144223944
0.5680000000000001,3.0483338953347676,-3.271898517413608,10.041194068790467,0.18505776679724129,4.171388134538999,0.4706052662386413,12.937901728049601,8.78933454037606
0.5720000000000001,2.0381425820101886,-2.7465919891635897,9.893900582852382,1.2780851290087356,4.504795841856619,-1.4303130923226668,14.621187632712061,7.916722636819471
0.5760000000000001,-0.35286391783740045,-3.0513438705103098,8.505206443687106,1.1283258198238073,3.7441175360585675,-3.3698487778068706,15.006210700552764,6.332566002468262
0.58,-2.8930354548321215,-3.730672232005693,6.670715891392941,-0.2019871238200639,2.359971806290236,-4.562085461394847,13.82673911905413,4.628274967502685
0.584,-4.399966077406684,-4.149390786014131,5.30273643454368,-2.076167675118597,1.0177710423781043,-4.605676870267083,11.479565251090813,3.473208006487992
0.588,-4.310952235541501,-3.8037819122902823,4.983215333423697,-3.5037414354866674,0.29630526244719224,-3.605683506053417,8.927947607728287,3.385106861462301
0.592,-2.8798782540162398,-2.5348035220136196,5.700859422537414,-3.5529198489695775,0.4280209074110113,-2.0341433705153387,7.252722055231759,4.543081800386224
0.596,-0.9584343968345475,-0.5657073191888289,6.905080233107847,-1.7925083143102412,1.193087444215628,-0.4326408541425817,7.101723094487657,6.713431669432253
0.6,0.4495973491673215,1.5933221956964907,7.812973259460349,1.4322307607954092,2.0056467794016353,0.8475071654608621,8.347590063793836,9.317938240454705
0.604,0.6392775611063755,3.339529071344287,7.8115570965586265,5.072825050283862,2.186056616567871,1.7244250820138896,10.165856884420279,11.646010115356859
0.608,-0.5258291868175551,4.199461812036674,6.752775009430579,7.823692468369635,1.3050957454802088,2.299789206060231,11.50549188876456,13.145200584515987
0.612,-2.607609897948553,4.011652772268647,5.0121384633402695,8.760984948215812,-0.5507535962859329,2.705584677467756,11.68579024799135,13.67281162955134
0.616,-4.81517952680797,3.0107260083590526,3.2976673105887073,7.844924070713318,-2.744589788431087,2.9816788368744973,10.760308433858569,13.567808572692247
0.62,-6.348426534223931,1.7456687908196653,2.302812943444748,5.991078818450519,-4.350588425471034,3.0470582125245076,9.406804454193498,13.476835667387846
0.624,-6.730804944593132,0.8572982390559756,2.38756746267606,4.633351763542409,-4.590596004124468,2.7549701685221897,8.437556236837477,14.005123834564461
0.628,-5.996687157583249,0.8161149167530797,3.445275825836966,4.986465372839747,-3.2171261475900126,1.9823376551644416,8.256171834948892,15.380308459498114
0.632,-4.646494610756637,1.7567847949312219,5.026373354632888,7.414746032720686,-0.6150114593903786,0.7014023025334035,8.62128779828407,17.331142465512976
0.636,-3.371481730615379,3.493934357905821,6.644028672857606,11.26647811996402,2.451195502968159,-0.9763501006377062,8.894429714869876,19.26177668015717
0.64,-2.676120381685079,5.677087020746584,8.059040272454308,15.255502770946826,5.273960073932206,-2.7992934755135668,8.604656856901883,20.611255970655105
0.644,-2.575603463585338,7.992008895548493,9.378300168572231,18.16493810441118,7.555338047954489,-4.4191089994556325,7.9452373099242495,21.168989004512973
0.648,-2.5606843380405286,10.262494737293729,10.887057116121813,19.434603423763345,9.436216831739499,-5.482991790894641,7.784441687969738,21.11717047597015
0.652,-1.9012443065400018,12.391820982869323,12.703143626597342,19.276292877907615,11.177013131678533,-5.772952856957559,9.08978517036429,20.741776569265706
0.656,-0.17349042668818315,14.185711806873467,14.461050753053229,18.264513772092005,12.69437850085906,-5.357926060894007,12.08226360518105,19.994432626726674
0.66,2.2751191120402505,15.184696144271264,15.2370303335343,16.69334213789631,13.259015259638218,-4.6844663906254596,15.652657909507194,18.21891847890096
0.664,4.22082190534066,14.67991276701587,13.83921757565641,14.164257020986586,11.630200651678617,-4.510889930087837,17.51858660473273,14.302799933484145
0.668,3.9900470324806854,11.980615625673993,9.382611173640356,9.753670990389093,6.648555428844106,-5.634084615471681,15.213519980214322,7.276022308469271
0.672,0.32734001191957995,6.872464292886306,1.905950819568032,2.7383037778828205,-1.9635674933614085,-8.482097183632316,7.479347404255503,-2.917652126903776
0.676,-6.722002814199943,0.013799631292086056,-7.308328585786654,-6.554120802447605,-13.043829614732159,-12.754049340759508,-4.696353078686226,-14.920861352183358
0.68,-15.45311248456126,-7.031292303215057,-15.96141492348777,-16.353484826067458,-24.07764562652791,-17.34472752648772,-18.04698333928647,-26.103033792228416
0.684,-22.961084139901246,-12.238156928260949,-21.496523458978555,-23.873211059963324,-31.998535690462262,-20.661979665041898,-28.164290845843414,-33.39738470153312
0.6880000000000001,-26.313053923106047,-13.913999414519036,-22.097145162928122,-26.452623590684095,-34.38241444559335,-21.247894547987062,-31.337741898377324,-34.489603123803185
0.6920000000000001,-23.89643337810071,-11.46969950424552,-17.470096387853015,-22.85024546754059,-30.464925252405727,-18.4408169836778,-26.208300528594307,-28.796174836037306
0.6960000000000001,-16.24721564442268,-5.760064577991287,-9.0281335460135,-13.978633611482103,-21.482356164071728,-12.72027424476634,-14.400132130641769,-17.750372046190456
0.7000000000000001,-5.912254921428042,1.1946250634741888,0.6305000856905141,-2.6456754355992875,-10.181572992200843,-5.553762010913333,0.19279317273710062,-4.253116670312045
0.704,3.65063906956426,7.025317541017163,8.743263651120772,7.630324282229254,0.28110129663399075,1.2008422001279127,13.110807653986372,8.444051859428214
0.708,9.609553487269718,9.99180460086956,13.44643983770999,14.146341394127036,7.5291829645960195,6.055445931624414,21.17664317197307,17.898810279352144
0.712,10.962926712041387,9.667330732661785,14.411231748788602,16.109902165942067,10.72870544778337,8.430695718805396,23.60903206174799,23.165602384653102
0.716,8.815862718061009,7.011303516478005,12.780804799873616,14.766668099292126,10.63486676994776,8.737894931954367,21.920547198577555,24.767671420159402
0.72,5.594686585520517,3.782911295896974,10.454936220030223,12.524921797779266,8.964116222335587,7.9906951418263255,18.768976355749853,24.075619009571607
0.724,3.6608189359230785,1.621945520366546,9.109346357601112,11.590575961724877,7.469388862567984,7.182563728961144,16.451507601904638,22.487576171360004
0.728,4.098508137908881,1.2709649490487607,9.43555568264527,12.853972292622844,7.179764025142967,6.796542959207401,15.843236204972499,20.83244336799213
0.732,6.308605626593679,2.3263221753277987,10.95533406905248,15.591054910220445,8.126972748743489,6.707044035480893,16.25824870135257,19.223655387853402
0.736,8.555705263012563,3.6092438060459147,12.450046820384019,18.061612161771045,9.598963714826793,6.469965277379074,16.178565258058896,17.322966067701035
0.74,9.100203367069845,3.8973472537075136,12.719517768236514,18.598108912936972,10.679927640181722,5.7654749184351735,14.339362762268316,14.768724215269499
0.744,7.239984076981245,2.6026999527800876,11.254144772841897,16.551888102827252,10.760580638673066,4.697030739243708,10.52865760615783,11.493173422055374
0.748,3.6715364570936364,0.03502078310760337,8.464993011051702,12.59151474462777,9.77309022257876,3.758056390843526,5.695676007041629,7.781808230455817
0.752,0.018129620368024568,-2.8451188870750177,5.392540333420738,8.252488440062614,8.10074879774201,3.512812799369768,1.4020204897337987,4.11427778522213
0.756,-2.1205701825596392,-4.98935987453579,3.105476037665867,5.068331499174737,6.294564794682422,4.211183499785744,-1.0087717203251132,0.9463416767254653
0.76,-2.035205598298358,-5.818940182851215,2.1322815284245253,3.7938019993847725,4.770905239695459,5.597980866557172,-1.045830530232653,-1.422184746737659
0.764,-0.21724993023699923,-5.468470490812967,2.243310951617114,4.1320835830418154,3.6537349809675406,7.0532955781232864,0.8089157169770389,-2.842127507320611
0.768,2.0162778455185544,-4.611216863282609,2.680127872827298,5.0606692913443485,2.8124437992216955,7.955909344062929,3.4783711291825967,-3.2269180255360466
0.772,3.3203837922142956,-4.0011940454383215,2.672208259932419,5.524050286825357,2.043758983228092,8.039976174784204,5.8814876019368905,-2.4890708114760827
0.776,3.0421921806097814,-4.026859893231948,1.9254392369706181,5.0529086169541415,1.2647622150925142,7.517345224317374,7.397624872838841,-0.585675933036585
0.78,1.4738320524160908,-4.545027228919401,0.7904353260269601,3.969166530808498,0.585364434981754,6.880755993370281,7.988622022387219,2.3506568578305016
0.784,-0.42454332590255817,-5.047049724428251,0.03411362698616882,3.1137020194425578,0.24401257948806432,6.534674410461938,7.998975673275078,5.899545760897714
0.788,-1.6175082470489626,-5.038496254100553,0.3449126269870981,3.274797964030305,0.4315182771211905,6.497443054374131,7.821731357132068,9.36067862707893
0.792,-1.5436214520984937,-4.375405532195376,1.8764842099825745,4.665697832526625,1.1203658026976413,6.382358141945462,7.6677975299090555,11.927364548491289
0.796,-0.3128646731327649,-3.336635469238558,4.103824470358069,6.753326570154698,2.0153641095770656,5.689722457495811,7.542902442712823,12.970518161860717
0.8,1.4817819035253503,-2.428716045759333,6.058582124851707,8.505669265499622,2.6417405224959563,4.209051076804377,7.372123036360555,12.299627769053659
0.804,3.1535856428369433,-2.061190534842291,6.817801089553479,8.909051587334215,2.5405036888047636,2.258736832717337,7.1356424650503225,10.256303271321496
0.808,4.248553934518112,-2.313459204524646,5.9647048177948125,7.466860193454938,1.4672996523738668,0.5769149688442641,6.890640116171673,7.574341589565764
0.812,4.662669405649149,-2.919433632008868,3.785853093263521,4.442463950889705,-0.48212842628615893,-0.09188378218316806,6.664475696602821,5.062931810171491
0.8160000000000001,4.561251400533621,-3.454180390267174,1.1192589594915083,0.7455601193174988,-2.878244759207299,0.5197105120547078,6.334304537271224,3.2626573466855486
0.8200000000000001,4.2085636227032595,-3.606697216814135,-1.0492376499750007,-2.4666015282577187,-5.1025661220443945,1.9522884432948389,5.628234882382046,2.247513576291858
0.8240000000000001,3.8393218280420585,-3.354630841995837,-2.0128530506738027,-4.268655724443882,-6.560219621622705,3.1975519325599717,4.2867450005189,1.6659588314722475
0.8280000000000001,3.6306564282454827,-2.9511180803083352,-1.5976389611952606,-4.313899914276403,-6.881977192207501,3.228393757843585,2.293138557424342,0.9883284453180629
0.8320000000000001,3.7202638253344222,-2.7490826029849287,-0.1453843780466313,-2.922082944143189,-6.034889994921565,1.5919414093261561,0.015878146900051737,-0.174759368437162
0.836,4.219910494041139,-2.9737523815419658,1.7283605796428887,-0.8762874463905064,-4.290745727769707,-1.2835914206371304,-1.8669332155073248,-1.8413901888371065
0.84,5.1619565951606,-3.612704376485615,3.4165419517680675,0.9384354658476592,-2.110980932948298,-4.256920011143299,-2.69059119922339,-3.6494476917869427
0.844,6.4204296666398335,-4.472895600207639,4.50283775333575,1.8853647826384705,0.002622756451754249,-6.0601087778932285,-2.204977325158608,-5.068578856110932
0.848,7.690681717858951,-5.352447229611322,4.788378597346066,1.7690265619722272,1.623403477411257,-5.982932510227253,-0.8174307535454313,-5.713252698782785
0.852,8.578411218508663,-6.187488012294629,4.224771602751845,0.8139112836570046,2.468043648698706,-4.252710376855388,0.5002633307987474,-5.5793370244831655
0.856,8.7876931638482,-7.06633775296147,2.842576356172728,-0.5265460478215687,2.4296320725936322,-1.901842053402064,0.6493087346061293,-5.068755349083682
0.86,8.28316988160787,-8.123161955644147,0.7321788120682413,-1.833818181002357,1.5717826271766928,-0.1952444594570535,-1.0271742510238875,-4.786715800653392
0.864,7.301963023014942,-9.386588961979847,-1.9225017073302428,-2.9265880972635845,0.09667504996789855,0.06054351294678062,-4.357262885835832,-5.224647927441233
0.868,6.203833030211161,-10.705090040501712,-4.814197094506515,-3.9025622264540525,-1.7181982261094264,-1.0795464901773366,-8.371393835460912,-6.502739452668956
0.872,5.246230554062572,-11.802178581818985,-7.539947654030911,-5.014751615698518,-3.598461634596183,-2.799644323991923,-11.757751940348028,-8.31268871322038
0.876,4.410050087827766,-12.431126297226632,-9.705495890342208,-6.462348787890505,-5.351258397772662,-4.05200484691926,-13.508983691681468,-10.082451145700945
0.88,3.395184930573835,-12.548233281745937,-11.070110479011477,-8.226149800465793,-6.92193667787724,-4.2011365838430175,-13.422243331156068,-11.27419974400264
0.884,1.8300231135656395,-12.37430783507947,-11.641860427062674,-10.034403110700673,-8.387751864308044,-3.3966358844770834,-12.182461451351692,-11.659739154048966
0.888,-0.4330880129464951,-12.307784160298828,-11.663083443831328,-11.491638688588614,-9.874541197741104,-2.467402929640212,-10.975382333471906,-11.42034168426721
0.892,-3.0988128250551323,-12.71359103334581,-11.475561391974711,-12.284702260807649,-11.411057252474626,-2.4089016738182076,-10.834219738688423,-11.020064009222123
0.896,-5.432624675331372,-13.701633878503044,-11.334585567951912,-12.349921312777868,-12.801647609315031,-3.762579224046709,-12.092357624878968,-10.94582720706162
0.9,-6.532519233152195,-15.032606419743278,-11.274676332009008,-11.90257379118776,-13.614329074747204,-6.274797241437612,-14.231714698719784,-11.457852222732383
0.904,-5.748934130555487,-16.19181866596245,-11.092381652572392,-11.304871358810129,-13.32039306805429,-9.02739012805975,-16.19588879285449,-12.477035444792374
0.908,-3.058373582316823,-16.611850776223207,-10.464520399713308,-10.854835573792611,-11.558031888086417,-10.941789390282107,-16.98702797342591,-13.651254792978492
0.912,0.80310042801174,-15.931801584095155,-9.142149549802989,-10.629906974899669,-8.3987351307598,-11.348316366662797,-16.213827618920956,-14.545716334701
0.916,4.559851654637125,-14.148833546735595,-7.115164873769408,-10.461904851234118,-4.447175095654113,-10.285461717998999,-14.288702650094178,-14.837445263111027
0.92,6.879759874860506,-11.611960118799656,-4.679755109958795,-10.060598333061336,-0.6934528796343606,-8.38717107847496,-12.18779722494958,-14.42240864873046
0.924,6.916763255128124,-8.865770283988406,-2.373575367730419,-9.208205757250507,1.8483288159502944,-6.454760742746354,-10.936681869836251,-13.411048105660269
0.928,4.665449441259858,-6.4296072719837385,-0.8052491314979866,-7.911948682161203,2.5592035634330026,-5.006668956380592,-11.11287543216287,-12.043056064717854
0.932,0.9771061909035956,-4.597600887492313,-0.4275860103317388,-6.413625861088223,1.50369523239784,-4.080829700658201,-12.59909368487542,-10.574527649545107
0.936,-2.780649805115924,-3.338798940833853,-1.3355125359930664,-5.048948262230034,-0.561965075243859,-3.376461082488845,-14.683348399659987,-9.186817416232056
0.9400000000000001,-5.284688723040178,-2.354873493283624,-3.1832658833068503,-4.057958910360119,-2.508007064176395,-2.6013376997841053,-16.414909773669965,-7.946249532416798
0.9440000000000001,-5.776369528177122,-1.2608022762970252,-5.270442944685206,-3.4650919731430054,-3.3382322698840117,-1.756790726196665,-17.01187065284895,-6.808673682569393
0.9480000000000001,-4.322427962686001,0.18878668340244165,-6.793197396627734,-3.0986929166438237,-2.650323942255972,-1.158441365482965,-16.129867853374428,-5.650124740108284
0.9520000000000001,-1.688202143649633,1.9548000336000442,-7.1632744780473345,-2.714412555863804,-0.8141427204939675,-1.1745703417437672,-13.902936387006754,-4.309737953500367
0.9560000000000001,1.0909758027976393,3.726147098071694,-6.2642353142322005,-2.128225733307901,1.2294567149232458,-1.8800730110204702,-10.80443825082515,-2.648745139525283
0.96,3.194742178122725,5.0705036665684915,-4.534069977835607,-1.289459846348401,2.4370858582146666,-2.883739965011864,-7.450261855626874,-0.627424599559891
0.964,4.3518425186319085,5.681590246340523,-2.791744461969082,-0.2344019889852902,2.184108949933524,-3.4881584286071083,-4.421585350690394,1.6349047529837852
0.968,4.850968631346874,5.572897859489448,-1.8755733792565707,1.0096589532799807,0.563729072682789,-3.09294256737254,-2.154533992419803,3.8539815266403714
0.972,5.2423873710736615,5.105188455474504,-2.2571814044715977,2.461875635438582,-1.6856274878878073,-1.5893106956125926,-0.8860306163654235,5.650070799799492
0.976,5.9478316292380855,4.838695897050961,-3.8016639562273165,4.130323494077118,-3.558085171782427,0.518378887344136,-0.6237028804162592,6.6876841743302045
0.98,7.0139199172022835,5.255270275228405,-5.812190999260289,5.892776325137071,-4.276235910061362,2.361903408428091,-1.1451329785736846,6.822436345561098
0.984,8.138308452889255,6.493753938902182,-7.3493952245452565,7.418356548705287,-3.6453479358981173,3.1929187892707502,-2.0612940547002414,6.174551683693798
0.988,8.938039983807794,8.249370485966192,-7.673740651642959,8.239494553334003,-2.0965083126012045,2.809180244444624,-2.9511502010804023,5.08660104656437
0.992,9.283804837049738,9.906950756926609,-6.5798445093289875,7.992557749236007,-0.4028965775987219,1.6513525605110324,-3.521946192473317,3.9785676666941345
0.996,9.479037629626072,10.85171031172137,-4.448121166911749,6.711826596348798,0.7660478063601204,0.5239041509088711,-3.7231955343831244,3.1740088966893514
1.0,10.142654093743673,10.785534642063817,-2.0075285494274038,4.96643816533118,1.1871813242198295,0.11904860825121277,-3.753932632749809,2.790383785611655
1.004,11.856731079105685,9.872159551788709,0.05513565524576691,3.7051276949877936,1.153878758160186,0.6231876061301733,-3.941035192732477,2.747192957922478
1.008,14.767909823206846,8.602291947014816,1.399634195450464,3.816514898541868,1.2331777476417978,1.6459483600569276,-4.547533030877714,2.8685206170128486
1.012,18.39565359693453,7.465068417448803,2.0836774995988017,5.616805536931188,1.8719377379979378,2.5023050092666237,-5.620680386268466,3.008912745894923
1.016,21.777988478836377,6.626854359603493,2.369891545478841,8.563840371283545,3.0954150260635473,2.6679068140508186,-6.953043627209771,3.12299223461347
1.02,23.876554100106844,5.803845277711314,2.4261204498053113,11.401742818372442,4.457352739557093,2.104812675754965,-8.170869728676788,3.2389288427100764
1.024,24.045571407450318,4.443071140256432,2.139067046082446,12.729894983057697,5.281892103807621,1.2708139127223368,-8.908791231338903,3.3746152037590833
1.028,22.324369022894935,2.123764912028355,1.1782793689756916,11.739402139782225,5.048974063263666,0.8333773091696055,-8.963483352863355,3.4780264419917777
1.032,19.400056384865877,-1.0633832319524692,-0.7259495241841547,8.714681739163566,3.7042932539398663,1.2721501300551172,-8.34420264607769,3.44888217335755
1.036,16.278541715105,-4.397899485080504,-3.473741826595871,4.992289734000822,1.7200991562684642,2.6103179675982,-7.211758373243699,3.2379513399484123
1.04,13.854433654333024,-6.786732317417721,-6.479641083595968,2.3505895360061873,-0.12627051416817991,4.429156755279745,-5.7651272309173995,2.955081508946088
1.044,12.607441200819508,-7.284679075851573,-8.856909732105485,2.1359429869291713,-1.1267121853163289,6.134176367779309,-4.1394565533786345,2.8948032135787694
1.048,12.521937179060773,-5.628363658472345,-9.835654149505084,4.576430663610568,-0.9766325102502269,7.262610410066658,-2.37690388550643,3.422524575122651
1.052,13.221676444996675,-2.4746275250486773,-9.171033282627278,8.662622687407577,0.10840437729183239,7.674583103273629,-0.46493880199898463,4.758988513020432
1.056,14.213789650617528,0.8312179605576941,-7.290283803169556,12.669695614763246,1.5465757948406411,7.5470965355471336,1.5949506439491965,6.782899143157007
1.06,15.090646152307869,2.853611437234367,-5.081475352225496,15.037030444616503,2.706288533522291,7.205389595503006,3.7314302903705765,8.97760115945233
1.064,15.618184000611759,2.7521453228806054,-3.4166343893091504,15.138951145053726,3.2175556414731776,6.9301609095385945,5.781540177887389,10.579817681626114
1.068,15.72191875501488,0.6860204248174631,-2.6931882255883304,13.526387503235103,3.1089144012936707,6.8536022229485365,7.495708736838907,10.871471476211614
1.072,15.41572719163494,-2.285888883190575,-2.6675593630933268,11.514886948535713,2.716450467065039,6.961631720178474,8.55849395802558,9.469778728028853
1.076,14.740509126034578,-4.752376296459989,-2.6648293929148785,10.374844444605909,2.440932317319663,7.150116530182745,8.636058660349866,6.473344114034149
1.08,13.732094299252763,-5.673122671160158,-2.0435638064739567,10.593102642621375,2.489516179312435,7.26706044167625,7.449488568683369,2.3903713097776325
1.084,12.400681231544056,-4.900762417430288,-0.6377394063671051,11.622103306905137,2.748274219348904,7.132949515532552,4.890599461571429,-2.0991375541355355
1.088,10.705565274694887,-3.2382895794395843,1.087091703135557,12.236654008990753,2.8277259386018088,6.5699880458789925,1.1543345531790115,-6.414003941090751
1.092,8.56697360364855,-1.9912081933876973,2.275244742081168,11.297561296936072,2.265479900768165,5.481619582502658,-3.186364176210433,-10.214383196242888
1.096,5.9374267005802395,-2.245703354823047,2.187978907759763,8.466244955619565,0.7851479276088424,3.9669835881543887,-7.248034252254553,-13.364552445574512
1.1,2.923219197721946,-4.259742874289888,0.6756305105325928,4.4604435351099925,-1.5176859269056189,2.387330442037502,-10.065152212198019,-15.783078563327358
1.104,-0.09231300758869088,-7.284204293953827,-1.6691967000782684,0.7157078030513381,-4.14723690582494,1.292696657739039,-10.920166075235983,-17.308441637447885
1.108,-2.4515329872944323,-9.92478827179496,-3.7820284921115164,-1.3565465718938028,-6.371167628010057,1.1814238333054243,-9.65097855268564,-17.701361745145828
1.112,-3.4138132301992252,-10.853939852458849,-4.672924500884738,-1.0833316593515225,-7.505717694559947,2.1971622427537323,-6.761833057176775,-16.792974316130064
1.116,-2.4971398220572967,-9.502771737965276,-3.9483478955533604,1.1693881268800066,-7.199527384448526,3.957365094088864,-3.270635496769864,-14.6836927355633
1.12,0.18615002137093306,-6.384371622836099,-2.0186060147755374,4.25767490600446,-5.597979929483298,5.662611527498736,-0.3297713063896408,-11.833186037978493
1.124,3.8084612179837336,-2.8811494518266025,0.12505401396547278,6.906360049900712,-3.306690155174727,6.477839092910396,1.2238955216057805,-8.943542397009896
1.1280000000000001,7.045467094096214,-0.6084765486485777,1.434538457213593,8.352297200550343,-1.1654862510896717,5.99273717898661,1.1829767705712793,-6.67768772139218
1.1320000000000001,8.59996791075075,-0.66906489286391,1.3384915323545274,8.63490952693868,0.08278136873380149,4.496448967711776,0.0014450253944220393,-5.363827756251707
1.1360000000000001,7.801188016807631,-3.150344851517938,0.007961883248760238,8.41012035899068,0.10327220553078842,2.8642536952368833,-1.4601797794867437,-4.864254592666484
1.1400000000000001,4.955919847606524,-7.111778681237738,-1.7787364711075124,8.432945217625035,-0.8993487015608332,2.0867642602710736,-2.3498757732664712,-4.706357523823355
1.1440000000000001,1.2335018763480985,-11.034726232863862,-3.0720097822248653,9.04033365446562,-2.286703946465627,2.6960871472090577,-2.20261629694809,-4.407236313361606
1.1480000000000001,-1.8750438534535991,-13.501780642020444,-3.242284437526779,9.953196142189842,-3.286588244944012,4.429540737969653,-1.1111077130029905,-3.7877510602199447
1.1520000000000001,-3.258178614430941,-13.777800063670087,-2.2501159265117314,10.501245662256132,-3.3485812695959387,6.341277527097706,0.3863704421365943,-3.0754292677874
1.156,-2.682589363216315,-12.026333053165308,-0.5634840856980232,10.112284084005307,-2.3710832831527977,7.309277863570747,1.6200190191045922,-2.719631970975011
1.16,-0.8130762978677444,-9.10870098560028,1.1943520428443861,8.762201040369902,-0.6872110496127988,6.663712153683289,2.1368420893893703,-3.018255516428808
1.164,1.2293698589530395,-6.107457906648634,2.633514834309592,7.091997286049728,1.1639782678566553,4.571308772716687,1.915922345383894,-3.8042661947800385
1.168,2.4893539108911575,-3.84577917215824,3.775790881851926,6.096381640481933,2.7246335560069275,1.9392191879115568,1.3414430793510705,-4.4171832156521855
1.172,2.6349259273288674,-2.617736146455468,4.934987306512563,6.559379580822853,3.807170402709554,-0.08270357416453167,0.9641181891392496,-4.012597388517001
1.176,2.0026607776301946,-2.201721435731731,6.400873295696986,8.559623151218474,4.4897842919044155,-0.6969755414577711,1.1910833626536785,-2.0585042956791852
1.18,1.2425895361777082,-2.0978534607558945,8.128587217806047,11.338857354669758,4.925250706060005,0.17331688173164128,2.059829830799553,1.2736651747264975
1.184,0.8357859485989434,-1.820659115206714,9.656273931829206,13.629585555170902,5.120167806236992,1.9453793839691358,3.213036500762605,5.080390988904746
1.188,0.782973270061242,-1.1112866202033373,10.312661184654738,14.27036864516796,4.831486448240582,3.7710302603744315,4.072121923126245,8.107032568653214
1.192,0.6374129100904442,-0.0037162478714880542,9.597664571637953,12.782532302358042,3.6637919290405705,4.997894402741037,4.12372719447947,9.355376563416293
1.196,-0.1524487905446854,1.2390314817638757,7.505885902420712,9.610536217718959,1.3301437937458793,5.419733151752999,3.1567272876446264,8.585843575583171
1.2,-1.8347472662104605,2.245309133087288,4.592830437494429,5.905492828779079,-2.086081252076812,5.210890003082497,1.3243358279378525,6.431715735292818
1.204,-4.147026341187039,2.6624925486602256,1.7494271358729927,2.9828824317319986,-6.0233653182857925,4.6614088411812915,-0.9777661303060055,4.071364033719375
1.208,-6.424346092320877,2.2558303166459552,-0.20599160821834772,1.736317146592956,-9.584885298487565,3.942588492832137,-3.33883535161197,2.6351576859105883
1.212,-7.937864980510115,0.9779920343089294,-0.889031883719055,2.30249831994308,-11.872521210171811,3.0603715089542396,-5.537272419718957,2.675298808714338
1.216,-8.232343969068905,-0.9661138260958586,-0.45258752557589066,4.133212895627096,-12.322888799473597,2.0096506968606986,-7.594798328238866,3.988705353309178
1.22,-7.280587141577133,-3.1105732579500245,0.5920690131971396,6.373254030708123,-10.895814142180459,0.963235690302515,-9.657769405989919,5.838508954193926
1.224,-5.416053530704888,-4.822846149243178,1.7112446913372183,8.301044404975581,-8.033626328811007,0.29236083361302334,-11.785803342329512,7.403559328729498
1.228,-3.1377636238101827,-5.512138676688843,2.620993063428199,9.59429803564398,-4.443912476206052,0.35845864580312936,-13.7992124062337,8.18170985049822
1.232,-0.9307329825130877,-4.874955022900329,3.3507359236323255,10.318514103504267,-0.8298827914502858,1.2027720479690907,-15.282091352880867,8.134047959458783
1.236,0.7911214591035778,-3.064416206941792,4.086546595929389,10.69948102580604,2.2987822108843843,2.378900711585697,-15.755937665375605,7.535552567073814
1.24,1.6655573569703506,-0.6598268683129007,4.933233969063241,10.874495417512653,4.683917895931849,3.0995735810594782,-14.927197052635561,6.696491095484251
1.244,1.3961878008270672,1.5873639178448151,5.7807031601376515,10.787682418174445,6.274057015436526,2.659509223228758,-12.856251558123331,5.767936189556986
1.248,-0.13991221023524059,3.1043307226977355,6.365850835549002,10.270947509160905,7.13010645429012,0.8946882585868776,-9.942878368433101,4.7507708587589725
1.252,-2.7336744723871407,3.7573963613240604,6.480617067080878,9.221102285891432,7.351529535945305,-1.6323107871924813,-6.742384224531445,3.6598504301226455
1.256,-5.7741134166734405,3.8649922848523115,6.1603350276269495,7.713790882415784,7.040702156208612,-3.880943251782556,-3.7313571407654997,2.6689172128258036
1.26,-8.38197857730487,3.93638573127486,5.694200931527223,5.968663707808317,6.27714955937741,-4.910539450104998,-1.1620528649247603,2.083014482325769
1.264,-9.733257058861792,4.2988462394178235,5.439096395266153,4.199987549687264,5.101589620881937,-4.45122650267243,0.917694001228119,2.1327284999313587
1.268,-9.427047388087047,4.831931735404909,5.545051070920946,2.4809583403555147,3.507022032680395,-3.1009221002728706,2.5180167845004044,2.7454515467363514
1.272,-7.692186259404488,4.978561130288141,5.782724030074179,0.7337447864155935,1.4554505559548705,-2.0105331904344066,3.5360398402402984,3.480037357061613
1.276,-5.25175961105252,4.079769385907299,5.63246924661198,-1.11914260057994,-1.0413875167411508,-2.226226640147855,3.716752460879075,3.740104047243214
1.28,-2.9140565530884297,1.8401359598235016,4.606665537677089,-2.9449823796835473,-3.8104477812503115,-4.056207670617081,2.800275416096113,3.18388038022605
1.284,-1.131433529073254,-1.360701118314339,2.621226238843681,-4.312863329060183,-6.445462886567277,-6.851529342029026,0.7580971225396418,2.0607719084127623
1.288,0.19225166471477007,-4.53440788243141,0.1572672619615707,-4.644901277547376,-8.371883875959279,-9.34944747853566,-2.0408105410037987,1.2132816146156618
1.292,1.5229784723343158,-6.520885523253299,-1.9102108044985737,-3.5488799585057516,-9.049394560432305,-10.3726272777507,-4.866949852766302,1.6832257236261987
1.296,3.2574799896338344,-6.558810077491787,-2.7383411088925174,-1.1276380935065227,-8.220120525092028,-9.468461862099769,-6.879891501203491,4.112286265721439
1.3,5.330331148652338,-4.6605579435515985,-1.9649631811840784,1.957257425870072,-6.069085772372486,-7.1169902897059885,-7.457950480294177,8.286534617141598
1.304,7.147307933899206,-1.5728247878166837,0.09276400093087389,4.761678097687769,-3.1838706366646594,-4.390900354292882,-6.429222908293681,13.125117179496597
1.308,7.889256770834011,1.6381239527304423,2.6112990444372697,6.534964766319629,-0.3298224696340242,-2.3081678202359095,-4.088539450174514,17.15559153404265
1.312,7.031520706504693,4.138766031819117,4.702171604474786,7.122126932495227,1.8498943039907374,-1.282919663784792,-1.0204705889880614,19.2249763470024
1.316,4.747554976641166,5.687095642647746,5.858177602243224,7.025684851193043,3.0536332608493844,-1.0014245190212825,2.1448910283661915,19.039719005631284
1.32,1.9167028557159629,6.590226233441374,6.1382733806718,7.051059083559624,3.345573373006758,-0.7773917577358058,4.887017589832662,17.220305157309788
1.324,-0.29256798888949476,7.3231369588495605,5.998644083778364,7.735568930976246,3.0030277856124936,-0.12169316127731133,6.800761688483742,14.846164719662612
1.328,-1.0213466888700964,8.074511623337536,5.897522218113696,8.914420730612878,2.3011545716132478,0.8739192985160494,7.533060712854906,12.786586237303602
1.332,-0.15727724798607934,8.533451022588135,5.952049257188661,9.7202601554305,1.3907792552185647,1.5897893514606913,6.788041393805912,11.250912644192695
1.336,1.6465600530870068,8.087533841756105,5.8921850066374715,9.065560210067975,0.3569601124309445,1.343168411197957,4.490081908399516,9.842216179086074
1.34,3.3680859202138356,6.305731927116375,5.330680381179573,6.344526077067239,-0.623977610734272,-0.048502129676903705,1.0255833181448426,8.056318338854767
1.344,4.156290186130083,3.372695162210854,4.149216869744524,1.9161566683560682,-1.1954665587971547,-2.0069024974870375,-2.6445666078660435,5.853112145103961
1.348,3.6947416796393355,0.14591741869984842,2.700210283443341,-2.9652253911747524,-0.945471681196119,-3.462266104864157,-5.207778650600972,3.863313643604993
1.352,2.2019437179284154,-2.25921095844202,1.6414174385552145,-6.774359207212294,0.27186704282415786,-3.521048346596674,-5.574790299261398,3.022666855975058
1.356,0.12633529285304324,-3.133962037774718,1.473436469379262,-8.561887408900997,2.0140337993501984,-2.1256803143590752,-3.5639252036942537,3.8225185224850704
1.36,-2.221250034592977,-2.694730386809291,2.0684823284509615,-8.52906384772977,3.1750335816934148,-0.27244826353351814,-0.2982997418904285,5.664982701525389
1.364,-4.824289240944363,-2.088035971009548,2.538138070769378,-7.947157081122702,2.3246690885605923,0.40381881285767696,2.0317510497380735,6.817631264620148
1.368,-7.826922283494726,-2.830420225840345,1.5916243648951718,-8.433177708094767,-1.6358910311551291,-1.4907249021836706,1.0604141492144077,5.140499001775535
1.372,-11.236759565975117,-5.957316114452025,-1.7602547177450005,-10.980697442358414,-8.81044839103808,-6.241884554370999,-4.570472740700641,-0.7303695338751481
1.3760000000000001,-14.693832429427498,-11.333878213631081,-7.525651381913044,-15.285286107103618,-17.99289919439006,-12.669281009318649,-14.329662485061917,-10.381016217233794
1.3800000000000001,-17.506276231863154,-17.54611543039926,-14.492901296054878,-19.770372181117267,-26.943269674327446,-18.51513173300136,-25.730220458693363,-21.412957431847
1.3840000000000001,-18.953979614423123,-22.45708864246217,-20.612795560936906,-22.322790058181166,-33.17579199428665,-21.406867726869187,-35.20260087764018,-30.246418816814934
1.3880000000000001,-18.68523347896354,-24.18479593721212,-23.8505190523888,-21.358380277707187,-34.92527308223147,-19.924624320951878,-39.53663930916265,-33.60565004613052
1.3920000000000001,-16.93505631313774,-21.993046741007504,-23.080143783839397,-16.63371272524228,-31.826833395537797,-14.23909370580864,-37.21710105071024,-29.96073757114147
1.3960000000000001,-14.417594655390678,-16.62349880715835,-18.55919147887563,-9.369911243567168,-24.97831692690076,-5.999852925577356,-28.992347859184427,-20.197014755418774
1.4000000000000001,-11.96039520623173,-9.924756671752206,-11.76520252985083,-1.6577953160795378,-16.395443237891435,2.4455849355795545,-17.423843430703258,-7.196451843298412
1.4040000000000001,-10.104185438688742,-3.9910942635208153,-4.70082707896652,4.510975793224697,-8.139320038938465,9.067792206383398,-5.690376645626927,5.429738637508832
1.408,-8.883110045508534,-0.25547736288425593,0.9556046928731714,8.074345464231408,-1.5590704059188347,12.899371169276517,3.7134981754264067,14.800204827863631
1.412,-7.901708122307736,1.022154666880486,4.431811072081521,9.182836248529954,3.0107685728445936,14.190104570610725,9.751430803782805,19.712500032852354
1.416,-6.650520043502974,0.6662963480425477,5.935503371648988,8.852782792891126,6.039473703672577,13.977371201928403,12.787058617456394,20.701942601177464
1.42,-4.835300414192483,0.022157558575392144,6.283394359924305,8.273185635329275,8.281515459806943,13.370086416188698,13.88254023485508,19.334869487822182
1.424,-2.5200371108028494,0.25942357230317503,6.373049983186997,8.192002462071446,10.292009097305286,12.964820918639088,13.966923342559014,17.2349850550061
1.428,-0.039853808499691556,1.8761926440151953,6.789089204222556,8.686597396777366,12.208159266782781,12.673097881379068,13.368304871980222,15.378886751906208
1.432,2.2207026789963598,4.595338109365205,7.706832901659707,9.361854082813542,13.843302546995156,11.987325990431188,11.91392526129533,13.95444440409916
1.436,4.0345339484392415,7.637330046804218,9.060328040592605,9.77424872217093,14.965825575812346,10.46500790499789,9.442201283029753,12.703555643166915
1.44,5.408224946999771,10.165519162288657,10.774211341656127,9.77546308879188,15.531957015589146,8.113062467335237,6.293550921947501,11.410935881056277
1.444,6.496709856174314,11.662198916922334,12.865202340388748,9.559419064489326,15.725063745595932,5.456008296381839,3.405689524926991,10.180019022736062
1.448,7.439570632687441,12.073686109398274,15.348085328673813,9.42348582423671,15.789264078749223,3.273399118291706,1.9216246841738118,9.345388405657014
1.452,8.237874860782368,11.711346214568401,18.046780121938987,9.454020459866264,15.797808947643675,2.1791321661212635,2.549584560928017,9.155216300134175
1.456,8.746265049953893,11.02285775222759,20.479330041654638,9.376967165039805,15.541709386890433,2.306558477591544,5.084107736688351,9.506063813960097
1.46,8.753693062681137,10.358330898510616,21.942166946669087,8.679784978721695,14.619086031780977,3.2865209377723215,8.411115403249822,9.947233820627579
1.464,8.085042982046604,9.82796860896405,21.77766661836904,6.92024206338616,12.67154287756173,4.497217570833177,11.013062932026067,9.956504142195485
1.468,6.65412966297411,9.284370184957481,19.68036519216495,4.015692205317914,9.615343883871311,5.407170264813355,11.691973806478837,9.295300673557948
1.472,4.464199088775528,8.419061090800014,15.881441579570726,0.32912884268553366,5.735817438566782,5.827502052262099,10.119022219078781,8.19093111383934
1.476,1.601807234451596,6.92463742484375,11.105681880653634,-3.4947656207447704,1.5962622727108267,5.941156173813346,6.919775098589259,7.205336075414914
1.48,-1.7333995424246207,4.661770876845907,6.313081233504941,-6.83266464773833,-2.1863706908710205,6.1065200399437884,3.2791773876053467,6.861152388726009
1.484,-5.172723441475739,1.773901540794793,2.3667536249510994,-9.329400648545933,-5.162905886982573,6.586223478089156,0.3228439430223231,7.265861436539638
1.488,-8.148198761484577,-1.306323321037648,-0.22851626609345832,-10.93981529067065,-7.161793396763157,7.357912215978741,-1.3836268244840983,7.984868762223111
1.492,-9.975348231038208,-3.986575305281024,-1.4258365592887206,-11.762911212197096,-8.261029353851935,8.127226041363816,-1.9701203514996646,8.251869625953912
1.496,-10.090616497079719,-5.74073423887869,-1.5530457760731737,-11.82602023645568,-8.656215458486926,8.511051932276253,-2.010191823587049,7.390735239242769
1.5,-8.36095937440519,-6.340536528894993,-1.1295062774693125,-11.000942499707806,-8.528161277076299,8.269311787902614,-2.0876070167164844,5.206015629349579
1.504,-5.294211970179138,-5.964666422727068,-0.6620503290595927,-9.123783519532383,-7.974180219337544,7.440667754128924,-2.4508081756392057,2.116999825584047
1.508,-1.9947625033007768,-5.12575802268506,-0.4973572707760283,-6.247887463415834,-7.026105976466473,6.29965637750605,-2.937293208489659,-1.044558440841275
1.512,0.20511677398142902,-4.426681439542131,-0.7559111262801883,-2.832371203693831,-5.719781429378102,5.179657355074635,-3.1626152754569903,-3.4491593454021903
1.516,0.31289638552907384,-4.262516833239123,-1.3453422396312842,0.2985492708955979,-4.1521300538252515,4.28145904204587,-2.822196661014641,-4.663916056148198
1.52,-1.8166977755756308,-4.629669480923155,-2.032117547845923,2.261395843653684,-2.4914815159020933,3.5920654495295956,-1.9112956261959742,-4.8122838558462755
1.524,-5.30426386381172,-5.147020750118141,-2.5459864353785218,2.5507627432981703,-0.9379075208642025,2.957723500447215,-0.7368278119446021,-4.4293095085409675
1.528,-8.57038658170033,-5.3163775058983065,-2.7049321022405657,1.3332668070505154,0.3175702228818267,2.2538702531925345,0.2557956825708416,-4.127001549772599
1.532,-10.046066278077975,-4.867268849415559,-2.514494172556206,-0.597762292117487,1.1065629975917322,1.5362154045150538,0.7176877429418291,-4.271519554866824
1.536,-8.932391295425676,-3.9637162878466095,-2.1846345050732037,-2.2011837758825603,1.282485485280037,1.0666762829323932,0.5561892358019535,-4.8295911462362895
1.54,-5.640945486443405,-3.1536898829387217,-2.0512862261536795,-2.7321085832876304,0.7154684973144585,1.1789346849992164,-0.05869016697548135,-5.443474102985971
1.544,-1.646053071244479,-3.0616400760201414,-2.417466193415902,-2.1435308697788265,-0.6812740163546191,2.060335299085463,-0.8155775252995867,-5.671761463153306
1.548,1.2246083880246053,-4.0015802802755225,-3.3944485649359204,-1.1040898068190255,-2.8945687784310987,3.588840619042722,-1.4328214088954085,-5.240560870707419
1.552,1.7016898878593085,-5.751482037225243,-4.824636208627897,-0.6176401673192737,-5.751954952819173,5.328368753509715,-1.7753081207133106,-4.177804507017631
1.556,-0.256248930957633,-7.6195118353587,-6.321158061722874,-1.4332543372341615,-8.889651694027812,6.707026705413717,-1.8554580220634358,-2.7726970812152922
1.56,-3.4116457325247427,-8.788210441978306,-7.4193474341696755,-3.5742337657680623,-11.786238476290993,7.292899006685532,-1.7516665566052432,-1.4034369639479287
1.564,-5.856995997012128,-8.739270212241358,-7.762166669243078,-6.241106344581853,-13.86425414001107,7.007854691449122,-1.5168444441398448,-0.34185574771494265
1.568,-6.006509441417689,-7.544246638067808,-7.2367938714192475,-8.168406660388685,-14.657914867210359,6.147717212653466,-1.1443963452598165,0.3646527404977138
1.572,-3.4515827833410313,-5.842214183171885,-5.996713495816916,-8.257245575116361,-13.98326579503107,5.195141728474313,-0.6109280773638454,0.8833090222353912
1.576,0.7861298916050785,-4.5022852675107385,-4.372952510124529,-6.145739166248234,-12.034455821566045,4.525391125796271,0.0379572431190065,1.4766537242627449
1.58,4.749335729658356,-4.16535847615554,-2.730891958291192,-2.4222999121178397,-9.362132285077715,4.178199916756121,0.6313052279741909,2.3442354097951235
1.584,6.5385428287112015,-4.91181673610482,-1.343201413256284,1.6273420487539394,-6.723918011729255,3.8294854115837094,0.8989630858466222,3.4947027756776556
1.588,5.278840100035857,-6.238093916769594,-0.336593391137888,4.599398824174772,-4.8578457503798935,2.991613508026592,0.5803628859187935,4.709036893822404
1.592,1.5534621766461634,-7.334891409430469,0.28774652506848764,5.586224413138175,-4.24416086191925,1.3275963738793264,-0.43096866047870463,5.61298826476808
1.596,-2.9108799914150953,-7.497705291664538,0.6068639004234768,4.531308654511301,-4.931463601403141,-1.0811865819487707,-1.9825555163612139,5.830327893437763
1.6,-6.1386645486752265,-6.457142934991121,0.7340139746552534,2.162014093140051,-6.503576874869561,-3.6787610891319726,-3.679659105565671,5.150022759575781
1.604,-6.8905531421453965,-4.462275167002232,0.7967243772450896,-0.43552873605517295,-8.204075657677675,-5.648437839147859,-5.034414855888391,3.6403973230418547
1.608,-5.242234435297857,-2.119819706298135,0.9036044623574475,-2.376840744194638,-9.206871359145946,-6.300438254974678,-5.692654466404161,1.6482651973193923
1.612,-2.4822702120587294,-0.11089766645856258,1.0866592198787304,-3.3966119356158764,-8.94510256752229,-5.43503047113534,-5.625281017916798,-0.32366480211682
1.616,-0.40245834257353597,1.074185288467529,1.2535537883196364,-3.918083825128294,-7.351893060956092,-3.4810104538468103,-5.170962882529308,-1.8031897001642734
1.62,-0.38851126202063124,1.2674135344416628,1.190379214559691,-4.760505706436314,-4.913626859524476,-1.3155911155955036,-4.882068528155473,-2.517263022628657
1.624,-2.771243805917197,0.6178559736607907,0.6526918755237929,-6.634933334019184,-2.4839791288058874,0.15252740710334578,-5.238114636720312,-2.4580445118297614
1.6280000000000001,-6.741125409292023,-0.5168974248970546,-0.4821917009134875,-9.698124048773256,-0.9333490041628059,0.4284063592114018,-6.3699758541143785,-1.825108226634585
1.6320000000000001,-10.82865452893403,-1.7164950479542584,-2.07788748762146,-13.396861435114758,-0.7766101323742216,-0.3259097082719644,-7.950131592010459,-0.8838476794602985
1.6360000000000001,-13.635004181100015,-2.6078327985219665,-3.704092852718624,-16.6663165561585,-1.9310985070043283,-1.3746652600897526,-9.313880633193383,0.18320771385057766
1.6400000000000001,-14.43056024708849,-2.9511654799170977,-4.77639854678377,-18.404365962386443,-3.7359760137165385,-1.80422241989194,-9.7784163819159,1.334908130795148
1.6440000000000001,-13.364908542482155,-2.7043126306245493,-4.832562335726173,-17.997719510609524,-5.234967813797678,-1.0237821611244,-9.00018864482582,2.6015772392936873
1.6480000000000001,-11.245301592342967,-2.051274449659337,-3.8149991570211887,-15.637020199250152,-5.610268420103071,0.8950830144063557,-7.174533734146046,3.9338152450279
1.6520000000000001,-9.069049952567148,-1.3663023632661315,-2.1951845148861047,-12.26629723146247,-4.565393217405691,3.216464372648007,-4.956481860815934,5.074451160390457
1.6560000000000001,-7.560786542186964,-1.0728951492521532,-0.820246033836376,-9.171078107654655,-2.4536069307275525,4.886989196385614,-3.117786426321638,5.565531845696443
1.6600000000000001,-6.937072732702924,-1.4422331405605129,-0.5262058632057531,-7.3928228097536905,-0.09609565621349248,5.06442668205777,-2.1239467768459757,4.9251744374631325
1.6640000000000001,-6.956229049414498,-2.416702728229164,-1.6985407326657938,-7.254510811611073,1.6326490493161634,3.560474044363155,-1.8641619322283807,2.9146052197755465
1.668,-7.164539819694561,-3.5816933675201685,-4.026083773695197,-8.243783103851307,2.2414528515715304,0.9549650810271966,-1.7014722473701904,-0.25794287361859214
1.672,-7.189523729331264,-4.344968867093865,-6.608201938672478,-9.319259441449457,1.848414237141621,-1.6755625779731762,-0.8398014644917331,-3.9289732275713094
1.676,-6.923014147730216,-4.243734890545015,-8.3806434455213,-9.483186609248092,1.085142038718769,-3.288537699466297,1.1806998608119534,-7.208787534177491
1.68,-6.529942333026812,-3.221464862606478,-8.661772939721184,-8.333741254334452,0.7257973578718309,-3.384064758306163,4.135722989270277,-9.357610576681832
1.684,-6.321229581629472,-1.6933408826502252,-7.521700406222456,-6.301033174203544,1.2530273069720828,-2.2246847532422693,7.12421421248123,-10.12084858590825
1.688,-6.571775114319287,-0.33563500657486944,-5.763601820295873,-4.435053366302355,2.594453893205274,-0.6565088391555051,8.971047180138648,-9.842165853471043
1.692,-7.360963966068461,0.3084293846248727,-4.508265389935643,-3.845327114421111,4.1709014085377465,0.3582203141050955,8.825198683696595,-9.285244072597184
1.696,-8.496634348713119,0.18493787103674464,-4.585744498130068,-5.071657783617047,5.235980682722243,0.24612708762096086,6.632331677569573,-9.243558297876934
1.7,-9.565038694473191,-0.18472069308669692,-6.060564606418361,-7.7381570269276905,5.3108231096704035,-0.9092030728615373,3.2230838497644263,-10.136689936309658
1.704,-10.079936326805665,0.03578187963865709,-8.141072185403605,-10.6765629924776,4.4681330436008615,-2.4643146272598293,-0.049527272809523404,-11.800334591974213
1.708,-9.678852526099853,1.515887151532148,-9.539009775379437,-12.468214921135969,3.3015669722271066,-3.6099273834081824,-1.951049361798352,-13.572279357804867
1.712,-8.305106802512757,4.312405753742795,-9.112051649281792,-12.13195740137021,2.587488250516058,-3.8337470260724382,-1.9476121777322384,-14.625740386911172
1.716,-6.304765849442537,7.716577086541743,-6.4680622519872095,-9.609883904289939,2.8188749008323075,-3.1921920317551864,-0.43700811403903295,-14.378944786322577
1.72,-4.352717868418486,10.5237792122057,-2.2120824963397165,-5.7910311113428845,3.8875363285920503,-2.253253115775033,1.500046636250463,-12.758453859056559
1.724,-3.221891222366283,11.601513386528039,2.2838058744073892,-2.0627459367637666,5.101520647710808,-1.7494822532628334,2.6944336733131014,-10.189902418456533
1.728,-3.4940962697380398,10.441672010033257,5.469211629274016,0.35567461657014166,5.5203474282884555,-2.1460717120196384,2.4975864345693366,-7.3573527794010225
1.732,-5.308877437763391,7.403181204893038,6.272744035081024,0.9670839710012826,4.423110064591447,-3.385251489550507,1.080660435843527,-4.8839201901132405
1.736,-8.266949556586626,3.522202765791019,4.524965786665614,0.1586071367498194,1.6585825676284751,-4.937190546932432,-0.7134739890447759,-3.0974524392629847
1.74,-11.545408601138817,-0.00024004468736937845,0.9681322914161425,-1.0897378757794418,-2.2918276504767348,-6.113496246388901,-1.8717000189703397,-1.9866229118135443
1.744,-14.176415517972057,-2.3393204429771006,-3.121297963854864,-1.7727004907810509,-6.545080418454603,-6.457427187711423,-1.7656840450829911,-1.339847716259026
1.748,-15.366418035796025,-3.3239874827866065,-6.480030904046597,-1.3763830824286778,-10.183769522030492,-5.97780655374607,-0.4455345585761381,-0.9414900106016741
1.752,-14.750957326904034,-3.3494485710675366,-8.314564094965744,-0.09815705593831847,-12.56626066653848,-5.102776184452872,1.4638384315413346,-0.6982898787137453
1.756,-12.50308409230537,-3.0281072949713765,-8.48859731344276,1.3087556179131443,-13.445870788894052,-4.400214736481882,3.168668967171768,-0.6391991592129891
1.76,-9.265686655408082,-2.8164003821685313,-7.412790848263008,1.963663399712889,-12.89002829740675,-4.2354783445879285,4.1637233755967635,-0.8126233351258403
1.764,-5.948640872085858,-2.8325729355308167,-5.7366130260110495,1.3194806166416164,-11.11236442410273,-4.5757252840486204,4.469646671053746,-1.1714380404973515
1.768,-3.4596432984355614,-2.9253228759489702,-4.023270641602629,-0.570747751149216,-8.351729047091455,-5.045326106275926,4.518432372183633,-1.5390073928863863
1.772,-2.451317167776936,-2.903964890503576,-2.5775067304806187,-3.0978615103547003,-4.883147694010136,-5.177039786608079,4.789147357833269,-1.6893637119258251
1.776,-3.1418170768282403,-2.7303365445476393,-1.4595156262576179,-5.39425244447793,-1.101305878001031,-4.718010137209725,5.432383367112532,-1.4881468321882743
1.78,-5.246914597635898,-2.5231507053472257,-0.6146311073804096,-6.710581263921436,2.450975098863764,-3.8007698237707204,6.128420019766804,-0.9975813962870319
1.784,-8.042680203741414,-2.3768466245534783,-0.0041196975707076255,-6.684624851231835,5.197527081202007,-2.872689238444055,6.274510765807357,-0.46553637289804684
1.788,-10.568710336978882,-2.15755966766826,0.35164443144607693,-5.41398682289989,6.7592439026103035,-2.443447808694809,5.392378851524395,-0.1933576124768921
1.792,-11.93349561184267,-1.4689170391569233,0.4236183430588385,-3.35121213284138,7.155478651260041,-2.806006126744931,3.4947797982437203,-0.3596009448019304
1.796,-11.623107540215564,0.14441707798502534,0.2676932687439204,-1.0967952974666495,6.827798835898698,-3.8775286537256424,1.1861341325418406,-0.8902886183522583
1.8,-9.701661934674012,2.859104550734946,0.07501674245827061,0.8078982317714898,6.432521598703598,-5.24495699328396,-0.5692560539313125,-1.4487449966675765
1.804,-6.800526735206269,6.330646459293535,0.12582209470420835,2.017669179327647,6.495887301869127,-6.36253322619951,-0.8973783692969499,-1.5626354986692164
1.808,-3.8860124706048573,9.730776963077542,0.6519826687203856,2.4318226269300136,7.117863838569123,-6.77770368198107,0.5547137793879255,-0.8320699194008814
1.812,-1.8929956239684778,12.086662310795786,1.6782160228202754,2.170326542815569,7.899475891518156,-6.27598433752005,3.432558189524903,0.8764638168682595
1.816,-1.3646844893467858,12.764288375828718,2.9431036847833014,1.5232768181745433,8.160540535345776,-4.904401778520297,6.824876896695019,3.343686995218532
1.82,-2.2642295937865615,11.815100492418285,3.9544256348348767,0.8753280566232764,7.326730196323897,-2.8971119848981255,9.651074467626788,6.057134131536042
1.824,-4.0376525515702415,9.97389781137457,4.175662344692006,0.6134171127870394,5.2730304022036485,-0.5673858090206404,11.086926855655523,8.399808821357965
1.828,-5.8880286515752935,8.286020585472963,3.2679371290021018,1.0218407247331562,2.423983240150658,1.7666070348456622,10.837166516062881,9.884704111994072
1.832,-7.145327602849648,7.549574363471661,1.2641517197412213,2.1787181302954988,-0.44810956058216234,3.8145408891130193,9.174879068955997,10.338931017878677
1.836,-7.528185160007633,7.903121986315835,-1.401065841397752,3.9114015565816755,-2.592137468092322,5.331493345881036,6.773322753440396,9.95569884866622
1.84,-7.181841740451565,8.799931591406189,-4.031064077331726,5.840566458906473,-3.5977441877726584,6.159512041453044,4.438050944299483,9.180860745207376
1.844,-6.515704465839934,9.390838173213087,-5.916553628064564,7.512451716761238,-3.478740567568019,6.291924433721759,2.8744290791042486,8.483408645265156
1.848,-5.932329081889208,9.085453182683608,-6.593841617183342,8.578788196484368,-2.504745979791075,5.905928132847413,2.5394934621160337,8.108623367179261
1.852,-5.578415227676653,7.9693020053517944,-5.997517120541691,8.966403631319189,-0.9189855618284594,5.313558164714439,3.5757818464132307,7.942646353863175
1.856,-5.265888638302027,6.826139342789121,-4.444176252018818,8.939204978940214,1.2516910223887197,4.835143300537252,5.804558320704384,7.568910854995492
1.86,-4.596225090112073,6.735901114119915,-2.473073640303716,9.004418940696755,4.157619641012525,4.64813036997904,8.758452137590808,6.500485779315496
1.864,-3.206692196083467,8.475307291481048,-0.6153632397460962,9.695099928814729,7.894364704722662,4.699596935253931,11.761886551159394,4.481438020138695
1.868,-1.0068878447853482,12.057298321650958,0.805161312731501,11.315859739930811,12.249809317454678,4.7557459252416034,14.083453330479424,1.700592678948917
1.872,1.7017854655554103,16.655920776259723,1.7518385581378626,13.760046060041569,16.61777017883679,4.57023502610094,15.131637069113202,-1.2219759210594714
1.8760000000000001,4.285984354252367,20.950769008819105,2.4118075085655795,16.498703594337595,20.167541217052875,4.064922964284323,14.631460904789314,-3.4931400929020375
1.8800000000000001,5.995619800793883,23.69760691445208,3.0362731165877164,18.76415442964041,22.19620107091981,3.4126602673732584,12.703641592089506,-4.524693850331152
1.8840000000000001,6.258168369606338,24.236973854175453,3.7690768233586573,19.856508835134825,22.463202606262232,2.9629543651793,9.80637988932559,-4.22971055527262
1.8880000000000001,4.929449103875793,22.694123148044255,4.5406291389662785,19.43883218494242,21.304454974530174,3.03396316606094,6.568610715421891,-3.065613181809035
1.8920000000000001,2.3874302930305733,19.80898191155202,5.0748929714791435,17.68241756833941,19.451419713847798,3.6912205717853133,3.600421951214091,-1.7864433028330673
1.8960000000000001,-0.5693318555069826,16.541344770352463,5.0034740252674865,15.183772928162583,17.650762889191398,4.6520351494523675,1.360556309818851,-1.0392639070347003
1.9000000000000001,-2.9815219200735763,13.682540013273734,4.03025441058581,12.696904860058233,16.304039638497738,5.386562136407757,0.10469852164249,-1.035447061973187
1.9040000000000001,-4.0451800155538535,11.665861210267396,2.0905137137526815,10.821602908131592,15.347225729316609,5.373761453527367,-0.09116096504502766,-1.4775682708775473
1.9080000000000001,-3.374445519498091,10.599208583760486,-0.5657008713335816,9.79153578329569,14.416635257170661,4.3810111986192455,0.7077782794621484,-1.7840910683315756
1.9120000000000001,-1.1273763298525252,10.408084659310811,-3.4068384323756815,9.461376461382892,13.174671933111725,2.5891115539978795,2.290765418863992,-1.4830933379666675
1.9160000000000001,2.051586084625815,10.95483089263238,-5.755589472687067,9.486425223229643,11.591666582250657,0.5007321317893325,4.286411398458858,-0.529151773040712
1.92,5.257035574366475,12.053368888679708,-6.993946014945056,9.573366495377018,10.003973779089891,-1.309740453142319,6.1850909464247525,0.6546019480243834
1.924,7.636364403901304,13.416341138021387,-6.760076686460253,9.656241844729346,8.923275427065617,-2.4733355083600843,7.449910796267775,1.429347165777377
1.928,8.684559714567886,14.648549916829221,-5.06208697194275,9.898589197069178,8.730932963849893,-2.969299639658516,7.705110442870431,1.3344045093279644
1.932,8.407401735426326,15.344126307456893,-2.275792958868935,10.528794175768585,9.445442385850285,-3.0705099550301442,6.916477967663891,0.3729285923537762
1.936,7.292424809999893,15.266533776889545,0.9867348197873902,11.62699676758228,10.722795481621004,-3.144966857258054,5.454626178940669,-0.9877228994447373
1.94,6.109312304917632,14.504106891394416,4.097932447009256,13.004093428710537,12.09639631541207,-3.4108177835042053,3.969978489833389,-2.0963890289969154
1.944,5.610723965406972,13.469910328525707,6.636165651674762,14.250774956920587,13.295020383631547,-3.7935244670373534,3.1222782377908516,-2.5049322592297525
1.948,6.248243590035843,12.716813139548652,8.516930003050987,14.941324653091053,14.431155583897088,-3.9694221022751304,3.287390515092408,-2.217906165493993
1.952,8.005954436919422,12.641538797389227,9.96177402701295,14.855552265124887,15.920562240506756,-3.5661138717974703,4.379898520984726,-1.6640285602454181
1.956,10.392559106759753,13.233411278583999,11.307038622794899,14.063963706634684,18.14655101505079,-2.4229185697064324,5.873737545769005,-1.4287996031660946
1.96,12.596004464788903,14.034890084040153,12.743078071888199,12.822826983392858,21.060187792783182,-0.7596101147964835,7.009539646305207,-1.9268472925567146
1.964,13.757857384689805,14.367297178939038,14.126492431559008,11.358442770070354,23.983170497901277,0.8500189239032592,7.084066193718337,-3.210183364107486
1.968,13.269978871160404,13.709310769534945,14.980639982307515,9.691784236839016,25.778174952126257,1.7032926130598187,5.706815663217403,-5.006398830416823
1.972,10.983236761860628,12.003011857790217,14.712250088879504,7.630663044064915,25.348116019492664,1.300147852448717,2.9406520405926746,-6.921746920478213
1.976,7.268589061864984,9.722835855000191,12.963632418525055,4.959922774571335,22.236714654145516,-0.38026854256025366,-0.6986990574097502,-8.640951674420636
1.98,2.9147855795060513,7.666502522306685,9.917234834970142,1.7107716122749812,17.00093836155891,-2.7933701586088597,-4.366525066274057,-9.988144723635632
1.984,-1.1127996926560468,6.570727025009219,6.359547166433103,-1.694526391381626,11.12211525189285,-5.0140160830041935,-7.10541395959025,-10.84045004527538
1.988,-3.9571970712785896,6.765093437883344,3.4232100462818638,-4.548926117403369,6.445514184129241,-6.136050208412204,-8.114073267801142,-11.008081313091107
1.992,-5.105807400868061,8.03157185879633,2.092880502583377,-6.191703844618503,4.385805303545638,-5.702243275146949,-7.030320567224608,-10.223384602427686
1.996,-4.501129086858127,9.72677111347563,2.7093245454898534,-6.388836155654917,5.287920704949914,-3.951417302564746,-4.1258328704910605,-8.292604144765074
2.0,-2.4832333713342503,11.084772967025216,4.7423914687024435,-5.51124981158379,8.283182680163437,-1.7318309172343893,-0.29029850030211146,-5.312181733101188
2.004,0.3907654232373874,11.544315248117158,6.996598712570304,-4.372582284842418,11.743749939506223,-0.071637235126917,3.261527938182879,-1.7660965096787065
2.008,3.5738335953692584,10.948640236686202,8.176569954421431,-3.788457029923502,14.117442079785643,0.38758203040456385,5.491014324406989,1.6129090327850495
2.012,6.700356705745247,9.54155432594963,7.540010137974608,-4.106974477929251,14.702622216219432,-0.22899423232639338,6.0277353629033295,4.172161455445371
2.016,9.611212875882309,7.7895694361447685,5.292648320131679,-5.013174401232796,13.946205048365249,-1.0549116797738716,5.385579741545521,5.662680381340617
2.02,12.250069948645496,6.137735773449787,2.487650079049362,-5.737769498623387,13.088318598404122,-0.9543363913804201,4.7140869551842925,6.329460049140769
2.024,14.527342881525282,4.838701312439116,0.48778601659665277,-5.540281867217419,13.365189745693687,0.7918301207315505,5.162045988600779,6.691015443301376
2.028,16.261598563164767,3.9251694053521127,0.276743931020734,-4.15923962594803,15.226763584377437,3.9871640787436373,7.190716920984271,7.145831509919039
2.032,17.24928581078184,3.299325730329461,1.989550829984785,-1.9429510464189388,18.019614220245092,7.525106601568384,10.23231556377175,7.668803298524971
2.036,17.4262600364369,2.8727273875940647,4.925076990825253,0.4317576374599348,20.341621827967906,9.937725628841706,12.952863310865757,7.827031365424949
2.04,17.010962478724835,2.6701005480633073,8.02113968957167,2.4754101541951843,20.881026854040705,10.212199571894953,14.023728541708849,7.135207651695181
2.044,16.492540816263297,2.830875636668977,10.49489166962476,4.266524792588312,19.242142402413826,8.40681864825992,12.967001630687268,5.510528638310456
2.048,16.421221524573212,3.507727781677799,12.243818526864018,6.398805153603616,16.239750262852972,5.662869651832642,10.52354635179232,3.478978175503981
2.052,17.04862024915172,4.686428567571317,13.74138809882913,9.464099325561897,13.433851504228203,3.547286091731113,8.233721174257692,1.9129224071504378
2.056,18.015312816892166,6.023609839515974,15.493162224412636,13.371379305581154,12.14141794224097,3.09025938888338,7.423529832979959,1.4011801006142859
2.06,18.32289098094642,6.817824988981071,17.407086677086156,16.976841618465954,12.500420236955655,4.077217476750624,8.175446138538428,1.6398467226456273
2.064,16.692735161630292,6.18486084962094,18.523002529560905,18.369029065205865,13.18287566835588,5.052645069177723,8.970699894747412,1.2981941441605285
2.068,12.192769699283762,3.4047114382534565,17.35428115431113,15.767684834655642,12.008984594755596,4.109224255445237,7.344786164781905,-1.4258686717895008
2.072,4.852273982148899,-1.6869776529361353,12.715397727809076,8.591774777028085,7.18134077083107,0.04043462690317412,1.3010275356092986,-7.771321400012431
2.076,-4.084056633802893,-8.454081403084523,4.592668150043224,-1.916063572449501,-1.52701644127568,-6.80770631360018,-9.27275098510405,-17.455875024130215
2.08,-12.474086478705697,-15.523750064205021,-5.465002430411411,-12.931846774779618,-12.321815269236026,-14.498271108517201,-22.035097039597666,-28.388025731061113
2.084,-18.083403812417785,-21.189467379368985,-14.742357186412303,-21.131830931702908,-21.994030521273498,-20.34647756241785,-32.90465619647644,-37.32426109457657
2.088,-19.515850245139735,-24.02014099531073,-20.420032442450527,-24.108008047109333,-27.322868541404002,-22.208590845935873,-37.80105796164649,-41.22106058539913
2.092,-16.822376361794447,-23.41265568049007,-20.799128355815085,-21.40171526296808,-26.570340294700074,-19.51191246615548,-34.56047478006799,-38.62089094815694
2.096,-11.469980983336963,-19.828150159357065,-16.07761043154924,-14.617048486904661,-20.292006531253804,-13.462611356911962,-24.025379150700758,-30.34437994201081
2.1,-5.646655488114899,-14.567847772223644,-8.261310638132272,-6.557352113030557,-11.039131197657085,-6.349412758786334,-9.700794039689182,-19.105342418775265
2.104,-1.2366378552599322,-9.177701670828636,-0.24981760385785612,0.1375887685889743,-2.1297342621963926,-0.3609355411612629,3.8403377608361025,-8.251319205923618
2.108,1.0068004449967045,-4.772981096190495,5.437493645607691,4.1237415739082515,3.8604412753962563,3.4147311846264827,12.965145487728904,-0.2955678103647772
2.112,1.6776008696314748,-1.626159676675015,7.660592851028511,5.690882532496864,6.111514232210751,5.2654319024530745,16.401867342255358,4.003532062637629
2.116,2.2248295948056023,0.7742702360510663,6.9243618045535555,6.204193212070633,5.616696615261942,6.340262387189563,15.407614535708476,5.587660058230767
2.12,4.027782119449404,3.2414119502764076,4.854021173076949,7.045125098011894,4.355546232986004,7.723860547056763,12.720069391044554,6.191708188282584
2.124,7.5588307659065626,6.272382191544148,3.225737532129923,8.70062730466061,4.109695424764563,9.683505117745915,10.952160766563377,7.164317849313024
2.128,12.071190558628281,9.638206561681592,3.080639887324703,10.508706652190241,5.5771372561089345,11.54103298872291,11.306137912508047,8.703782002200668
2.132,15.951560718553655,12.405262057886436,4.345640485954024,11.143506251552473,8.192043723927453,12.19168211146347,13.239758368435355,9.901803060891453
2.136,17.547346768805998,13.393548627828714,6.076117998203589,9.49940287713741,10.639503959033803,10.895900988994015,15.110588986113417,9.498963709977113
2.14,16.021062181768475,11.823597568689989,7.098720395064351,5.428021013694471,11.677867001597308,7.82340254075849,15.31269279943481,6.84130148323368
2.144,11.780076239845558,7.799325165982845,6.660375902116497,-0.10000547434811224,10.781458584061472,4.012080661779436,13.222805693198753,2.4366281018374014
2.148,6.281153630795599,2.364114735641518,4.753032108391002,-5.472532865723005,8.291657884318784,0.802042518647081,9.467657311195023,-2.217523140644712
2.152,1.3438345271756904,-2.9018614843096917,2.010671458942616,-9.233943686109274,5.095430155561685,-0.900658078409263,5.469229209853198,-5.406418630102116
2.156,-1.6593590259266682,-6.5306271822450865,-0.6871760151090349,-10.736829897836724,2.1047171141897607,-1.079959647422153,2.6217786779589396,-6.105589454644535
2.16,-2.3217283575039405,-7.741846835231344,-2.6454893492493188,-10.304131968759467,-0.1441751170341643,-0.5258144072439759,1.6007033764278589,-4.496540911545356
2.164,-1.2186779377252361,-6.677436007386508,-3.591592710729005,-8.872023519344754,-1.5861604474999815,-0.2912716865844237,2.158620097718229,-1.8030322506498102
2.168,0.5209550838368169,-4.223306112399605,-3.657994023280409,-7.3872586273575385,-2.458848678421738,-1.0489164343955037,3.42284896227744,0.42283808149621116
2.172,1.8236461205072043,-1.5540403151755724,-3.203984373209707,-6.331668157669888,-3.060566779785156,-2.732879098530626,4.447084546388752,1.1353716808871646
2.176,2.1610200199374185,0.3667407340991913,-2.620711560942249,-5.602126103876536,-3.601240367856998,-4.63235213695433,4.684123731849982,0.2888387058386188
2.18,1.7107987465049987,1.1135815699062892,-2.2163060010533826,-4.746318211542796,-4.1978192913128565,-5.8394515999185135,4.152338161456939,-1.2571643581729193
2.184,1.1542164364201497,0.8432204164657211,-2.1980661565220805,-3.3552195640834395,-4.944555140800776,-5.76337880802034,3.2745898057114795,-2.317320517778005
2.188,1.2679720333899143,0.09336331008823207,-2.697876137988241,-1.351756104452619,-5.942551090685241,-4.426601509453023,2.5439874862015213,-2.0895590345254442
2.192,2.524043570080662,-0.5345847233022996,-3.7778934445462546,0.9796371012516527,-7.2432441657343745,-2.4034018521217853,2.2279771099949777,-0.5876661393060871
2.196,4.857775265576667,-0.6516965404236146,-5.389420154364071,3.176937305692103,-8.751992216882904,-0.48213302291832116,2.2577341435631544,1.4238121578442797
2.2,7.682879611574017,-0.2129902021265193,-7.323191447659121,4.836100179592069,-10.185750882671615,0.7143895564623437,2.31916278064736,2.913389663303798
2.204,10.122846905314736,0.5206994538994478,-9.20638673134213,5.756363937109751,-11.1409658467548,0.9631299591844431,2.0680037617603038,3.1837249577969624
2.208,11.345824716607106,1.1501252998047717,-10.5804664585122,5.935391515511002,-11.25999536106957,0.4521177435199766,1.3485059278920408,2.2532189833849117
2.212,10.872027295039915,1.3513622068115632,-11.042428333914042,5.478292425318586,-10.392393035557305,-0.38732780394418853,0.314368818463288,0.8247063753959853
2.216,8.751667662377189,1.0373938447197117,-10.406279107052098,4.521993812645102,-8.656387079396513,-1.09667381868401,-0.6046485243648148,-0.12202971294785847
2.22,5.55222608469926,0.3978456318630452,-8.801474486961766,3.229264292049393,-6.373411014202795,-1.3546834192814472,-0.8717704826596981,0.12776902408214097
2.224,2.1472772017445143,-0.20348510394825248,-6.661624091763729,1.8231405816870714,-3.926286410693757,-1.0505389318543341,-0.09876574485453338,1.63447351326224
2.228,-0.6228541289027336,-0.4336196317534049,-4.604103265095908,0.5754570891847741,-1.6482592461899725,-0.2829982949410137,1.7255976792621617,3.7557235502308632
2.232,-2.2801705075357077,-0.19987692398366752,-3.23344065624827,-0.29864045581512344,0.20475331181837664,0.6869486396527176,4.149255970615298,5.447741485419087
2.236,-2.890940818588237,0.24249231840493746,-2.9400351535646463,-0.8007454415908701,1.4118359607857167,1.5109759407091645,6.362152580320922,5.741330665584799
2.24,-3.0006365909834694,0.35722448792163286,-3.772573885590048,-1.2467834826452935,1.746587694167798,1.8677312870290947,7.473786956960688,4.156955713051364
2.244,-3.329913575107432,-0.42632140937686114,-5.43333585420104,-2.185862009246958,1.0219423165278276,1.5978580707707832,6.8689078923857085,0.8851987584145875
2.248,-4.349832637425138,-2.3932179173486707,-7.403167501216455,-4.113437484757333,-0.7859308202318793,0.805266272637158,4.483922778543894,-3.320556999983075
2.2520000000000002,-5.96892969212414,-5.321909180677052,-9.156356113541227,-7.125705074912339,-3.4264029313643283,-0.13844285718535415,0.8542228669701584,-7.4637597248229754
2.2560000000000002,-7.514781414570217,-8.490619095314287,-10.37865883186785,-10.716440323071946,-6.3782342100692295,-0.7328341139836226,-3.092716194424312,-10.674938535465184
2.2600000000000002,-8.049105556770243,-10.943415403562938,-11.08914145327972,-13.872464892581975,-9.0148929691926,-0.5792813673146135,-6.406813132195916,-12.481781916799925
2.2640000000000002,-6.891064176380119,-11.908810264599728,-11.598065608084156,-15.479797794634795,-10.862861479218193,0.4098429747838028,-8.472347030879755,-12.89349671246499
2.2680000000000002,-4.070706662380749,-11.16387536622824,-12.30663961008693,-14.856292205593629,-11.80364661250345,1.952639939699152,-9.183128731195868,-12.298597229426507
2.2720000000000002,-0.4486761058254656,-9.157193454719039,-13.444891236173927,-12.139214391319925,-12.100548129421055,3.5343789903394924,-8.872726191931537,-11.259961158902797
2.2760000000000002,2.5970642179201797,-6.817060592489836,-14.893968054107265,-8.308309114993055,-12.2231374033796,4.656931674143065,-8.063584396904872,-10.309036630836616
2.2800000000000002,3.7932366645269795,-5.129319837880095,-16.203349931344746,-4.804329254147077,-12.568459757023842,5.068298459974353,-7.2011567915368815,-9.80294039782294
2.2840000000000003,2.615305618957686,-4.678820072072514,-16.79842044904661,-2.9050722575031185,-13.230015639313853,4.83770799091881,-6.509465402245604,-9.875256635474468
2.2880000000000003,-0.4140416771380444,-5.395527683958542,-16.285439682767027,-3.172162788719051,-13.953477690772228,4.230620191515104,-6.014864799734703,-10.466295016572289
2.2920000000000003,-3.963619623370363,-6.634961232583056,-14.695654902510022,-5.247920452773931,-14.305541825849133,3.4853461744862155,-5.690775017601252,-11.403400395089363
2.2960000000000003,-6.551444627639914,-7.541069877869228,-12.526351557440485,-8.084839607666972,-13.95125155750464,2.646290044897435,-5.595982190079481,-12.496119168164801
2.3000000000000003,-7.292139913071615,-7.498142310755782,-10.537172330176702,-10.48100814763858,-12.872540298078434,1.5634507955752204,-5.909998818942588,-13.611561051178212
2.3040000000000003,-6.344357009515414,-6.4433201039041785,-9.404242710174621,-11.652375412279046,-11.408879774493837,0.06535199417101456,-6.853058619454004,-14.712413584209058
2.308,-4.799828411747293,-4.886222893223146,-9.412393775255289,-11.55406855350177,-10.104676213821762,-1.8273894223882237,-8.549187976468298,-15.838954922670029
2.312,-4.071490591012624,-3.650228277612296,-10.348692557772091,-10.822536007197462,-9.460981337946041,-3.811855914583205,-10.930783840507754,-17.044859385652472
2.316,-5.103619977493774,-3.47041666438297,-11.640557888936335,-10.396795798108348,-9.72440892446106,-5.404658258058495,-13.729683321273432,-18.31528715677154
2.32,-7.839769454925533,-4.654483670899232,-12.642819091751093,-11.024638553325193,-10.800249044507384,-6.188978848695722,-16.530872519748613,-19.497743039444973
2.324,-11.244460023964404,-6.964840715942757,-12.919125338143656,-12.905996569486604,-12.304847109928797,-6.040190523092463,-18.85955716418717,-20.294600998383032
2.328,-13.860738331891106,-9.764772800602557,-12.378849347125518,-15.629506000884566,-13.715330746985067,-5.172899363692599,-20.266423647546514,-20.347963052145445
2.332,-14.58362170462214,-12.331124439712543,-11.228369034113076,-18.387385523018434,-14.543000990307897,-3.984513581739395,-20.408506637234154,-19.39998132565123
2.336,-13.211633594641288,-14.161912780033177,-9.803178086400717,-20.325629724035263,-14.46437908694454,-2.798536237490738,-19.138179206307463,-17.453538785323698
2.34,-10.48362483303522,-15.141601977531394,-8.403856837761014,-20.86727511315638,-13.399840318149053,-1.6942819645379954,-16.601974997809634,-14.84979008714717
2.344,-7.601994636643821,-15.508218599462442,-7.232122927448955,-19.87004710493144,-11.54592141576145,-0.5489307973193882,-13.30469747506243,-12.20460641142068
2.348,-5.5142498284182615,-15.649223961421116,-6.416725230077214,-17.572306624081673,-9.332030914434075,0.7417421711103414,-10.04395947139883,-10.192361638702499
2.352,-4.385571215005463,-15.852225083329767,-6.071076276900795,-14.416418754039372,-7.3012754233097255,2.027173549780525,-7.676455245806121,-9.267290304176655
2.356,-3.572272053968705,-16.1372375013861,-6.300672687329301,-10.86047132716668,-5.9335072724716476,2.849744860421504,-6.785092821485523,-9.462375769183893
2.36,-2.087676634805087,-16.233071075863254,-7.130767312931473,-7.26275331078115,-5.4597591513319275,2.6518921307109244,-7.393441691678314,-10.374318817372476
2.364,0.7283453519757108,-15.698328179855313,-8.409475058067354,-3.8676450249483256,-5.750566634812138,1.148329711504383,-8.899387250059299,-11.35169883169052
2.368,4.711819161829762,-14.135008880201244,-9.778155935328371,-0.8632225781148097,-6.3588302441395985,-1.3883104395334298,-10.31494557353934,-11.809738207614147
2.372,8.869421228903686,-11.378860662481198,-10.755388938959127,1.5728394886867925,-6.716295031307895,-4.128677703631322,-10.732529068105215,-11.512158629104096
2.376,11.854555061819408,-7.602483069497726,-10.931009029463965,3.2799518627751345,-6.413458630431758,-6.024574979872416,-9.786849678342568,-10.673846618233428
2.38,12.62315057302258,-3.31025244412142,-10.174852759641041,4.155903548721526,-5.428416015577842,-6.338679038685285,-7.852804716996431,-9.8290133153149
2.384,10.927663286733296,0.790074162933891,-8.721912261107267,4.21081643438516,-4.1591736999935,-5.055127878923617,-5.844630244083634,-9.52666360476371
2.388,7.392927398940383,3.9912226152787325,-7.078379247675816,3.582587680133458,-3.2397809731286102,-2.9121099458676127,-4.715778109502228,-10.0246011713566
2.392,3.167356486509867,5.803639914968005,-5.786953775459303,2.4950145826379257,-3.232122328441514,-1.0266508571603876,-4.928582659799362,-11.143423667865557
2.396,-0.621382067188275,6.120283195392863,-5.165858498499816,1.17948290869575,-4.335842334910226,-0.3146130385655632,-6.190970461809808,-12.351449185373845
2.4,-3.3051253789507915,5.259382660494326,-5.165187165384508,-0.20555789341058972,-6.274481482034915,-1.0307071303259367,-7.619317025264207,-13.032928546847547
2.404,-4.82361244870717,3.8591062305717356,-5.4183401240227855,-1.6182362050541839,-8.411668113608911,-2.6893506125184063,-8.237826057906695,-12.790940610611399
2.408,-5.549629752992564,2.661890618442943,-5.445842883014141,-3.096836679652056,-10.02071477634029,-4.393530988243756,-7.525732072923473,-11.612806374195305
2.412,-5.966420622159904,2.2445754033741445,-4.89861705294285,-4.673886144923582,-10.567843847483166,-5.367289483092459,-5.696521572589255,-9.823843291539568
2.416,-6.395034730086841,2.8047871602473733,-3.7142670960404107,-6.287752823973072,-9.879184012985483,-5.368668269928679,-3.5522093758498827,-7.876575732404183
2.42,-6.889620196143729,4.0954304332502485,-2.112738632051692,-7.736069651377102,-8.143425917530612,-4.747850577709074,-2.0189909628171883,-6.100970263118128
2.424,-7.290745579604283,5.544151823751471,-0.45294877388097676,-8.69673259346799,-5.782302757653358,-4.149849073422017,-1.6414857389747057,-4.558831474325257
2.428,-7.348369036972546,6.510607779785226,0.9463296191177636,-8.828709185575773,-3.2924393102692884,-4.0671328785463015,-2.3261199905076775,-3.0763790176074797
2.432,-6.810058513857358,6.585331233562996,1.9176226918660528,-7.898369311986926,-1.1306190348420355,-4.539364859546756,-3.467222237945784,-1.4089441520648796
2.436,-5.461283748160022,5.79018813644631,2.450296097866059,-5.873407263379119,0.347267844290688,-5.174767566440384,-4.359076795135644,0.5765649802237882
2.44,-3.184052190503924,4.560690214906148,2.601142293986729,-2.960345932071386,0.906871816082103,-5.459805322117219,-4.636881510721942,2.8075709992235227
2.444,-0.04334258763995891,3.51946618526042,2.3964534796779935,0.4469945774006092,0.46344078462604754,-5.149716395772036,-4.476996610492023,5.04259452922347
2.448,3.6064518821824167,3.140655050352855,1.8040043264586316,3.8801066371617305,-0.8826865165194087,-4.462845346371699,-4.448371461535197,7.004032668875766
2.452,7.093753351620937,3.4779439612064627,0.7951147431468726,6.920097754935755,-2.83817859633475,-3.9435603931830494,-5.1247697189827885,8.51833657076919
2.456,9.57516736841043,4.1141469226579215,-0.5421096404170017,9.292208168026526,-4.974360643035504,-4.090659391241225,-6.696537056537327,9.584046446861953
2.46,10.337349456106026,4.365124658777273,-1.9289087743713704,10.88750711364884,-6.865111161459819,-4.981417891606206,-8.803115105860844,10.342052940561672
2.464,9.130281497078967,3.641042208451287,-2.930063965261882,11.718211186306995,-8.253467229874325,-6.147105505743512,-10.679196390217356,10.976437835312343
2.468,6.340991556200117,1.785239819227799,-3.1085791625090136,11.839652085130455,-9.15269367035986,-6.807645364368614,-11.529584853306524,11.62177431526939
2.472,2.892538302199285,-0.7842406999022844,-2.235146548360616,11.304229729145872,-9.804886642149059,-6.317505213671042,-10.902186393481147,12.33588772481517
2.476,-0.12427604936967196,-3.2299859860376907,-0.4446540058548061,10.164260948013258,-10.51671934330226,-4.566555980815323,-8.875610341198184,13.11865190073
2.48,-1.9158695298763577,-4.684503429598309,1.7580372437947058,8.510729979800477,-11.452986805606542,-2.094801878388834,-5.9801351936317575,13.94155242428107
2.484,-2.2851282491566036,-4.663937284392517,3.677731882372456,6.5227297515196065,-12.498975663838598,0.16778087197753955,-2.9143260455558297,14.75695953425009
2.488,-1.60891576230968,-3.295435669497078,4.727933209941698,4.476593832680756,-13.278660228377522,1.3875155766927438,-0.21763733830557608,15.474265008868413
2.492,-0.5321325083808891,-1.249263155026552,4.7082880375458815,2.678386720176725,-13.34140341496908,1.2536351741999354,1.924769844550672,15.927168630511012
2.496,0.4209387386948096,0.5899587977601946,3.922525236068512,1.3449230496814328,-12.41053652667221,0.10436252207929941,3.6599316205386616,15.889065393952931
2.5,1.0883573163960045,1.5454745442695592,3.067200371253972,0.49550594832145123,-10.553370848527138,-1.2978523829045359,5.278891075917871,15.159314551184835
2.504,1.6512273434026858,1.4602060159153365,2.9279720633084905,-0.057883167287624104,-8.171840435076415,-2.2110554153288664,6.986727662152011,13.694699021042014
2.508,2.391324427131529,0.7433877633746244,4.014554612958358,-0.5966453960339786,-5.818634554553549,-2.3193344553986144,8.755489250301135,11.709625063654881
2.512,3.409530879622943,0.13911681442221457,6.308883600064697,-1.29688178407517,-3.927904365922518,-1.8519374847400691,10.329969170742757,9.674619357389357
2.516,4.514108643182626,0.3521503616220456,9.2455770599055,-2.0503912361945122,-2.6088511908045735,-1.364097935797643,11.368132184864113,8.18720477566314
2.52,5.334031049657243,1.7115910099322758,11.936200273423728,-2.4291163511991236,-1.614385782100719,-1.334546865179414,11.63158859896949,7.754799038685831
2.524,5.566631793541807,4.027080476850719,13.541089824721148,-1.841761254264597,-0.4951514966635262,-1.820824732080335,11.119781184313467,8.589394181996404
2.528,5.147077789226633,6.672293022605279,13.611164023378926,0.14967242214651488,1.1314231742112604,-2.3925342146362114,10.076651356760184,10.506172961980663
2.532,4.243487187120884,8.849755548072634,12.24790930699224,3.512686303463398,3.345237689048165,-2.3913339439422057,8.870431165191587,12.986734028813256
2.536,3.0963823618974784,9.915816184573368,10.02259790025581,7.605458112320527,5.846418344786322,-1.3522437453420038,7.8076562717755325,15.379105491641692
2.54,1.8155956921460628,9.621788888095319,7.70206192506026,11.324914443103498,8.07004715346486,0.6634264193396513,6.995041498233215,17.14434431113314
2.544,0.31884286745873225,8.196337109606425,5.923219991012139,13.520705150536363,9.435439112101257,3.021230260716082,6.323308226034375,18.036039136113146
2.548,-1.5270656855404428,6.257794717137939,4.973494848755946,13.49165163767791,9.60090775210339,4.791314223280401,5.5886058666228635,18.139732952148876
2.552,-3.6664788910923143,4.590880785359344,4.761065471225157,11.328840189187384,8.60743776629106,5.218296715756409,4.674757486514132,17.771953104516403
2.556,-5.712444527972888,3.870632266680154,4.960074655208454,7.9203876519048215,6.856037123567321,4.102147202727657,3.6880943904510586,17.29412287846664
2.56,-7.049921005725014,4.423256529592245,5.231728313286096,4.584330827336494,4.938059760187089,1.9046764704375918,2.96033249396877,16.94078535518041
2.564,-7.1576133721138175,6.103319007486062,5.40170468491573,2.4911658114583366,3.413465676940921,-0.4664293346468211,2.9027284252343577,16.743412395383324
2.568,-5.945094559217708,8.343929724812245,5.517124226624161,2.149307788281761,2.6401149156695882,-2.0973199361813184,3.7770955086958207,16.56577563288575
2.572,-3.8815588279448168,10.371598751107687,5.773511670328295,3.1973553517271878,2.7082780643623856,-2.4897593666829207,5.512288853833729,16.21122221553948
2.576,-1.7908513615007529,11.524344818192375,6.374263936478646,4.6099670808417095,3.4943639802037736,-1.7506330419857161,7.673484455483347,15.538235567163076
2.58,-0.3999102285502456,11.54630354662427,7.415746364121316,5.2145528619121,4.779094058416803,-0.46349243017859143,9.621529507353452,14.53223371352614
2.584,0.08233411172614957,10.7292888964869,8.85029153863083,4.256652474562603,6.350269658297319,0.6573072941092066,10.79334590423495,13.304518343709596
2.588,0.07419213582430473,9.812382002247919,10.528126959133578,1.736100959958046,8.04631031252402,1.1269987607733931,10.95265595431419,12.035037137170523
2.592,0.32471516402625866,9.650206414683488,12.265392180558356,-1.6379034457043158,9.72824482318492,0.8938105887996244,10.273705557812356,10.891092609215088
2.596,1.3587066167354664,10.785256457646977,13.887641197048842,-4.834474972210284,11.218562069253075,0.2826790517865714,9.21368041298362,9.959124094400352
2.6,3.0231246041809614,13.134557927387942,15.225573285959303,-7.010445757316348,12.262934388635344,-0.25960484008408446,8.238777691671581,9.219383664754197
2.604,4.443584877688504,15.9583737726233,16.08077408550598,-7.874537130448653,12.550025920376154,-0.45658209788185466,7.555327272159867,8.556613804794942
2.608,4.46918585586437,18.15594197231927,16.209678736071666,-7.728283691284769,11.785320403220272,-0.37245189951729785,6.9918566851295045,7.793563942355577
2.612,2.3721247861590102,18.762597736205517,15.36717041998483,-7.197079537092712,9.78589415668268,-0.3601062663328971,6.100450816188086,6.739265432898282
2.616,-1.595239053149057,17.415765742864377,13.407705318866471,-6.822279291560517,6.550807864294745,-0.8307281300033278,4.420994796141552,5.240748052779325
2.62,-6.145980045243662,14.545927646130933,10.3906326008885,-6.748770169991811,2.28332663613358,-1.984367161063096,1.7715476419852834,3.2383735870969543
2.624,-9.49635166849373,11.191222793318563,6.633526605920447,-6.676724753526944,-2.6357349201514597,-3.6382148692366654,-1.5827740971114013,0.8240636999367563
2.628,-10.226386873687307,8.527360435444828,2.6675231548580656,-6.091074251108525,-7.715247910723688,-5.259342134739283,-4.982300719423492,-1.7273565334033685
2.632,-8.00443327335609,7.3332169951530215,-0.9072024974112811,-4.625110267277879,-12.436064563766028,-6.205925698985797,-7.619714496763471,-3.986027360029307
2.636,-3.795140729879183,7.655452282742939,-3.6130432894123246,-2.345634496831824,-16.326554861968457,-6.0469510056299995,-8.855234024304606,-5.465110372098662
2.64,0.5826070053339585,8.838645936047744,-5.250502146081679,0.21641500456184115,-19.031002280739994,-4.789322353054156,-8.44859974774174,-5.766618686923154
2.644,3.3083481221201474,9.892751015824244,-5.948571294996963,2.308720250986519,-20.357725048998052,-2.9113357935694486,-6.6183150188257756,-4.733197751481283
2.648,3.3720148611109106,9.999683389149464,-6.082881822374203,3.345423920368538,-20.296316067483048,-1.1604419731139304,-3.911137509885286,-2.5367854137766486
2.652,0.9364345852716109,8.90050634420999,-6.096783252942526,3.2227763488062138,-19.009068328697193,-0.19702459581179887,-0.9567508907210751,0.345366737298356
2.656,-2.894389207003446,6.982171702518687,-6.2980528503656945,2.3953520930589223,-16.775684620167137,-0.2776359659434018,1.7712125475531462,3.273402911221325
2.66,-6.710152383734458,5.046532780021866,-6.7224116624421,1.6709855407158658,-13.904539949568152,-1.1380296707093949,4.090056553366686,5.654558099743042
2.664,-9.466046553565038,3.894881502482396,-7.1186152674705365,1.822332608740391,-10.645430276019752,-2.144685574136786,6.096565258998011,7.1346944661807745
2.668,-10.840038415429525,3.952373284874956,-7.059136703363915,3.214411900149459,-7.13247657567531,-2.641372871046479,8.03212424577014,7.696564271350146
2.672,-11.152503382457336,5.105351129268605,-6.132056337695422,5.623696158113612,-3.3916715896305494,-2.3259547017325155,10.106867450944298,7.625773474619424
2.676,-10.976392170368282,6.811744269946914,-4.12859248786082,8.329131189730251,0.5858630248772234,-1.441554285723596,12.370916723912826,7.36548073833516
2.68,-10.731964747833098,8.388652012450915,-1.1586771861425398,10.432922102663474,4.740967789695599,-0.6617391191440216,14.681858344953053,7.328302535241689
2.684,-10.509111386400583,9.319375011786653,2.3470762680887254,11.25092111619189,8.862054139434917,-0.7307449707965903,16.752704978426355,7.740562604742554
2.688,-10.174847335795711,9.43794762909629,5.746768947204447,10.593995034586891,12.570561303952376,-2.039693115949962,18.234300552169145,8.574208901165393
2.692,-9.614815838442563,8.92933992202557,8.36639737534955,8.836441906618981,15.395005265527594,-4.372685302266381,18.800700491805166,9.57763325469266
2.696,-8.901872165494463,8.183484098905199,9.688085788138183,6.747673843094652,16.91144858852674,-6.9644219305329536,18.20692703082225,10.378666355728738
2.7,-8.255114999368008,7.609849412314499,9.49297217261704,5.179523612665144,16.90212397590493,-8.84952059885131,16.336274967881405,10.621817991383105
2.704,-7.806280971625688,7.4960364413604355,7.916681052668011,4.759532346099835,15.462870349786105,-9.310395499894108,13.260103270040613,10.0949860742061
2.708,-7.382513574548628,7.946159240790292,5.403067499992492,5.699242063268294,12.998933301990323,-8.171905295215838,9.299560255722575,8.815125896360705
2.712,-6.491680908773174,8.89854928744008,2.57545320387176,7.78737348229972,10.106682716631214,-5.804788605288465,5.050716310525198,7.0553364489572745
2.716,-4.572079858696664,10.175847527676297,0.05378529233299467,10.525474828607281,7.372688296479445,-2.85742140252836,1.3140522165048392,5.289106895348088
2.72,-1.401674126826796,11.510728071867659,-1.7501940048063922,13.303149056197466,5.138946218322924,0.08843024388941112,-1.1193348481862293,4.038800197840301
2.724,2.575122058887416,12.53578443502256,-2.796850572304013,15.530984748206246,3.3262595237951267,2.712782495349141,-1.797260144720639,3.653606677876291
2.728,6.228659732703084,12.779962786767864,-3.4727293862217508,16.692912478401258,1.4076707252682636,4.890939075763659,-0.897387639819418,4.1001274630922255
2.732,8.123225088420474,11.722316528283917,-4.484969961463749,16.353024329627697,-1.414528506306361,6.449420338904499,0.689731528438184,4.874883377025583
2.736,7.115722682432957,8.914058286376106,-6.60758236391627,14.163955740369502,-5.867690016277497,6.9649764233028035,1.5903277672170448,5.116926948809953
2.74,2.8867246311517105,4.156696255472358,-10.34642597327936,9.936727507455801,-12.21766174476252,5.809650915729328,0.47868471585406436,3.9295049960336
2.744,-3.8485433723993756,-2.317894956830045,-15.63920413359463,3.783186203321862,-19.987523566771472,2.478631731858787,-3.2965344261254756,0.8077522729570048
2.748,-11.546143996547737,-9.73438089198502,-21.712282625059345,-3.7300049049028066,-27.92075409296289,-2.95352065172875,-9.271962400640824,-4.005853939661852
2.7520000000000002,-18.365386242947782,-16.813899108350252,-27.197518902631426,-11.534966214281987,-34.25898098504342,-9.547413631226325,-15.8767137467518,-9.437366117281726
2.7560000000000002,-22.7899834233342,-22.00831375028386,-30.509442224371433,-18.218945842166985,-37.2683370685406,-15.62847037414777,-20.938320339227843,-13.868278061568272
2.7600000000000002,-24.05032835284343,-23.88943134034986,-30.36166128941001,-22.371887351705993,-35.82896556869417,-19.348599658635603,-22.507028373549787,-15.712932017482174
2.7640000000000002,-22.223587589488467,-21.59498388852633,-26.235174723826113,-23.02598879493058,-29.861399713668423,-19.44043792207591,-19.64003032754519,-14.047839884269687
2.7680000000000002,-18.044623444029078,-15.188142667439982,-18.620768589315503,-20.02361743353434,-20.414583744702874,-15.778297785897168,-12.796844243840988,-9.01769603655218
2.7720000000000002,-12.57410592658402,-5.785167873566778,-8.932164499364351,-14.136690908197764,-9.381481437289878,-9.457620532917872,-3.662959091218986,-1.8155312155261747
2.7760000000000002,-6.889886016276295,4.650224475097616,0.8984518255054477,-6.850462451974993,1.0564123977645967,-2.3367346358351475,5.513124260593354,5.777866784129814
2.7800000000000002,-1.8840886708754736,13.826904043358315,8.990718200969578,0.11931733121070465,9.043694891844902,3.7391318384345755,12.748823337355175,12.086406801186754
2.7840000000000003,1.822169098018981,19.800368049976573,14.043158092580597,5.378884686057548,13.497185943959659,7.633359771615137,16.96300150976097,16.137409360916095
2.7880000000000003,3.8962943997044905,21.554157286563978,15.633096655873718,8.24980142629152,14.250905589211646,9.219407552684629,18.157573519367375,17.896747197377803
2.7920000000000003,4.309588890134841,19.26907147874541,14.210252849087334,8.85405324376079,11.910943628500457,9.19195539658218,17.145458701985774,18.060564810122155
2.7960000000000003,3.3589419025542986,14.17347506524898,10.819322907838504,7.882561913406664,7.530889250702202,8.545146184692006,15.02460512063848,17.550752070294404
2.8000000000000003,1.6362371711422643,8.024934837382808,6.679616945768679,6.182984138086227,2.2507645905582856,8.037859643966208,12.669815475777105,17.00526145114842
2.8040000000000003,-0.09224091205098395,2.4551558841609893,2.8002380610954463,4.382957275811684,-2.9725885445985027,7.9204354660848075,10.476739585514952,16.538598422522092
2.8080000000000003,-1.0859625662924346,-1.5383164727841665,-0.24291460646942298,2.7194142969432016,-7.494870293576764,8.011390183995832,8.413075438266308,15.879635924277547
2.8120000000000003,-0.8588122601847219,-3.757312414903641,-2.3286811268459937,1.1194893198148352,-10.997754198475038,8.003466599660522,6.263104816507104,14.756491258325093
2.816,0.656066569317774,-4.599449994451913,-3.6418277646594404,-0.5555680000309953,-13.42717710030577,7.76235164513031,3.8811504732381827,13.250725357550733
2.82,3.078724251287352,-4.65539341840252,-4.456289917263424,-2.2758385041946614,-14.902962718702609,7.4344401197573315,1.3238317194911362,11.873555823315005
2.824,5.686680013572531,-4.366876431517731,-4.9653188099973375,-3.7807087264478065,-15.628224501534515,7.322997322371762,-1.1835989256757387,11.281221260448362
2.828,7.632723458928246,-3.912180813167076,-5.212187246260644,-4.709085297471098,-15.796557498354334,7.6475944955936725,-3.3795816663670033,11.802452347908073
2.832,8.189856542565868,-3.331764867271162,-5.123308432784173,-4.828366917725056,-15.504031797225387,8.357707991075763,-5.092547039318872,13.085081454966762
2.836,6.944530790445386,-2.7466768144567015,-4.601705115971516,-4.2205960876927815,-14.700736069495917,9.130554875548322,-6.298468825453969,14.122093062243966
2.84,3.9259626425852794,-2.458599012251365,-3.607367872405844,-3.284450963733936,-13.213067857424347,9.55112492598034,-7.089570954990878,13.710310878779142
2.844,-0.3609539420509814,-2.829626904178004,-2.185464582917963,-2.539661040775095,-10.844699915674761,9.345220468201592,-7.592346094880141,11.121453447313694
2.848,-5.030412960828818,-4.019861450557765,-0.44585551705809534,-2.3481122626874993,-7.537288061854576,8.521660602735151,-7.897623470915422,6.601540395881886
2.852,-9.02520634960959,-5.771627384947469,1.4868112764584094,-2.708538107621855,-3.5099588558339443,7.350411458248685,-8.042564413783717,1.3879115034059035
2.856,-11.41145785187461,-7.432144918890872,3.5143659946724366,-3.2420566680945506,0.7077675471699152,6.193780296164665,-8.027077199428156,-2.818804364384955
2.86,-11.691022340648104,-8.266797051475393,5.564428459429231,-3.3875483463657456,4.3864463539009755,5.298659535514004,-7.8485792400549705,-4.6841947912699125
2.864,-10.007154106435038,-7.899680019082222,7.556889322128009,-2.701102429287354,6.8253294346320885,4.6737367513061985,-7.535176346784155,-3.9352979528286993
2.868,-7.123342100051506,-6.595812491062702,9.374898257960568,-1.088190431972376,7.614434279038843,4.120396940846857,-7.164583692731764,-1.5301650689997541
2.872,-4.152201773746551,-5.1939859516596805,10.859495733879656,1.1443208179293456,6.793808808452136,3.3873332254928066,-6.866908273756662,0.8045583464459325
2.876,-2.108935975897165,-4.682060702085327,11.834048703460505,3.430678510306347,4.8174894583933145,2.357544614694502,-6.806904845514918,1.4372371769055663
2.88,-1.4732895852757357,-5.643670313822063,12.148233703948629,5.205172731370457,2.328512858958396,1.1650253642687056,-7.157225287697775,-0.35920430010610715
2.884,-2.0003546375484103,-7.9213251693721904,11.705674225683675,6.122170755130608,-0.15950714230349416,0.1795839944180404,-8.06537954681839,-4.087617324875079
2.888,-2.8940056621505974,-10.710721083907632,10.460912903070863,6.136136763034693,-2.5115230560810193,-0.15520313635018745,-9.613193331978692,-8.351961953865212
2.892,-3.250530553548125,-13.029298101075108,8.408173600472049,5.443218223707804,-5.001217524047398,0.4553484320475885,-11.768015895221481,-11.623359972049744
2.896,-2.5521473627185225,-14.28424887486263,5.581705120911051,4.348471534110947,-8.08318639755419,1.9713887881217078,-14.356322150123958,-13.012531050488384
2.9,-0.9332238247085098,-14.573709398395266,2.0957248995811653,3.1559540551666485,-12.007942090135838,3.9731826351949566,-17.06574306886722,-12.620664145035343
2.904,0.9149506428995933,-14.54003358167759,-1.7930188533515712,2.1258905963633192,-16.490594811851988,5.7944115539484455,-19.483811691439207,-11.310402244671591
2.908,2.157802584401682,-14.868917234681135,-5.647198782672912,1.4858040624889046,-20.634148545110666,6.789767591844618,-21.176007356801193,-10.076386369370207
2.912,2.3015077052588016,-15.759174817220003,-8.892957542085338,1.429886353148584,-23.19524920158448,6.624402340568492,-21.778003019724164,-9.412004076063731
2.916,1.4596677920654075,-16.710707378470577,-10.96331124956463,2.0535795130877634,-23.093193112572603,5.439578344230855,-21.09290235315355,-9.054641954670894
2.92,0.24605648322612406,-16.78272568469395,-11.49822208088737,3.2451776593780144,-19.928944482446983,3.8126759817013913,-19.17612043603293,-8.25047631549261
2.924,-0.6508960279056618,-15.176557523042224,-10.506480062832303,4.6021858738813055,-14.241754239449534,2.498684341464533,-16.37180539836588,-6.351586938131803
2.928,-0.934721106702203,-11.771603544109269,-8.389596234173528,5.471559411327602,-7.341561587231345,2.0610490650142186,-13.256706377043933,-3.3573809148131915
2.932,-0.901989063469467,-7.270324173548676,-5.791442074247971,5.160861107102891,-0.7785818860488671,2.5819909777386276,-10.48024073453493,-0.053022879998212424
2.936,-1.2499491760173034,-2.8653606834748264,-3.3351403853706882,3.2467298618323923,4.29207313699566,3.5959054350900677,-8.545443198104458,2.342739729687227
2.94,-2.6109088899189734,0.3614442229185433,-1.3893601420520232,-0.17682219113084052,7.514310011566881,4.293313780447189,-7.629238447856462,2.816545974587651
2.944,-5.0923420335386975,1.9525688342350085,0.0042983076736977655,-4.4567228383482975,9.299770372116804,3.9160682938193268,-7.5307142759766705,1.1067607546741272
2.948,-8.116774821774516,2.196089051938749,1.0009739749582134,-8.601780849306767,10.396303931734298,2.1415393534473046,-7.798471116193806,-2.165832485427706
2.952,-10.682794965442483,1.8026674314197695,1.7016417303949312,-11.688839177442846,11.306263629060615,-0.7472784658837477,-8.005538663234008,-5.852170857253178
2.956,-11.900441017706967,1.3793283194397272,1.966462006317449,-13.246344078454207,11.91482826218133,-3.995803227681823,-8.03078294706419,-8.891318127100206
2.96,-11.496729119859129,1.034466097736211,1.432284451467172,-13.427750445621975,11.549028735149323,-6.733945133598489,-8.180492637837151,-10.820770284039822
2.964,-9.973953042817868,0.36464914494010214,-0.2476288903866377,-12.878811294398465,9.443900696560299,-8.36155444387555,-9.05378313769497,-11.902169202318758
2.968,-8.309434801934014,-1.1870586947075752,-3.07725995894721,-12.357510655407353,5.340434045699075,-8.758856982114667,-11.192410023599674,-12.81478008063037
2.972,-7.4064282446196295,-3.8692019387023437,-6.531240897080135,-12.336666241207457,-0.17543149572305428,-8.243571776346657,-14.704380044887255,-14.15021943588343
2.976,-7.5953498971552715,-7.342494450461659,-9.661587550075815,-12.78930411035794,-5.813441511124376,-7.326292000245454,-19.072015385691095,-16.020128994989733
2.98,-8.474719876342693,-10.761468460391924,-11.497742721232708,-13.266692661806127,-10.153563360274592,-6.421667317943977,-23.298476563625535,-18.010485575174005
2.984,-9.180272361364489,-13.160788249495821,-11.540740153169825,-13.205919604817502,-12.342248140463067,-5.686183774242801,-26.33983675206089,-19.48585280561734
2.988,-8.91418158346374,-13.915438036944092,-10.066026658346322,-12.279449268473481,-12.506049339854044,-5.057114767709576,-27.592610597220084,-20.02246873833587
2.992,-7.426254690612944,-13.013594774531112,-8.030588417001866,-10.589432364933211,-11.636677517718702,-4.41824527729625,-27.17710494094458,-19.684387263905652
2.996,-5.1605406638261275,-11.009806000863588,-6.591841118241289,-8.593059149152948,-10.992258849114869,-3.755070808818669,-25.83720024967269,-18.96208851814856
3.0,-2.996691186020951,-8.729177601362235,-6.489503079872441,-6.827018757805899,-11.3529023432042,-3.1953057565420746,-24.505207910704527,-18.42329178459039
3.004,-1.7693116354189309,-6.902683895323645,-7.632922732149493,-5.622306946639182,-12.557694759579164,-2.9054523341163687,-23.77013193697379,-18.31652728888693
3.008,-1.8450787047610506,-5.9126739583813865,-9.132601943966709,-4.9820717473658584,-13.582401681658991,-2.9208542646507922,-23.556149200356096,-18.375377605710792
