Timestamp,O1,Oz,O2,PO3,PO4,TP7,TP8,Fz
0.0,-1.0516032489249483e-12,3.126388037344441e-12,3.0127011996228248e-12,7.958078640513122e-13,-5.684341886080802e-14,3.410605131648481e-13,-3.410605131648481e-13,3.865352482534945e-12
0.004,-10.020126899029435,-12.643412487811815,-39.60052373407029,-25.819337821383442,-22.686769114304354,-42.29296129015188,-11.90744277229146,-23.107543129583746
0.008,-16.919616264951173,-21.629505256576294,-68.48046884487263,-44.42930483303837,-39.161829776223556,-73.4807485608826,-20.2101245596603,-39.92571699439509
0.012,-19.034031484427885,-24.879464440621803,-80.63279040011861,-51.73593866355435,-45.91777616703973,-87.18596039086515,-22.913852512496646,-46.86869789620755
0.016,-16.873131265734855,-22.731817857965893,-77.11626361152253,-48.35732919034024,-43.526169234493466,-84.15681999626167,-20.434111503816496,-44.428581285426276
0.02,-12.73142854979136,-17.632504152984097,-64.88025397297628,-38.92202373346663,-36.0138803545355,-71.18034537216704,-15.194219020842809,-36.573477503412164
0.024,-9.45105265147214,-12.891432837985178,-52.884432284446916,-29.558511738956213,-28.679091628301308,-57.27893563645614,-10.300773807930113,-28.566963079642733
0.028,-9.006203619097818,-11.136925394571392,-47.65088188762269,-24.934267231353886,-25.53824437808072,-49.270194963842755,-8.024486298427007,-24.40150418567157
0.032,-11.660341756112217,-13.235158804248215,-50.62662080221611,-26.386949235617863,-27.74282988463534,-49.034788523248835,-8.885136333925857,-25.178007539048963
0.036000000000000004,-16.093295936350927,-18.165161447578726,-58.557827244557245,-31.981516213494274,-33.665604037680794,-53.72729296851753,-11.758503346983787,-29.16112760234114
0.04,-20.302092100975756,-23.784864347397473,-66.2223976210592,-38.164897530292706,-40.33310216001536,-58.36575130018764,-14.792341669572636,-33.25500908889114
0.044,-22.714061896147797,-28.011005059843058,-69.72449745099976,-41.9260994692666,-45.23564315540369,-59.086303374608406,-16.53333733443617,-34.91782289158937
0.048,-22.881360212947015,-29.76277699449841,-68.41436293403007,-42.2139687721218,-47.46438715529291,-55.148044207537055,-16.60397779853571,-33.428834906681004
0.052000000000000005,-21.467638875019816,-29.25334795537259,-64.62648145754792,-40.00969784577063,-47.71816327088112,-48.80986409535831,-15.642864852735215,-29.93484031021285
0.056,-19.674993368857997,-27.611775923173695,-61.7828825592116,-37.30156687979519,-47.4468820736779,-43.53372282512203,-14.687561627624234,-26.46771396701081
0.06,-18.496885609449834,-26.105200571916328,-62.15684260661061,-35.70157314896147,-47.766884222636975,-41.75561313228485,-14.428721871872085,-24.627811412579945
0.064,-18.240312622281806,-25.433452333049388,-65.66053603864788,-35.563622001597935,-48.82399769265885,-43.59199987621628,-14.799159434160572,-24.712117435684377
0.068,-18.51012137792074,-25.435661861693376,-70.1519299221739,-35.990815737843036,-49.85534420529211,-47.06203219031829,-15.082719090619833,-25.707761352644297
0.07200000000000001,-18.5922715284932,-25.31369971155749,-72.90024238585488,-35.59654451789382,-49.79604677328274,-49.51103945536261,-14.423344365599007,-26.057004319586213
0.076,-17.95453791179466,-24.203625137267153,-72.22752839686348,-33.4670800818011,-47.99075936786977,-49.26264408540942,-12.398006329775512,-24.673794989651014
0.08,-16.530623663605553,-21.721436284694647,-68.290190072911,-29.68756211603565,-44.53312784875749,-46.446535056201355,-9.288088619110283,-21.579108234227306
0.084,-14.671742217071909,-18.191150273808347,-62.701335433453494,-25.197171065599434,-40.10454811778044,-42.646871972620204,-5.922435008810339,-17.821697721527926
0.088,-12.844335888642235,-14.455705198173717,-57.36749100061763,-21.147922502529894,-35.48971275592669,-39.71695561704439,-3.218427713543065,-14.815435696161046
0.092,-11.320479592166691,-11.428350333388778,-53.40173382817835,-18.261620563393507,-31.154800757191765,-38.63669483939981,-1.7140411372492963,-13.550925565707189
0.096,-10.070223573465313,-9.654668330448231,-50.77005332469804,-16.594126477655067,-27.16097714872501,-39.12972691736189,-1.3551355226547344,-14.143739246036944
0.1,-8.862317105606081,-9.082067119940632,-48.6699391255101,-15.726796994163152,-23.358997820160198,-40.09334174231918,-1.607640087850882,-15.901454509257917
0.10400000000000001,-7.486251388414871,-9.14548464710802,-46.273995306483215,-15.176529527695862,-19.673660107160828,-40.44089033971795,-1.7940736309590193,-17.784209846179408
0.108,-5.918764657105129,-9.087388807966846,-43.265408395011775,-14.693248113159541,-16.252316600686584,-39.72648274066222,-1.4426187134139354,-18.943815914729555
0.112,-4.35720959081371,-8.354086064690904,-39.94444965784794,-14.316736076046027,-13.443073781919509,-38.245136809597795,-0.5065668400198717,-19.075646104908344
0.116,-3.1365566525047797,-6.890540527825181,-36.99860737048013,-14.25129304445798,-11.678412574855997,-36.69109807650034,0.615009207783288,-18.449859231652
0.12,-2.565895527340672,-5.167529507694894,-35.10230109891174,-14.668523314117095,-11.319465451875544,-35.63315782548705,1.2683067195330011,-17.65038038366572
0.124,-2.7972919931442988,-3.946947606874403,-34.634867131633854,-15.603709119120225,-12.544560828666448,-35.19446179360699,0.8377667076287878,-17.196782412354025
0.128,-3.7665545729901737,-3.8921276155847693,-35.57203095166358,-16.96012876478366,-15.269789669804311,-35.06945066211756,-0.9605247525203993,-17.24074767236175
0.132,-5.229187879805295,-5.234619394863643,-37.57121206893905,-18.6002883234149,-19.132232861397995,-34.8432724975076,-3.925268548218014,-17.497508680387057
0.136,-6.874473434889097,-7.666451784122017,-40.1755320002799,-20.439619898658577,-23.55877231459553,-34.3797856787495,-7.420291582390689,-17.429687072888044
0.14,-8.426645542329197,-10.475700164295233,-42.93889944562602,-22.413916463085712,-27.8681607619979,-33.940999661277715,-10.591995401240126,-16.540680708722675
0.14400000000000002,-9.705131002345155,-12.855977697514618,-45.4740704687415,-24.360455073132925,-31.40668769235853,-33.97943496075118,-12.671599922156872,-14.60735388966225
0.148,-10.622963366364502,-14.221730379228404,-47.43175809432705,-25.907463869579743,-33.67887660533049,-34.73381628095342,-13.227922495782991,-11.74426033526106
0.152,-11.160523615553757,-14.407266555114688,-48.537825497660435,-26.528106109360806,-34.46464858519721,-35.96022822920156,-12.28721288235181,-8.313122857376356
0.156,-11.353428489937414,-13.682063010080526,-48.72045572360594,-25.788701697346028,-33.88002685001004,-37.01753129474423,-10.293168216862398,-4.7601377185309275
0.16,-11.274245296460549,-12.576917636096596,-48.15783219963254,-23.618083186143906,-32.29552396519887,-37.202678043423134,-7.905488726141357,-1.4572053139579566
0.164,-11.011944925372916,-11.621540985341483,-47.191779067837274,-20.423645808331287,-30.144973288039864,-36.139120448623885,-5.7376357739452715,1.398903335030127
0.168,-10.627801682143286,-11.10513081081956,-46.094590530294965,-16.9380070381132,-27.70589375572314,-33.953732605352116,-4.1445970240527,3.791979668590443
0.17200000000000001,-10.130645937902102,-10.986436983346891,-44.88990606142755,-13.904391913470874,-25.014944056629872,-31.206285720946994,-3.1674844447594523,5.789040730597662
0.176,-9.49597238003767,-10.985208356038186,-43.386033853580614,-11.791248715528695,-21.986638883466412,-28.662203693909078,-2.6430958034913488,7.389232709269891
0.18,-8.69052054796262,-10.760573577436901,-41.325740779771024,-10.642035412987354,-18.60583283720399,-26.97647928246954,-2.361281950353373,8.438307640032917
0.184,-7.705742752157846,-10.083467769867411,-38.57452035692353,-10.143180333278906,-15.058377149295438,-26.449346000545574,-2.1859719000056543,8.681752828567369
0.188,-6.569918163392572,-8.915583186526646,-35.189723964159384,-9.843268668384837,-11.690244345506528,-26.922460831193916,-2.072205947498162,7.926304533708048
0.192,-5.359998081371543,-7.394789533271705,-31.396208629852254,-9.436444846571192,-8.859366651912467,-27.889528715647316,-2.019255628242149,6.194114503403284
0.196,-4.224743416511274,-5.774159373858936,-27.55783730250414,-8.978605608080727,-6.816941471857433,-28.782805967209697,-2.041445551560628,3.7681008056654264
0.2,-3.3760139026431375,-4.331913773566214,-24.103595393953242,-8.869686628787406,-5.658784147539336,-29.22126943775538,-2.1711244787869646,1.1052409087246815
0.20400000000000001,-3.0435961339048845,-3.2973711048145447,-21.461587778367516,-9.617932912210222,-5.371732810474668,-29.116889489504842,-2.480394767419739,-1.3138483530003668
0.20800000000000002,-3.3883266440866464,-2.801897766382069,-19.965935547857953,-11.492655059529227,-5.904662827610764,-28.587486281266933,-3.0707481477677447,-3.124577879464141
0.212,-4.428473093384298,-2.8818848751728865,-19.79465074260088,-14.29878480392,-7.225999846689831,-27.810747222191708,-4.01358069674211,-4.173190690029855
0.216,-6.029751247277659,-3.5341904723528046,-20.971016297021833,-17.429152022610026,-9.34097201636007,-26.952615629296474,-5.272774546696837,-4.547307922589994
0.22,-7.944161024615767,-4.756452135068741,-23.328574619687515,-20.128870262883595,-12.219900069397454,-26.1379752625287,-6.641248054104381,-4.53170769960866
0.224,-9.885114217057605,-6.537649678934031,-26.476540258994646,-21.826810105223558,-15.69061489281819,-25.457414130653888,-7.768390058980458,-4.492409773167765
0.228,-11.591804087735056,-8.786901697759504,-29.811395214617164,-22.34691400654151,-19.37928664917638,-24.962504700732552,-8.286769212749277,-4.746436178877843
0.232,-12.859610783356004,-11.247274932638561,-32.640510311103526,-21.914381817619983,-22.77163268816139,-24.654035950135267,-7.9909640917481966,-5.472619347253385
0.23600000000000002,-13.5318464137099,-13.461836542437993,-34.38356845643227,-20.963690341307142,-25.359185301433286,-24.46315104214466,-6.967424544363439,-6.657703503742823
0.24,-13.47655690618592,-14.841588676608808,-34.7561334570546,-19.872325451448546,-26.792469117427686,-24.248047417695943,-5.576747724768438,-8.099843678478237
0.244,-12.605019850760584,-14.860866158095746,-33.89781471256754,-18.815149285128086,-26.996529663342244,-23.882031785992012,-4.296322939959737,-9.495995118965084
0.248,-10.939691781457498,-13.30431923122012,-32.327173243370225,-17.789442432155056,-26.178574044787297,-23.36083655328207,-3.4856545941769355,-10.559930989682016
0.252,-8.690611493492668,-10.423298827077701,-30.691654782573323,-16.75412423380044,-24.712361011124926,-22.832306865262126,-3.2026619746854976,-11.112303787719611
0.256,-6.2885539458455355,-6.905146063479833,-29.454259899010026,-15.78111187012621,-22.977065971283082,-22.52821934890403,-3.1889719874419598,-11.122804447794579
0.26,-4.32255053445499,-3.6400526334452934,-28.69992224745897,-15.116325226751087,-21.24139154315435,-22.641656811423218,-3.0416901582783566,-10.701344243528638
0.264,-3.3665707583214726,-1.3743599047463704,-28.170974363090863,-15.102334078345052,-19.637209981094315,-23.225327544068477,-2.4637987219011848,-10.050531492608343
0.268,-3.7467114215481843,-0.4104893914324066,-27.458856246915957,-15.975462782759564,-18.18249321302244,-24.13041406950083,-1.4341235246281485,-9.387781865634679
0.272,-5.359692848012287,-0.5086382374189498,-26.220923540444232,-17.651243981708944,-16.80796348610852,-25.01143408778421,-0.198569512251197,-8.858740481972973
0.276,-7.660290139397603,-1.0640359446699676,-24.347324612468242,-19.66081140329561,-15.400318313161279,-25.43881393567449,0.9070171687806123,-8.502863549965923
0.28,-9.86883887282869,-1.486477200158788,-22.0409055725529,-21.327113366650224,-13.891909504187424,-25.107466590558488,1.6665191149022576,-8.30461354758404
0.28400000000000003,-11.322481286768095,-1.575658021839672,-19.797554772824924,-22.11542703503278,-12.382953814070675,-24.05194609015075,2.0824602630484605,-8.290758061336646
0.28800000000000003,-11.772265484106924,-1.6537941172005048,-18.23891878576046,-21.93091767441615,-11.191622719670477,-22.684723833146563,2.3242627602542143,-8.56615675328203
0.292,-11.45259168441703,-2.3483501124572967,-17.82411153337989,-21.15643311942813,-10.754480831193291,-21.589067874253033,2.572541197736996,-9.22857591183947
0.296,-10.89780514781603,-4.156496819691029,-18.608169339362917,-20.423992051167033,-11.424015871076108,-21.195843747731942,2.856803425911494,-10.232103233877979
0.3,-10.621038736984929,-7.063103474657055,-20.206666867484387,-20.270047224210657,-13.27794077810745,-21.559671830086018,2.986511277206546,-11.324276720456055
0.304,-10.848896334217898,-10.46485330054702,-22.021297807650853,-20.885744952568643,-16.06150755025692,-22.389974881391936,2.612550300572593,-12.145656360896965
0.308,-11.447821160836384,-13.451694341376651,-23.57334889357719,-22.06780707849464,-19.281645678168502,-23.269943994391042,1.3948033961210058,-12.442543153077168
0.312,-12.05826588440982,-15.278375123374076,-24.72776163459082,-23.358099211135823,-22.391575664757056,-23.895858080090647,-0.8045922364242415,-12.251715984797329
0.316,-12.342514161192867,-15.74942608142419,-25.69888284960018,-24.281027046270538,-24.979155516549667,-24.198464644301566,-3.8035537682158065,-11.928767769139313
0.32,-12.185789296540179,-15.288982240462019,-26.85874698325756,-24.55290700127864,-26.87164698546553,-24.2911164299328,-7.1284249802884005,-11.978704353391095
0.324,-11.730455581402111,-14.646695197167446,-28.46890713528046,-24.157133008447886,-28.110027514289982,-24.313908296347563,-10.16547895395388,-12.754019036296313
0.328,-11.231850724153105,-14.40713996207694,-30.451335824961916,-23.247864235166503,-28.797410381658892,-24.24893773062422,-12.349781227497942,-14.170588415110615
0.332,-10.83266126871149,-14.595840500089594,-32.31480603688033,-21.953369798147946,-28.909804642159884,-23.81956388870185,-13.315096338205421,-15.615241009862757
0.336,-10.433324721538952,-14.642242229065005,-33.33441490274299,-20.243873857640324,-28.230638589981595,-22.592613576926396,-12.967584313379803,-16.157074371174986
0.34,-9.769138283176972,-13.744767436106713,-32.936491518984894,-17.985330447189085,-26.492008959103032,-20.26823437057851,-11.498649965943741,-15.011144498957037
0.34400000000000003,-8.640699174421684,-11.430502755061639,-31.101274269602754,-15.157748966514418,-23.66014931541622,-17.011747151606414,-9.337851081994359,-12.020042171775003
0.34800000000000003,-7.131980627354267,-7.953691040396052,-28.498015850531488,-12.05201233450407,-20.14340218619668,-13.571008780907732,-7.0483595891580535,-7.848411297644589
0.352,-5.643611929683402,-4.262705345506106,-26.205055518170866,-9.26333510379743,-16.72551426805353,-11.029154153292211,-5.166598861900184,-3.7246359405783096
0.356,-4.68903196321412,-1.531770453277204,-25.147438224573307,-7.443672453248837,-14.219850614231973,-10.302750839446844,-4.024776525621519,-0.8411722983375967
0.36,-4.573510791071044,-0.5311700913574668,-25.572922049381987,-6.949382440643944,-13.036380359259283,-11.663167786156919,-3.635099303869083,0.25285100366613733
0.364,-5.172746272056088,-1.2120872973379164,-26.892556883359248,-7.613806010940834,-12.935293664959772,-14.572696901981317,-3.7081211132490353,-0.08302589924824133
0.368,-5.9548775560845115,-2.7403672823052148,-27.959071847649966,-8.776626716763076,-13.116156279045526,-17.902655920245934,-3.8099816638796256,-0.8009110329819578
0.372,-6.2456833639975,-3.956717044635184,-27.623517189012773,-9.56950844218909,-12.609391326543118,-20.408654145221817,-3.594900260608256,-0.7490982866465856
0.376,-5.602550571950019,-4.004226563467569,-25.301987913847825,-9.340239078167883,-10.78490915276143,-21.251716712939242,-2.9975000929330236,0.6950211736934762
0.38,-4.086974244279418,-2.7748464187343416,-21.279747320583738,-8.015600011507445,-7.720567153876345,-20.333198229115396,-2.2801320593180208,3.2848653634573566
0.384,-2.273874454118186,-0.9378520461672224,-16.622555872589373,-6.212921722304941,-4.231472285777727,-18.305484306104972,-1.907979135529331,6.022949541925982
0.388,-0.9752058957548115,0.46779857072328923,-12.69439206076595,-4.987201530823995,-1.495822886337237,-16.223818501263622,-2.2849571642766477,7.698613797717371
0.392,-0.8140799494516386,0.645262423528493,-10.502721012249367,-5.307539808055935,-0.45398552658230074,-15.003390878156779,-3.4762022235725,7.557835342474846
0.396,-1.8923577095525843,-0.5072840714601625,-10.23593873185905,-7.537471919740938,-1.3238341577696247,-14.976560348760813,-5.089288762403157,5.716629122799532
0.4,-3.744329010691331,-2.353575753870359,-11.247741981330364,-11.204436308359163,-3.508034866228627,-15.787546089347416,-6.421315837597831,3.074815928750013
0.404,-5.59849692328919,-3.896403474265526,-12.500814903451555,-15.19636227742717,-5.955001941347291,-16.680179419350225,-6.819992883650912,0.7784188112186712
0.40800000000000003,-6.782480080243204,-4.339483144116002,-13.167339333321252,-18.265391351678545,-7.738641959096412,-16.96637352040375,-6.065460138194794,-0.42975783545352897
0.41200000000000003,-7.026990630141995,-3.4953327625169095,-13.02197482988322,-19.55749148191603,-8.505553742040775,-16.376091713203095,-4.539628993392853,-0.577258758537937
0.41600000000000004,-6.519335737342544,-1.827267256999562,-12.440756268346604,-18.91851409660171,-8.55784527990295,-15.129602836671893,-3.077549709531013,-0.3523865827305599
0.42,-5.720461205430638,-0.15043700487967726,-12.065964968892331,-16.869196912543885,-8.5730034687233,-13.750755905801725,-2.5792110765844427,-0.6191876714697173
0.424,-5.080833438988748,0.8055407188680874,-12.38764225333648,-14.313045713222436,-9.165490101286878,-12.779871620031827,-3.569435408011259,-1.8643926014292447
0.428,-4.820418696590195,0.7279356448409544,-13.464437171790678,-12.127668402209338,-10.533890055054599,-12.534462094133914,-5.938541512112124,-3.8949450237414567
0.432,-4.870845720799593,-0.2068961966359666,-14.89907856486866,-10.82356624315048,-12.367027835794715,-13.0111212316624,-8.982624119760885,-5.938438833642522
0.436,-4.9842738650195315,-1.5240002324397892,-16.0732743807921,-10.423287366850218,-14.047331435414662,-13.96186039470922,-11.718154391327062,-7.0805986894447415
0.44,-4.919908388375347,-2.7608391560838754,-16.506504490049338,-10.58979155501629,-15.014629262766448,-15.0733780258779,-13.30886291697243,-6.786776000561531
0.444,-4.577941255034148,-3.7041346162313857,-16.135133650511534,-10.897209859431769,-15.070948408787899,-16.13760920235427,-13.390948370815977,-5.205423074537066
0.448,-4.009464728776038,-4.427124326360854,-15.325265147955633,-11.061572023465715,-14.442650277246912,-17.086598817099457,-12.140245267929231,-3.0791260670112024
0.452,-3.3172660595266734,-5.133547673890689,-14.60620006790623,-11.006077297233787,-13.576192328329398,-17.88391992983543,-10.08693729996412,-1.3237559997360222
0.456,-2.5470943304692355,-5.94581996219722,-14.322254237942843,-10.77914907038803,-12.826057450599137,-18.40417750697725,-7.8261091681811195,-0.5469563548704173
0.46,-1.667550915548759,-6.795739506106884,-14.436797493237918,-10.440322575559321,-12.257730845662536,-18.433605949470802,-5.799105594738876,-0.8049610430871326
0.464,-0.6580883200010703,-7.4766687702497165,-14.62226864246395,-10.01754659948233,-11.68852201918071,-17.826333529265412,-4.23518412699741,-1.7153446070310565
0.468,0.3782049791869895,-7.7944100442496165,-14.52577212002734,-9.535514007714937,-10.887350371026969,-16.679392840499077,-3.2139308105258806,-2.791847937375678
0.47200000000000003,1.1901631344657062,-7.690422223310861,-13.99847500089686,-9.061640444845807,-9.762042742965605,-15.357422369718734,-2.738359061075471,-3.7478003388991965
0.47600000000000003,1.4826112308508073,-7.249774110199269,-13.14260403403523,-8.714983811009915,-8.405756529114797,-14.320896989522225,-2.734460655811745,-4.570904821019667
0.48,1.0872338302453954,-6.613246379712564,-12.181604582863201,-8.63195880898843,-7.009062695300372,-13.866625745153215,-2.998257169778981,-5.366800650419464
0.484,0.08397141213231407,-5.880031394355456,-11.282641126422732,-8.92363225483632,-5.740476593257881,-13.967254833330117,-3.1882991903171387,-6.136739044457499
0.488,-1.217005213857874,-5.08251885325501,-10.446938102872537,-9.644879995282281,-4.690182480587737,-14.314025814312572,-2.9333363277764875,-6.667455050949684
0.492,-2.4371821069872794,-4.247050343965611,-9.535051209290941,-10.78318732469802,-3.9111511583166703,-14.540402414657592,-2.0367084641741258,-6.629697465488789
0.496,-3.347644987190847,-3.4850462924614476,-8.421027841013938,-12.269710446775889,-3.5164970009439003,-14.496343350972666,-0.6548296210078206,-5.8207257941917305
0.5,-4.004808918969729,-3.024033765251488,-7.1715197929322585,-13.996887291788653,-3.727421115260313,-14.386701752403269,0.6994738901507844,-4.368920626407544
0.504,-4.713796542406044,-3.1241483450721717,-6.126119232956626,-15.824510540607207,-4.8014575069305465,-14.678218612287765,1.3915784533098758,-2.739989019939003
0.508,-5.808171794477175,-3.896090359327445,-5.76305518097206,-17.54218128785169,-6.8244802088850065,-15.76894080844022,1.054398010609475,-1.4841619268336217
0.512,-7.368646195382439,-5.143474530125218,-6.3995740624682185,-18.827859602573653,-9.497462438470393,-17.611950261130005,-0.10475577714441897,-0.8774566131119172
0.516,-9.080144648889473,-6.378702884437303,-7.94965512467229,-19.29608663111526,-12.129306155752829,-19.583041499456385,-1.3348297728575744,-0.7353843790592691
0.52,-10.368148655321193,-7.080216772919357,-9.949797250439133,-18.69322610113909,-13.946594673784375,-20.75618792963428,-1.795379612940451,-0.5977153722349158
0.524,-10.781735970128352,-7.086417840165495,-11.903325553665582,-17.18316638954036,-14.616997150427096,-20.500087070900463,-1.2420631772063189,-0.22817632067039995
0.528,-10.396997815378086,-6.872524566015045,-13.71348861663023,-15.523006057622297,-14.651877870161798,-19.015531575462774,-0.5084286660792259,-0.0807695161747688
0.532,-9.963019041127495,-7.477757337686398,-15.872729490823303,-14.92877939086884,-15.356065556956082,-17.414125143809315,-1.38914667005929,-1.3508195766621611
0.536,-10.637664025018807,-10.035138796205729,-19.2324291776481,-16.602050536129127,-18.23906240544875,-17.222415934013952,-5.838013942399357,-5.45400868796014
0.54,-13.386561429838139,-15.09410394367967,-24.41455063785611,-21.086198761373225,-24.122504266423903,-19.53336767353585,-14.802252652882999,-13.126441384122245
0.544,-18.342648857404242,-22.09065940586504,-31.192618366328816,-27.785226437909728,-32.42267114780384,-24.286134095765647,-27.32069671484055,-23.641615502567447
0.548,-24.493371594350492,-29.295518310116904,-38.21190209731071,-34.93690949033669,-41.0422784073412,-30.091427807501532,-40.45148897636659,-34.64737700847536
0.552,-29.929407999439945,-34.35712316986064,-43.282119144761964,-40.14247586801116,-47.0311331040632,-34.74783076325775,-50.20935164954858,-42.84468455914657
0.556,-32.61183582476394,-35.25114996678633,-44.20813155354995,-41.28691167493946,-47.79051494215582,-36.23398679148295,-53.163622336901426,-45.279296610839765
0.56,-31.329326948004336,-31.208906550598613,-39.81053310387165,-37.463870233920375,-42.2703226225957,-33.67822434659615,-47.95899221906825,-40.66101417429036
0.5640000000000001,-26.36371636423462,-23.165327211486442,-30.640158882616333,-29.465844320317274,-31.565611263560527,-27.809154194214443,-35.98878206943118,-30.042947880041766
0.5680000000000001,-19.47805619456301,-13.467879974676634,-18.954199386088476,-19.54634846551346,-18.57016886265353,-20.613496286753616,-20.844199860295475,-16.463309814719878
0.5720000000000001,-13.18214244964804,-4.950403003010138,-7.883836367343747,-10.516686808221607,-6.808235343582737,-14.367220872337839,-6.787992476164163,-3.690866663642282
0.5760000000000001,-9.609141301359728,0.2001338035745448,-0.17936749619593684,-4.599164711549406,0.9912254454951608,-10.574777838318369,2.9971627523357256,5.3156900308488275
0.58,-9.557365482349496,1.25015351986724,2.8576288744620797,-2.5896597883413506,3.8842363431487,-9.377118263767215,7.524400569774571,9.469583570974919
0.584,-12.18691025366843,-0.9635021317704968,1.7298402972151052,-3.7330103657425298,2.8148706241832997,-9.739058418125296,7.980475223065014,9.653112583451048
0.588,-15.50819144406853,-4.605869347984708,-1.7251044449008077,-6.305262323837269,-0.1275289754108826,-10.219885743486884,6.6906516697081315,7.901565693880457
0.592,-17.39778870212183,-7.775176358803719,-5.320664455306655,-8.550236970253536,-2.8376160513954574,-9.829436655975996,5.717091465126941,6.193538746529839
0.596,-16.605815999741708,-9.314229486941827,-7.502593358742956,-9.46162202659798,-4.108383616391734,-8.491586286897927,5.87420845196084,5.531620324092955
0.6,-13.258214675710406,-9.140939751863925,-7.864116039887449,-9.037943335051523,-3.9254261358988742,-6.906597828216945,6.624324757226304,5.7385755449636235
0.604,-8.64596542849199,-8.02443750272323,-7.043126557074629,-7.973825864343098,-3.117850227106487,-5.986536878273,6.770839945014359,5.94652330741269
0.608,-4.463701432928588,-7.005988483149849,-6.1307920095152895,-7.031098091571266,-2.6567848592945893,-6.232845108502033,5.44382987433562,5.392349028440094
0.612,-1.932095958546256,-6.804846188568831,-5.952208326726463,-6.487161201325989,-3.0291450585407347,-7.4193827713245355,2.7563178124809156,4.00150062479679
0.616,-1.282524369415114,-7.520931271745781,-6.632700466718688,-6.005385196748534,-4.023464961989475,-8.75115544762275,-0.24773568419436742,2.4165784075437386
0.62,-1.8370816400415606,-8.728960152210107,-7.634193523583349,-4.971660301969564,-4.9721071300321,-9.361651908599242,-2.2677062381891346,1.5111044868822319
0.624,-2.572675116302662,-9.8422961330416,-8.186261748454399,-3.0616834279655905,-5.245283946374457,-8.84483867705535,-2.5639824824856987,1.7423214333880424
0.628,-2.7967065046955213,-10.487144876092884,-7.786836608714225,-0.6332102947718568,-4.65345017676168,-7.471679205082637,-1.3933809074934516,2.8089839141632638
0.632,-2.5297042839491723,-10.672572933531342,-6.4608476259434156,1.3390346234659773,-3.5199799845421467,-5.977728559176285,0.1880019748449513,3.8349418708155554
0.636,-2.405532225330262,-10.701906551045909,-4.671922487246661,1.7625703101675754,-2.4315111539806367,-5.099705245555924,1.002814327959868,3.9574827953947533
0.64,-3.194225336132263,-10.93385892677179,-3.006391037905928,0.06344550468895704,-1.8723950692489097,-5.163000686979103,0.4607458568717675,2.9318334479810346
0.644,-5.266544288445687,-11.566726698983643,-1.8739544025328314,-3.43838387894516,-1.99059537658286,-5.980949561077978,-1.1401685680250466,1.3413161202117863
0.648,-8.319751042488463,-12.558863530293706,-1.379454485593783,-7.637325878989827,-2.605551928480736,-7.068861499253444,-2.8768895315107557,0.2700000728887062
0.652,-11.497741358013457,-13.691334724850321,-1.3817750183750377,-11.162219676947416,-3.3905149953397995,-7.978907148122289,-3.829278948605861,0.6405664459507534
0.656,-13.813098673279455,-14.693972303595388,-1.6568193343024404,-13.016613637172554,-4.074728512337629,-8.530912344734134,-3.659948498715039,2.616110820033782
0.66,-14.615283343607473,-15.339730232048282,-2.036321954750065,-12.988725982195092,-4.539448836766155,-8.809047861743693,-2.7817876332466085,5.425074150771707
0.664,-13.855744475670178,-15.475517148202243,-2.465637669157786,-11.640302660953239,-4.793158812720321,-8.992103675410135,-2.0473902227701046,7.71017599122888
0.668,-12.029846870073811,-15.002559834990166,-2.962068109122356,-9.906864732564372,-4.876889787067739,-9.156997667333485,-2.1786089509849944,8.21681803775573
0.672,-9.850352406023319,-13.853346198282452,-3.5181794097726424,-8.54689642478661,-4.781749976182709,-9.190108467248706,-3.2960313873951463,6.449872052326327
0.676,-7.868811372464052,-12.013826020451233,-4.047012506264423,-7.771439424453774,-4.450752031450065,-8.872949177340729,-4.843879035728264,2.943076627230994
0.68,-6.252854083334171,-9.588533734290195,-4.411792068073055,-7.2463552033913174,-3.8573589277374367,-8.064631826948357,-5.946383693647022,-0.9989707089191597
0.684,-4.8112202285526,-6.846716218110998,-4.520527466162207,-6.4263069393680325,-3.0871694466047757,-6.860029309894685,-5.965447254491892,-3.9397586729121485
0.6880000000000001,-3.2138856735516015,-4.190556637486338,-4.390212485525467,-4.97406817783633,-2.3310183204000623,-5.583864882380453,-4.906599703348547,-4.976711510923565
0.6920000000000001,-1.2444698733131077,-2.0296606750214323,-4.107581356890819,-2.98399635075225,-1.7689460054587016,-4.606660358520003,-3.4252260155120666,-4.100029478797751
0.6960000000000001,1.0499520709209378,-0.6216587187948903,-3.730177185987941,-0.8941936577757019,-1.4288325168517986,-4.115395664500511,-2.4458198193924545,-2.1049742786980232
0.7000000000000001,3.372909880950772,0.02995634812901926,-3.2135844790064994,0.8238217252968525,-1.133368135322371,-3.9924208275085675,-2.635715367846842,-0.1549230564598929
0.704,5.316684164345247,0.15654612794139666,-2.451980256279853,1.9639954626490521,-0.5937443587340567,-3.907060711473264,-4.0377470728503795,0.7559580282801335
0.708,6.55040426660895,0.0976370637886248,-1.399946986330292,2.6879344120288238,0.41026817149054295,-3.5410116195297405,-6.056556580296274,0.19900165964565986
0.712,6.959694794710231,0.1324071273863865,-0.17810257886981162,3.3803743769709627,1.8788165353823842,-2.787820759685019,-7.786864887961997,-1.5886203128376337
0.716,6.668533028666843,0.35232660799368887,0.9075463645509672,4.347440693029682,3.5572702498479885,-1.8171761631481331,-8.493603875048848,-3.8941763705147423
0.72,5.956547291858499,0.6412283794190898,1.4736779798254247,5.565418399370344,5.044000778685813,-0.9635356726114424,-7.970510889162483,-5.878921360766299
0.724,5.121781868580115,0.7533115421533694,1.2306216284645188,6.638755726355782,5.964962169894591,-0.5418981967901573,-6.607931101708459,-6.934567242510184
0.728,4.351941642014651,0.443615403931517,0.13313051577483748,6.996985759483493,6.122372026838093,-0.7026273613805643,-5.169206091343085,-6.904832719881028
0.732,3.677526684009706,-0.40219378715841003,-1.5659236141895008,6.231316185642299,5.558648027360675,-1.3854363983547273,-4.405822653816131,-6.091929170532694
0.736,3.0173258643246186,-1.701033664743477,-3.4057728317417286,4.369450635927308,4.5112812687588075,-2.3826356286269856,-4.714304089799725,-5.075056746280325
0.74,2.2764245889275685,-3.194694811150441,-4.9122345647259635,1.9176474410883202,3.2950335591651765,-3.44998560774161,-5.995615226351333,-4.42673929838179
0.744,1.4313397621110653,-4.550621293739766,-5.820466936605271,-0.3730808234835763,2.1674716438207042,-4.409897893338666,-7.755743076893282,-4.456833361569693
0.748,0.5596013824943498,-5.493236314485728,-6.18578682362363,-1.8703232061541826,1.249910614014766,-5.1769598186943995,-9.359718283487155,-5.0726833086733905
0.752,-0.20743260000296004,-5.914374201856333,-6.320963167371588,-2.350306874194473,0.5240775605573162,-5.716043633039931,-10.30027559608584,-5.817195804162225
0.756,-0.7867589123722496,-5.922432564423389,-6.606168295756561,-2.0728021044319576,-0.12546399127148788,-6.00222016329235,-10.382584452819628,-6.088507925859176
0.76,-1.2418452378447,-5.8153417201886555,-7.284339740753012,-1.621483072322178,-0.8598823623487419,-6.023596958308531,-9.763808938793773,-5.460176906245579
0.764,-1.7938207517787532,-5.965148628349652,-8.352972222869482,-1.6009642668810216,-1.829869058394138,-5.840194036581352,-8.87128471723156,-3.958429988016178
0.768,-2.713664339278182,-6.651137217842461,-9.582449250657703,-2.3414559109637025,-3.105388362559097,-5.62271325162601,-8.23539910825184,-2.138699233662919
0.772,-4.143332994792331,-7.906290440020484,-10.619823063882507,-3.7535921993915053,-4.600601187582413,-5.604076617787086,-8.288959531132036,-0.887193521116842
0.776,-5.930621024194011,-9.449876853827504,-11.117150525803538,-5.386424740364191,-6.026610285593961,-5.949665251342822,-9.199506624426533,-1.0101309770262787
0.78,-7.6013235355116535,-10.757380100819603,-10.831122410210867,-6.641618621775763,-6.928460372376321,-6.620833045896916,-10.791471623688949,-2.7995512314904545
0.784,-8.530604909448869,-11.263951229822396,-9.68856701518672,-7.045029373771968,-6.848735476336401,-7.349071826849922,-12.602005466286982,-5.817693064336936
0.788,-8.238016925207347,-10.61165528454228,-7.805243697642879,-6.443672273669904,-5.563639679936159,-7.743988049441668,-14.043556333863023,-9.033766242132856
0.792,-6.65267310996407,-8.822084818255519,-5.457756187545783,-5.042723776928881,-3.2666301679838625,-7.479113137027639,-14.630647970992925,-11.270297846792687
0.796,-4.198596243554135,-6.300169920521682,-3.023484160199132,-3.2815073725074058,-0.5724349600777714,-6.456224411198264,-14.182859562286296,-11.74438466133472
0.8,-1.6298624929586083,-3.6589506993275336,-0.8931496000433867,-1.6222541622545918,1.6986413430091147,-4.844910201537573,-12.906974005095663,-10.43673786099373
0.804,0.3198424053825022,-1.4562693260439232,0.6206717594466795,-0.36344746480955337,2.870745899354347,-2.9875630854251085,-11.308026669813557,-8.09601291233173
0.808,1.2832001969922828,0.01697077244830325,1.3746752114948322,0.448350947096003,2.7346282468718073,-1.222374406730296,-9.954885920208596,-5.864433914995743
0.812,1.4089280080672495,0.7931095695821,1.4529870028779328,0.9801741707328802,1.663491211537007,0.2720088303574357,-9.205024409195744,-4.718341415183431
0.8160000000000001,1.229679525511159,1.1124185063904974,1.1479408594864822,1.477891275517436,0.43592430848389085,1.5110673748506542,-9.024018968035648,-5.014002283075797
0.8200000000000001,1.3156783266455534,1.2188912686773392,0.85577200290777,2.115641221464216,-0.152089370287797,2.616459271785743,-9.000014249036667,-6.3562406557650775
0.8240000000000001,1.9146098723383602,1.191273122464736,0.8928678839877193,2.8891648314190093,0.2968679613076688,3.6536942221370055,-8.557154749316624,-7.862354834762414
0.8280000000000001,2.8028072670853703,0.9248856605687479,1.3369364671241328,3.619584051219988,1.5787833492859704,4.530947432298149,-7.267894481725364,-8.654487558987398
0.8320000000000001,3.441020895838875,0.26985570217357235,1.9920272809661128,4.074975710461388,3.020932625754483,5.036475929030871,-5.0965537375547,-8.303925059511357
0.836,3.347434716194442,-0.7756223666436881,2.505618309470549,4.144667629829598,3.8782913048109435,4.989983454609046,-2.4282456957498653,-6.99390117816165
0.84,2.4616593826744406,-1.959823266113176,2.584266710399447,3.9601914885266183,3.7662681322804588,4.410351970777583,0.1246861616579622,-5.346477881738792
0.844,1.2589490139687314,-2.8551824810251674,2.1650681144417376,3.8737258188966166,2.872719396207458,3.556315886707239,2.0206651317712385,-4.054501053704371
0.848,0.5303192245073944,-3.0851441979811227,1.4561701269220748,4.2966787669969335,1.8358402686407658,2.814815541319149,3.040452388208905,-3.528972135743402
0.852,0.9546446286112484,-2.555984126774433,0.8315241928914361,5.4903566919037985,1.378348389782218,2.518266240254661,3.3601343876237593,-3.7335330026160136
0.856,2.7020187964149045,-1.5435260067936838,0.6299564572122449,7.410408379132491,1.9088773824822738,2.7939219751418136,3.4093006652532836,-4.267059543420373
0.86,5.3011166209541045,-0.5633114040741134,0.9746002195675487,9.699591268121821,3.3199779563822744,3.5422454133936867,3.6025209769784965,-4.620494386724204
0.864,7.844979301782246,-0.09519116685427775,1.7040101275593997,11.827278242244006,5.073233872245851,4.526041810681022,4.098268288759414,-4.457071016224404
0.868,9.420247695801152,-0.3259706861521465,2.455943964770995,13.30414553809942,6.500950671174792,5.509470515652765,4.722537568973905,-3.773789272497652
0.872,9.530676814270123,-1.0611996698168582,2.8635150880813853,13.871725225721406,7.150243285651129,6.3596787669105765,5.0942477749301815,-2.88144118291342
0.876,8.28513653775255,-1.858340760260404,2.752945240021404,13.568405560300192,6.977173059698998,7.049370222293817,4.874144956726411,-2.244228546303418
0.88,6.277621949376936,-2.290773214514843,2.2475764912227874,12.654863850288933,6.3151395461529205,7.58479465505053,3.99367727537782,-2.2626717766087268
0.884,4.260265719997051,-2.1702426843818046,1.7123847908955554,11.453512671316872,5.673369488951664,7.919217736551218,2.732937715986054,-3.1001874306097648
0.888,2.8038501617775182,-1.5942188049489516,1.5785228996915066,10.203435962388227,5.505378409975862,7.935970928510983,1.6099431772275352,-4.614542170231232
0.892,2.122855403802589,-0.8037192145728227,2.150543471421827,9.008878516912745,6.065575745577803,7.524585426033127,1.1440010320552005,-6.399936470660634
0.896,2.1216187670842146,0.040358996621790766,3.4880037946066977,7.8904506568262605,7.394177864801065,6.68839602004806,1.6196161188062774,-7.912158064578023
0.9,2.5798571482515626,0.9963328602294155,5.402228157347508,6.885936424056467,9.380636976716119,5.604152744492865,2.971634046930717,-8.642892323064643
0.904,3.3265606041543663,2.2837923481434927,7.532823784336415,6.101349602221035,11.808682246021988,4.557115588903798,4.832283124484832,-8.313360618003571
0.908,4.30655278796678,4.070990454648438,9.472036603804838,5.678089413794282,14.36513672359331,3.795669716073917,6.705205715283853,-7.006959233988027
0.912,5.535688107063493,6.272562123301498,10.902647244116451,5.7103878198103075,16.660385669664038,3.412003585597631,8.177990355983525,-5.17023336896591
0.916,7.016703412292657,8.515364720776802,11.705019032082589,6.179113783968148,18.311643663558925,3.32369710650687,9.072094585342029,-3.456243440890262
0.92,8.694007664392245,10.317893242627292,12.008239794368137,6.957466985041265,19.091338731122335,3.3851851295964934,9.470683212260155,-2.454122674784003
0.924,10.464012660845867,11.370411497349323,12.13232333795304,7.875055295657376,19.046924754167662,3.531544974980534,9.62265559949526,-2.4330283652586786
0.928,12.200262103053433,11.71801757034757,12.429475391646065,8.79102581251675,18.49083029037388,3.846516345247437,9.779485680492144,-3.2321639913160425
0.932,13.75228183461138,11.715015754159708,13.090200999749186,9.624203144709327,17.829952527869978,4.507872313533653,10.050440770390196,-4.350344895950229
0.936,14.904825600049321,11.763913078496103,13.998406783691621,10.316929040355035,17.302758550337103,5.62449839507542,10.340069793739758,-5.201651954845829
0.9400000000000001,15.35071654025262,12.008551729121564,14.73853810914511,10.774033840555376,16.79666329534416,7.090282472350964,10.403825312093772,-5.398283674026743
0.9440000000000001,14.751498219303585,12.198360616372838,14.76957255533216,10.83306795108092,15.885448121361492,8.549167068408337,9.983850734300177,-4.915455270898292
0.9480000000000001,12.906318162102195,11.840739219695365,13.711471935110467,10.314301684346333,14.111694733666809,9.528479948456834,8.96530700055348,-4.047032313555519
0.9520000000000001,9.945161942869959,10.563771549490752,11.609168314989915,9.1391606096538,11.36848161476405,9.681938906087908,7.470586139296756,-3.181317499416764
0.9560000000000001,6.414228589602544,8.458156772064513,9.005826351516816,7.4398836539811555,8.132097674002011,8.994618160291338,5.8497170462896975,-2.5385866716517285
0.96,3.147442709199595,6.1498223042679,6.752504654939003,5.574799176243346,5.353749526357319,7.836661558515289,4.55991594518332,-2.0355479656677744
0.964,0.9336925580882962,4.519570861347802,5.612367744685798,4.0102908939178405,4.011920054011171,6.803683873285763,3.980111622059212,-1.3665584118211882
0.968,0.1351631718413273,4.216792069544454,5.863281636311626,3.1231828647872817,4.55756635864077,6.422107326047126,4.243648425571109,-0.24815448870049295
0.972,0.492532828837966,5.264816173891404,7.141780444228289,3.0460101770116808,6.595598323739978,6.899793412682357,5.18117434700423,1.3371606120961133
0.976,1.2630059862608505,7.016422201669229,8.636377350051589,3.6456265066624383,9.029501629160109,8.04733564925391,6.395799636583206,3.0616928259814813
0.98,1.647758287650504,8.509419984103033,9.551726406705484,4.65834804437543,10.633492956838381,9.412613909808897,7.444052519286288,4.40027403104682
0.984,1.2829351810701155,9.016577049284706,9.564158409753418,5.880364327686266,10.731721835632698,10.520611369601966,8.03251922857703,4.914382586453939
0.988,0.5035096006258755,8.461707676204583,9.002083696478167,7.279569893839721,9.590082530246036,11.083010793694939,8.138391098237662,4.511236094488822
0.992,0.20663189991512354,7.455183984148675,8.643441363732563,8.954990944313977,8.285153024253532,11.080357339700186,8.002548558568606,3.5220539884096524
0.996,1.3615635463988838,6.919013397940148,9.234539415067957,10.965272664212534,8.09840973350731,10.691958684436031,8.0026136256065,2.5481017480483388
1.0,4.4338965396726735,7.527167431879889,11.030937997529236,13.15821603493373,9.779807976314714,10.157604408509542,8.47043883278593,2.163929218408839
1.004,9.048048672603272,9.29335393908957,13.616501401410005,15.12690334967101,13.092438646889377,9.649792999457304,9.531762698331022,2.6293306128436598
1.008,14.072349266980837,11.541619547052846,16.103515976062226,16.33724211187382,16.888507303576034,9.22902955266386,11.030798035104226,3.759165387102712
1.012,18.100968999453357,13.269421898138148,17.59982135245491,16.383005369838884,19.67675972573761,8.895215141625158,12.573050669538134,5.030308418667573
1.016,20.07827033224953,13.68370685127286,17.66261351643584,15.226100789072461,20.366320376529757,8.668978632744029,13.661227992547083,5.8619211448021815
1.02,19.74086417329545,12.601179755582962,16.480618485543346,13.278997104179552,18.78468134407285,8.644019225548618,13.865036650369348,5.922162134261271
1.024,17.660340985761422,10.493723887938131,14.684625580092415,11.257259297918154,15.700003987613854,8.95537366580379,12.979644289436465,5.302795356443312
1.028,14.894173752087909,8.177329774629015,12.933032092013946,9.862329486379167,12.372012945785173,9.676913257454544,11.104895444783779,4.47177538068172
1.032,12.468682787519583,6.355920516672313,11.54711952792286,9.472913879019416,9.91136777877955,10.719269620186878,8.625534293940063,4.0341194930570055
1.036,10.968278221315927,5.281839355113107,10.40747424451456,9.993104157594644,8.793118246711856,11.801997338347974,6.098326933402404,4.413656901042486
1.04,10.41780477733596,4.704837667640959,9.165778824891277,10.928337945935027,8.764041871095742,12.539260140789793,4.079184843983057,5.6174038906428905
1.044,10.460651366061711,4.107279434846305,7.5951449585736555,11.638092052909087,9.1308953212897,12.588500655598637,2.9532657731044765,7.199629051275224
1.048,10.6665590939607,3.060180802615605,5.835203044568516,11.621194999196405,9.22207333902611,11.796890329190319,2.815631127606821,8.440658736487876
1.052,10.779844492667053,1.4942105291274856,4.380909311657433,10.70625663304827,8.763085489918694,10.287202561288268,3.4639130328941974,8.674258588539487
1.056,10.78431657559895,-0.24629153381442848,3.8270317410770076,9.078148124764766,7.9843837369926405,8.435497250434764,4.497323323741057,7.615982024445202
1.06,10.790785449201621,-1.5759902656470786,4.538200857282391,7.15911980860642,7.441973970413301,6.755972362209377,5.475392947817909,5.5261850924621285
1.064,10.862395422154805,-1.9594605171171224,6.426652686317084,5.412595098857537,7.670135128621951,5.7127536972852795,6.056339709733038,3.100305846268384
1.068,10.90843303703764,-1.170544941966682,8.959486715347794,4.166202716724911,8.863249222771856,5.535169508361378,6.067025158345132,1.1412784034300785
1.072,10.712551155595065,0.5906392099309414,11.375736785948902,3.5209841248702105,10.739392549889317,6.119359936824367,5.498152062893951,0.16733229058172583
1.076,10.061064711700055,2.7617439473110608,12.973464724524547,3.36191947909424,12.634492486810359,7.060812587683358,4.446403644808015,0.15238815975089892
1.08,8.891861730718347,4.637815413305816,13.347035853901616,3.459500312579621,13.786072770431247,7.83753320713231,3.063450765980633,0.5648688079768363
1.084,7.35925080582183,5.643802453970011,12.471927309454713,3.5955609077193458,13.659827532708505,8.046856016760557,1.5450576701850878,0.680158342125651
1.088,5.774006138846062,5.549113964099433,10.643452020927725,3.6576226193803905,12.17201267911264,7.588877717412743,0.14492594105786338,0.0026807389340319787
1.092,4.451439793813279,4.5417104436621685,8.332110141584963,3.662191561359805,9.703929834958672,6.706781512652469,-0.8342426939434517,-1.4393500053015487
1.096,3.543048196494965,3.1203272980189922,6.015807806620614,3.695671505746759,6.898920035669789,5.846530973857625,-1.1160226142173997,-3.1032026531270276
1.1,2.9484022237049885,1.8482646048407787,4.044519764798224,3.817040283547385,4.345901875131858,5.415150521793294,-0.5716332221109042,-4.229533165762405
1.104,2.3525308593946193,1.0740834788014126,2.53941167783978,3.9679203065527417,2.29318706311642,5.547453236869842,0.6776220405208733,-4.262471615754748
1.108,1.372940263855071,0.7557087360228252,1.347638245304097,3.954290952469364,0.5454533341680872,6.016609777704161,2.2521828313256265,-3.144765685092352
1.112,-0.2434679216337372,0.4942129726700841,0.09667375672734124,3.529241694632674,-1.383268231380498,6.3501688551459665,3.640637253777186,-1.3135273832108396
1.116,-2.4524277306916247,-0.21142155728239231,-1.628412866819417,2.548088205165186,-3.920020306054539,6.098512199377637,4.425386678930408,0.5918549253083256
1.12,-4.863285755199513,-1.6149878402584363,-4.017850393443496,1.114675826374878,-7.064866029884797,5.120310475454062,4.481070672730311,2.113324057103455
1.124,-6.841595847581857,-3.4727027442149847,-6.81950554323339,-0.3838931053928718,-10.22741074391206,3.7036754114565156,4.031809670261737,3.1980347704384258
1.1280000000000001,-7.729954001897568,-5.05254376890457,-9.310976173025665,-1.399345431238089,-12.388347667465496,2.454222759190543,3.5212315169274007,4.123956468802135
1.1320000000000001,-7.112271100575981,-5.442271976338134,-10.527693450578226,-1.4614354529353477,-12.538221734106628,1.9982029718635204,3.3695038497362475,5.191280522653869
1.1360000000000001,-5.001876301329503,-4.011290788554788,-9.676758732679446,-0.40996728314212305,-10.1699415895514,2.6607744669690874,3.7463143670420322,6.4040626359856105
1.1400000000000001,-1.8578009661150645,-0.779636221777082,-6.534890129618361,1.5221572101827405,-5.555231902098512,4.312146172851499,4.496835465536151,7.37990311683734
1.1440000000000001,1.5744912775091962,3.510438704559874,-1.6391983298613013,3.817763339753128,0.3350537094656829,6.4400744412669155,5.256593833852548,7.5600495428789145
1.1480000000000001,4.529029922997324,7.677151175357267,3.8507125061378247,5.912009971594216,6.2251054912144355,8.39590943539406,5.676631356338476,6.58947306045593
1.1520000000000001,6.479694254326205,10.601856904747365,8.575868211999477,7.424985652158739,11.032391186987752,9.686778181949194,5.62209786643507,4.610409197396621
1.156,7.285922220236216,11.69313537562175,11.49469649441653,8.265893820098427,14.21304848042746,10.157278732803206,5.219451138499608,2.256976381198001
1.16,7.17383987425319,11.079407277948121,12.259467740203036,8.567707664021327,15.805708754769512,9.998881285069729,4.761578317000385,0.34062375679422985
1.164,6.578566199875695,9.452375993002988,11.26600196592426,8.509870732993477,16.194574479479797,9.594276217990227,4.550825340176743,-0.5866004637846345
1.168,5.938933290175328,7.670744525737518,9.378405717719488,8.161425143817269,15.776516756645833,9.30252106673015,4.771817425336394,-0.5253207544728866
1.172,5.54333741298251,6.356080708889294,7.495840177386981,7.454853032714254,14.751811955568883,9.306553563483249,5.462182277879947,0.015300019912501739
1.176,5.479513205361627,5.688985384164425,6.173938297653876,6.296207971337481,13.139018777264937,9.576269684011095,6.556147446429804,0.3764547401542586
1.18,5.682792662562861,5.470620768033768,5.473599696475503,4.731793265540091,10.958144594114856,9.949911949483067,7.934006323455833,0.1939531132566117
1.184,6.023418901562309,5.352094550270067,5.044026401017618,3.0251673063285125,8.394704391182131,10.240912362036397,9.413351152479208,-0.363358373318988
1.188,6.375768777993017,5.0648051532825775,4.353075585793704,1.5719045180767353,5.801562851932431,10.310192779389581,10.696624571760822,-0.7109815973481091
1.192,6.645903374357204,4.528261902219583,2.9514289340668256,0.7092884286184926,3.535535374832307,10.091377621319225,11.36793626106919,-0.23722906185139436
1.196,6.77538783143018,3.819221771766024,0.6727298895602871,0.5481041702764742,1.7616745064574388,9.582517413786263,11.010153152200473,1.293026070700762
1.2,6.7273896997267,3.066441477209537,-2.2752745431043877,0.9440147525924658,0.3885851319928406,8.841374833045847,9.427503461525703,3.5711260273774315
1.204,6.472251486357436,2.3669217102351467,-5.354292514368808,1.6191535093844323,-0.8033200216859768,7.976503246699394,6.8441531737498735,5.909130671793719
1.208,5.971241646948329,1.7803898490565189,-7.851622138046878,2.343015857884893,-1.915962313910768,7.117849806538288,3.929575037757786,7.622997706642309
1.212,5.1602744183906,1.371658300035051,-9.09918355994796,3.046321574166541,-2.749627298451742,6.364202813556403,1.581609002897494,8.3917244780896
1.216,3.938457564030159,1.2308302677602114,-8.711374280393102,3.776640965576007,-2.841097935110156,5.726278068521424,0.5425801784849682,8.376517664180028
1.22,2.2020728321576826,1.4405204854870135,-6.739790855825049,4.540396474238605,-1.7250602372919275,5.121151549545175,1.0495060530074625,8.0580563177773
1.224,-0.07042226479597957,2.0027093287803837,-3.6888666075965375,5.1593778343512895,0.722187561451392,4.425759959979587,2.725529422865293,7.913252729379565
1.228,-2.7263317615988854,2.788966688783603,-0.3662254639521052,5.269133600388614,4.075003477052178,3.5697560480675747,4.783628899866926,8.139743133583579
1.232,-5.397128379424885,3.5622523160254786,2.392144199727227,4.49003820944381,7.435297015119886,2.6160539713746402,6.430955662598535,8.58157244450922
1.236,-7.565979108384454,4.066447963364226,4.00081204387061,2.6700499719527215,9.77434853812656,1.7561100137791072,7.2411206941842465,8.868822875044316
1.24,-8.750283335238692,4.138247997323106,4.307100563995846,0.05274141045856595,10.37809512993772,1.2224718066472633,7.279378566790001,8.671147200552696
1.244,-8.734422335590352,3.761600773974351,3.575777078363899,-2.7739563335835555,9.14007347923689,1.1452841338432336,6.930281487711909,7.887960525510607
1.248,-7.72769305533302,3.0298993311675986,2.29516342396073,-5.141026308734126,6.551110158441588,1.4457340354429107,6.561951422309903,6.676320775285603
1.252,-6.326567919660647,2.06088032620346,0.9302178832522259,-6.602946368449011,3.4254593624809786,1.8561874478737082,6.26354624229225,5.342371420449126
1.256,-5.27285996126011,0.9358885986407586,-0.25288198678208573,-7.111891253563044,0.5289744408219121,2.0657651920028,5.82870069735236,4.173482560836419
1.26,-5.112062117515052,-0.2866848243274944,-1.2068588260608522,-6.954985925648998,-1.684251637804664,1.918948397135864,4.98175306461053,3.3194466085897147
1.264,-5.934060698278245,-1.499899034786722,-2.0115182363533677,-6.517187465989082,-3.1238909740968666,1.5248046545530087,3.6651481095868803,2.772068401114666
1.268,-7.340487560471502,-2.492176362140526,-2.7629677634013206,-6.03866936284976,-3.9280230101130655,1.2003336512543683,2.170918416056338,2.4216678738685005
1.272,-8.657489645775968,-2.9747838135126585,-3.5229957091814867,-5.525618739276069,-4.269320896765748,1.2796960194827989,1.0150213573397195,2.1385552950177953
1.276,-9.272803659674537,-2.6953641233872077,-4.340823270913461,-4.849769998597367,-4.222463127999617,1.9024949822196504,0.6413689460359819,1.86019511347331
1.28,-8.902815624142931,-1.571495677317671,-5.268765208095829,-3.9295953200407894,-3.7384314404116594,2.9431459462457497,1.175052750200848,1.6629217161007546
1.284,-7.649304379181103,0.25004807582126887,-6.324235115056581,-2.8391970975062577,-2.7136933985120777,4.120581793265046,2.3951302926352582,1.7888314335032192
1.288,-5.853333427116922,2.4455834449454414,-7.416626613903645,-1.7641744069233027,-1.096662728519732,5.191929102337781,3.91856493791056,2.5855752093539195
1.292,-3.8728544474633964,4.645739908085034,-8.302412950278267,-0.8412871192704188,1.0281370487900858,6.088523432508737,5.446666553332761,4.330961862311597
1.296,-1.9581321030873369,6.540897352208503,-8.662335897436606,-0.04014209797060175,3.3896075323118566,6.877037497872152,6.862177939137837,6.97403286923327
1.3,-0.2927971602243815,7.893353884358476,-8.294273116236582,0.791767572189201,5.525724283371346,7.573208521347624,8.086281127192706,9.92108806413853
1.304,0.850291237150941,8.455958888319856,-7.345633770861241,1.7004700948409663,6.8212972713718045,7.927640573718236,8.805580063688467,12.008299362687467
1.308,0.9964220830306658,7.888176608852518,-6.417303300821914,2.368584024019583,6.616180329351664,7.3788901471616555,8.3198836481115,11.784785238925906
1.312,-0.44316956601869606,5.7932816395805276,-6.393300647334399,2.058847995841461,4.401112693804862,5.273201628036986,5.724829603015678,8.073785534366834
1.316,-3.8615431715807063,1.9263240769296317,-8.009863352711363,-0.10994598412526102,0.0728657355030009,1.2637605971867742,0.42253491181054414,0.604465174716097
1.32,-9.082513642643335,-3.5172092006869207,-11.347162443513298,-4.634170625046863,-5.847542745558712,-4.320168028898479,-7.2983879875655475,-9.602121674608497
1.324,-15.1744491907657,-9.726048232108042,-15.560961619488808,-11.137198134271785,-12.193367538139682,-10.400038662644874,-16.00139119316009,-20.366422498089378
1.328,-20.6209519307572,-15.375866442219376,-19.06841273766986,-18.241244402280245,-17.40815196665426,-15.47300123316927,-23.41255358625949,-29.022361977808032
1.332,-23.828700926729198,-19.02998449224924,-20.165118422832165,-23.954701130467583,-20.030554883369405,-18.195342156501283,-27.241373161672527,-33.375484279538796
1.336,-23.760571034263194,-19.689023898215964,-17.80403926608051,-26.457050091477868,-19.23136405857258,-17.935975757765846,-26.140684972947383,-32.52267023265449
1.34,-20.367930796426208,-17.20694685158651,-12.108817636531057,-24.889529719363054,-15.1387771429836,-14.98809164839804,-20.306123946670596,-27.124757855217467
1.344,-14.60165613927984,-12.34814293886484,-4.356745453655094,-19.743522514675533,-8.786100870978771,-10.349816588888643,-11.3947222595516,-19.009798278086237
1.348,-7.99941851187441,-6.453347730172027,3.558050347977769,-12.638588095009254,-1.7066194832823385,-5.218061745628802,-1.8058396671231094,-10.328313452118891
1.352,-2.064550527773008,-0.8948095158611977,9.904489088794435,-5.59651387631402,4.631661983359663,-0.49081756970736024,6.30312950446114,-2.6942698707698582
1.356,2.252140611606592,3.3936554879692267,13.725399464597103,-0.18358802821330755,9.284900921295048,3.449343741816847,11.769190104183508,3.274393474299359
1.36,4.737985740646764,6.0921362407734705,15.005505315061782,3.0552521843983413,11.993868257045506,6.618467572330701,14.599106763148484,7.847178777850786
1.364,5.746502769485232,7.34797351443558,14.37370623015886,4.61185374537672,13.0195007048369,9.113317005332647,15.582380324808582,11.655141769215334
1.368,5.821172360590936,7.46510080671942,12.571940089797863,5.5234520036647154,12.805510774453978,10.845047801811234,15.64511338986813,15.10410916076762
1.372,5.350800676860672,6.659398401100589,10.04076419257035,6.6849798325329175,11.688102905743108,11.516300586054058,15.341044656739541,18.064824759381736
1.3760000000000001,4.43945529650955,5.043851094345882,6.8615560393554915,8.349241424240972,9.815517023695065,10.840827959869785,14.733827299214681,19.989808148946395
1.3800000000000001,3.0201946246970692,2.818234114817642,3.054615093612483,10.073114483739118,7.289217890264808,8.843000147673592,13.649834896519678,20.33598613817776
1.3840000000000001,1.073722657248254,0.45409830344033253,-1.0498410137779501,11.068326024923408,4.359066466826334,5.98035885534955,12.046100009858492,18.972701998100092
1.3880000000000001,-1.219939925570543,-1.3271230955342617,-4.677623392201895,10.710501190111245,1.4902349039466571,2.9712027852074243,10.20144613024604,16.31767734150526
1.3920000000000001,-3.489690224610058,-1.8341102635786228,-6.841718115282674,8.913102043851723,-0.7645161852833553,0.43191627701889956,8.60696229786845,13.133132095690598
1.3960000000000001,-5.318925960557863,-0.7934492555550605,-6.832271066723479,6.1757426633867,-2.016715031248168,-1.439226652830257,7.660369733026528,10.136485877226733
1.4000000000000001,-6.421662112500599,1.4086575424389594,-4.653365174051942,3.3243590958072673,-2.241068153447486,-2.904416736939311,7.406376925493532,7.684740726406744
1.4040000000000001,-6.736930371837843,3.8205998768544305,-1.132993459887075,1.108423074935672,-1.786717357282214,-4.423465956595464,7.512663433424677,5.705378083832329
1.408,-6.400388048776222,5.353684421039361,2.3899712622769584,-0.11192445262531692,-1.1727789767246577,-6.2528681819167105,7.492044367085327,3.8895001628261525
1.412,-5.6422223845547705,5.3202535991804325,4.649116035066982,-0.4445359974506573,-0.7978868881191374,-8.183115628653468,7.015980129295713,1.989046297287132
1.416,-4.69308461496712,3.7727411922260217,4.991128316727554,-0.31302357846107043,-0.7557748022618398,-9.607789638421309,6.112496910927803,0.012817510423701606
1.42,-3.755610530395643,1.4411231827816664,3.606228158894737,-0.1884669762375779,-0.8577527481575089,-9.883684116201039,5.105536127546657,-1.790083620164296
1.424,-3.038833128846818,-0.7014281880910858,1.331648219298586,-0.36415833285263943,-0.8481588216836826,-8.783572085874766,4.350112122943756,-3.134634653930334
1.428,-2.781627914244382,-1.9821368284137861,-0.8343115019761171,-0.8706646958216879,-0.6576151748286065,-6.736049715018453,3.965221211536118,-3.93842931763902
1.432,-3.2040280608662215,-2.3620214445736565,-2.2252610145387735,-1.5461205027831966,-0.512903548943541,-4.683196204201522,3.7411911647031957,-4.426016571251239
1.436,-4.394658803270431,-2.3730325441720197,-2.754242616232659,-2.189033813793685,-0.8171193828811738,-3.6253568562133296,3.2856987531267805,-5.029371310089118
1.44,-6.189528269476796,-2.7065556095913053,-2.808435287366592,-2.6725380769294134,-1.8681422325953463,-4.087382716581487,2.307471618991258,-6.13590647746787
1.444,-8.147970003095907,-3.7389146767091006,-2.924289371514533,-2.9819746425027915,-3.62116567728026,-5.839282828366777,0.8305934928794159,-7.844870331242419
1.448,-9.683917121812556,-5.2912412870118715,-3.4642439075614675,-3.178494278810831,-5.664055932217707,-8.03802375545638,-0.8123938756943971,-9.872522955412933
1.452,-10.317492333141672,-6.771957957279483,-4.476459372808677,-3.343313527324426,-7.450005371249063,-9.701529263222255,-2.2035542944704503,-11.663920872917515
1.456,-9.934577803666798,-7.608012762689214,-5.786322336283774,-3.55484376057575,-8.6523168159747,-10.248563196861141,-3.122683196717844,-12.648383521136566
1.46,-8.892186496608701,-7.6608841287243195,-7.1866072982174956,-3.885759848190901,-9.38979400208882,-9.771077950874314,-3.68893373444007,-12.490726906253258
1.464,-7.891710115451133,-7.34933817381534,-8.581382469577875,-4.410691790878445,-10.16369569361268,-8.919308001693935,-4.2645868177514785,-11.230289345512574
1.468,-7.674567116091566,-7.402696799090336,-9.994770114368293,-5.208176656759861,-11.524195924728701,-8.49497757928475,-5.183968145229301,-9.261017473905667
1.472,-8.681409383689243,-8.399885443096537,-11.453137970476746,-6.331690615992557,-13.653244313438336,-9.00010828798986,-6.496029669966447,-7.174939774946324
1.476,-10.841685136130764,-10.386579500640437,-12.84601028938414,-7.760787862533107,-16.12889329169957,-10.404019837176747,-7.8999207732813375,-5.551596516097561
1.48,-13.595586609981183,-12.81329903785354,-13.871642657109987,-9.35991692913467,-18.035227691190812,-12.207474347127572,-8.918970156038995,-4.772888420135132
1.484,-16.141537648003577,-14.846582186179148,-14.139216375377146,-10.900460937960815,-18.400263767238357,-13.745072888212235,-9.212470844271593,-4.936869306600784
1.488,-17.781920127311423,-15.852952652437125,-13.36632328552514,-12.143136885482818,-16.722760012995423,-14.524283001335789,-8.826467090824735,-5.881030688789906
1.492,-18.19884436229404,-15.744536822481678,-11.547721907254527,-12.947963472195624,-13.289386005848428,-14.40923689641204,-8.205828932128497,-7.294306987299933
1.496,-17.5361470393118,-14.976141518488475,-8.995248340026592,-13.356020005139726,-9.101506198076095,-13.592889715369893,-7.941793436166336,-8.867065919130255
1.5,-16.25769316010974,-14.200523939338382,-6.210811767265113,-13.573959833945992,-5.433005830091133,-12.408236484556255,-8.412875848711337,-10.403200580047269
1.504,-14.877224208916232,-13.81497883256634,-3.684446488885442,-13.867568308709451,-3.269148428160406,-11.145163065702945,-9.541497736034216,-11.861748693623667
1.508,-13.707287396017819,-13.701479516191284,-1.7383650987285364,-14.414956643246114,-2.925549881252664,-9.985925506238345,-10.831639077270665,-13.3154158758025
1.512,-12.751092397156754,-13.338765218300068,-0.49963875612411357,-15.202857202139057,-4.037678869504816,-9.057952400931754,-11.676144497581845,-14.848211458011065
1.516,-11.773140136244365,-12.213698817502518,0.012792818361049285,-16.0186351745524,-5.882098273377778,-8.512444052490537,-11.753010184389495,-16.441651806249865
1.52,-10.493294253450586,-10.259532649472021,-0.22032858199054317,-16.543229402750512,-7.812078447374006,-8.510118653175596,-11.266583705710218,-17.915276009873196
1.524,-8.793191384974307,-8.023187230325675,-1.2617968205140642,-16.510033824457423,-9.560392196313842,-9.110544848004793,-10.87806322659344,-18.970105532331218
1.528,-6.828153095750167,-6.433810365275349,-3.162610507604768,-15.848113745632872,-11.266030306875109,-10.152813039891043,-11.3576858531178,-19.328298040112713
1.532,-4.997295010670314,-6.2983420773107355,-5.854812471803598,-14.737938814621884,-13.261283754447504,-11.246293763486392,-13.146110336518177,-18.902057721170422
1.536,-3.7966337436555477,-7.828866461259167,-9.079836864100798,-13.545971633891895,-15.780773553908148,-11.933180538369925,-16.07566041904647,-17.887630064018595
1.54,-3.6273712899674138,-10.491483708887245,-12.410083050050162,-12.665283934476975,-18.777433200055384,-11.938881308957207,-19.405497077068503,-16.714134711946826
1.544,-4.6580430910617,-13.289704964168777,-15.394467437565254,-12.358351682347347,-21.947872699502113,-11.383682494721143,-22.15709996149417,-15.865415091127943
1.548,-6.785412656591689,-15.31778419606053,-17.74776917914278,-12.673419463772007,-24.904190077058956,-10.797987299214583,-23.567597792491142,-15.647200436702406
1.552,-9.686333422197094,-16.249434396753713,-19.465545514103724,-13.464262518797113,-27.35109170549549,-10.885046018767753,-23.430315800846074,-16.026168619762757
1.556,-12.915996685546816,-16.462919506706385,-20.784336832235567,-14.484364894806276,-29.140460853013792,-12.137566367942782,-22.138105241981975,-16.62394142568155
1.56,-16.001594195099642,-16.729603208170374,-21.985871437567766,-15.491522242813517,-30.18621785516916,-14.503022350752872,-20.425333058912656,-16.87390035349017
1.564,-18.510904139238846,-17.6634701148987,-23.16660337909161,-16.321454545772212,-30.34708029693502,-17.32074229812497,-18.969925272789624,-16.27597539126873
1.568,-20.1038175655749,-19.2725899342513,-24.113048549676023,-16.907104989060826,-29.402340925720637,-19.59946125609531,-18.061276582391656,-14.62457920684028
1.572,-20.578322509614736,-20.891448031617983,-24.361657183530042,-17.251853930520156,-27.165219597494797,-20.49618240465861,-17.50605325075776,-12.100536308105802
1.576,-19.92918109780385,-21.54535902265161,-23.431160048163292,-17.39409349304151,-23.676024253949436,-19.74739548035359,-16.802908038793248,-9.19515204770505
1.58,-18.384636641501857,-20.52785692566431,-21.08450203704342,-17.372153793978214,-19.32451429462344,-17.79777344836839,-15.471513281649095,-6.508649054707348
1.584,-16.37805663320796,-17.84329313452872,-17.48852955897928,-17.201982827624306,-14.79889391357574,-15.559938674035948,-13.352131606407056,-4.527406826498918
1.588,-14.439816784026334,-14.256776270580303,-13.195545435239183,-16.87344530693008,-10.865020673218169,-13.941172105223814,-10.723991362538072,-3.4858664659004717
1.592,-13.025835391349574,-10.919376835432558,-8.949503140367597,-16.353262509393062,-8.083869001462517,-13.402344785501555,-8.18629710067762,-3.350565461332735
1.596,-12.340756480942218,-8.781155518943706,-5.4175432377669495,-15.590614682289015,-6.624810931440152,-13.781066061555066,-6.3728146513685715,-3.8993411866977112
1.6,-12.229132843278876,-8.11469773732506,-2.9530952510085626,-14.515912000802018,-6.262825008767777,-14.44105746371315,-5.6477283760168575,-4.8219840499177735
1.604,-12.212179573286448,-8.416526069897373,-1.5066563960172061,-13.054328651131982,-6.553415124873936,-14.654947788967547,-5.931505214830395,-5.79335705194535
1.608,-11.680751625410267,-8.733473267744557,-0.7229174716849229,-11.166982363471107,-7.084729411042645,-13.99080413361662,-6.740757394782122,-6.50655773473045
1.612,-10.172838891712672,-8.212905828404473,-0.1605950990506244,-8.904467286742147,-7.662967930880768,-12.494323180202628,-7.4283382888679625,-6.7000554323603865
1.616,-7.615832189305365,-6.570369495160776,0.47096327112740255,-6.445901533868891,-8.346851686414084,-10.595096329809166,-7.504574479729854,-6.207727048877132
1.62,-4.410485727954438,-4.226522155180646,1.1853608422570687,-4.087560616548217,-9.334838704175127,-8.805722731322021,-6.873308355254267,-5.026126395725441
1.624,-1.3112525071464916,-2.061652728167246,1.732852490273217,-2.186682235887929,-10.801819647480443,-7.430322301170236,-5.858814972698383,-3.3718035614147084
1.6280000000000001,0.8525281928868935,-0.9516965643097137,1.726391619833521,-1.0752690657154744,-12.793305772658641,-6.463566974294736,-5.0275317652085505,-1.6780046958992898
1.6320000000000001,1.5018880322149926,-1.3445890194388994,0.8250300563558994,-0.9611749231662543,-15.207240780684515,-5.708140436898248,-4.87830955724894,-0.47750789665587945
1.6360000000000001,0.5305095666426496,-3.0848107972378784,-1.1014662063753349,-1.849010999321763,-17.834996437120935,-5.003943541250919,-5.552029685830348,-0.18995872996674734
1.6400000000000001,-1.6717305855463565,-5.542365489382064,-3.8759991204133257,-3.5111813711137074,-20.39436731013484,-4.3873965668462915,-6.714590216664874,-0.9005553005808906
1.6440000000000001,-4.39978228621294,-7.947902994288597,-7.031655504679293,-5.530407757672947,-22.538747038766815,-4.082540961531777,-7.686394981650665,-2.252627353180287
1.6480000000000001,-6.938403359114091,-9.747530823600755,-9.948282531233417,-7.418132706057804,-23.87555715086819,-4.34141920856564,-7.764615459214838,-3.5462565353373066
1.6520000000000001,-8.84591536116568,-10.802512139203827,-12.049755561321945,-8.78875627877278,-24.041049614676012,-5.25356744022065,-6.5889418724746065,-4.046209384694521
1.6560000000000001,-10.07659422022607,-11.355770470722746,-12.981421897675318,-9.505453210706037,-22.82665621925662,-6.654535307479819,-4.357307076075813,-3.3594683624978643
1.6600000000000001,-10.897497397703773,-11.820824472826644,-12.706130080912772,-9.725957167502202,-20.310700688942234,-8.192187778990046,-1.7628953808925871,-1.6947698721232882
1.6640000000000001,-11.641839734362293,-12.51351883667121,-11.473670214132653,-9.811524067510618,-16.89655781460897,-9.49792276223161,0.3177403320223675,0.1447061121034494
1.668,-12.440225094424022,-13.461248641022394,-9.6805352950214,-10.116889968685427,-13.18806282728292,-10.33933383670228,1.2524295938274008,1.0929405483911978
1.672,-13.080002263795905,-14.366052861163553,-7.6865120127095,-10.756672849669485,-9.738587248022668,-10.66069756019715,0.9788056894394686,0.33793980078189634
1.676,-13.073680711053385,-14.722140895924895,-5.675186308699267,-11.478266322690615,-6.801654878889167,-10.504503376720095,0.05016266484017251,-2.2275171341934765
1.68,-11.917937486347,-14.032861315885384,-3.6268852032681025,-11.735810096892237,-4.2398047367260006,-9.895345264390926,-0.6286793962572119,-5.855456117009453
1.684,-9.39790071698826,-12.01713653556908,-1.3782665454746166,-10.938459117871389,-1.6480794162325765,-8.777364923944333,-0.23442014442298387,-9.196174855336722
1.688,-5.783714196197252,-8.74717549408615,1.2346898422256345,-8.784501546404499,1.3401291808131646,-7.084953067329479,1.577848772474681,-10.868663227514844
1.692,-1.7997567258880736,-4.672896683300678,4.223995695219855,-5.5043136490003235,4.730023424988758,-4.898935655417517,4.508342383936906,-10.086932179208816
1.696,1.6377768341471892,-0.5252415560389636,7.351884241881635,-1.8606802475860604,8.0187185599425,-2.5692764720970445,7.74439282819003,-7.043190018575842
1.7,3.780206725044991,2.867134750045807,10.122832856042805,1.1149374486085435,10.331324855520506,-0.6819469744696107,10.299165790598636,-2.845755359798204
1.704,4.337180853448444,4.802700311442095,11.901157218624576,2.550118574547014,10.796678796203196,0.16977479070556,11.390648968441383,0.9640073730661243
1.708,3.5431142451125197,4.894314769184348,12.08393785556109,2.094766504023937,8.952755135444022,-0.3229145116511063,10.685496357249576,3.0799920431381906
1.712,1.9762483568138123,3.1741421952738165,10.291995214782219,0.046332693093063426,4.979057448763342,-1.991053967463813,8.32952373399712,2.9588637023007323
1.716,0.244952694631138,0.08141258311934507,6.520673835962953,-2.82392867870567,-0.3697529478522483,-4.222817576923262,4.8073188104008295,0.9610796779943485
1.72,-1.2959975544017652,-3.67203654325931,1.1974730810688925,-5.648361209196992,-6.077907674658491,-6.231512269534505,0.7405657761828479,-1.9119570943148574
1.724,-2.633552245669307,-7.3045082530297805,-4.849737481348711,-7.827322030898358,-11.235319427214563,-7.3943225384064135,-3.258497694034304,-4.51501644068594
1.728,-3.9691442047278542,-10.181474151964721,-10.557078362900938,-9.208418968576552,-15.289912131240271,-7.488529030479185,-6.6565944069188845,-6.025917374236087
1.732,-5.468278469688812,-11.975048763226368,-14.895486485616857,-10.00879464596619,-18.085363579531986,-6.703823698710039,-9.030438042231253,-6.15931979128618
1.736,-7.054170281429833,-12.715634101748947,-17.178983547735697,-10.564949676898323,-19.724904260529,-5.446850020114653,-10.12244511926474,-5.084091811615508
1.74,-8.393200298529337,-12.733513823967769,-17.30715156281076,-11.088793541236555,-20.39483799993468,-4.0753781013354455,-9.93521268582299,-3.1598874951250764
1.744,-9.064700713195634,-12.4970904545753,-15.790619312547278,-11.550912234572024,-20.242026585624444,-2.718520316262584,-8.797278872925745,-0.6868951189171639
1.748,-8.825986406768607,-12.414758759994584,-13.54652030197758,-11.751089092853363,-19.362976322887334,-1.2980482805978681,-7.325290133670933,2.1825693108276027
1.752,-7.799566369394597,-12.670335236954998,-11.518557806291938,-11.500135256819703,-17.856357145034053,0.291807805733697,-6.2358773064424895,5.353306662651448
1.756,-6.449784778720641,-13.145319931559243,-10.275453189777181,-10.769557500248993,-15.85601080451579,1.9854591995044757,-6.042476869746679,8.63148241759518
1.76,-5.357925204386447,-13.462349621901012,-9.78159054454045,-9.712817382715002,-13.492800422100117,3.4752806947162753,-6.790741310127487,11.667365376069938
1.764,-4.897884227533723,-13.120500948394692,-9.423714633339841,-8.533802041902163,-10.797188883667332,4.34616377243583,-7.972263380894219,14.067232342069474
1.768,-5.018568413932371,-11.691257801303436,-8.32562286702887,-7.322321203087995,-7.6578065800658806,4.321277707404079,-8.704227433596316,15.601785907771045
1.772,-5.261526595389114,-8.997253872397778,-5.799917575222935,-5.974477731683692,-3.9057554060073016,3.460640205137679,-8.12055324722678,16.35848981596064
1.776,-5.004888304365522,-5.198541759544241,-1.7141656914864143,-4.2594203298504,0.4927079904355196,2.168232351883489,-5.786153297114652,16.71301490624137
1.78,-3.8133769985170147,-0.7618282540570362,3.3988008396263467,-2.0060150311755933,5.245783618344831,0.9933817261080549,-1.936062145188771,17.112708236207254
1.784,-1.6845478763798383,3.6898616737471457,8.568712724063516,0.7242016579093615,9.701715793809853,0.36525149585031613,2.600963860268166,17.79711685561051
1.788,0.9286299706018326,7.5666291499983345,12.796446748765447,3.57634748354576,13.014312029796201,0.3938860995185678,6.742478461243081,18.626560530892675
1.792,3.329756722732782,10.46296960525251,15.436130257399782,6.000811119712125,14.4585557662258,0.8601669677245809,9.590853448127746,19.13972337640189
1.796,4.8958858228534154,12.211354873589698,16.357194382997477,7.457946461543543,13.729685537839032,1.3809804870252265,10.76860291052617,18.81915388253219
1.8,5.3107011419942864,12.81538820363221,15.814613453831043,7.610364388923699,11.052737212510692,1.632596163524795,10.48438505035665,17.40387909369747
1.804,4.620608714489208,12.334033808322602,14.171235675426942,6.431731133245194,7.0559807409827044,1.514024802538188,9.333731823349808,15.067381454417045
1.808,3.110528034494564,10.79723787808689,11.648391231946334,4.1872534872118194,2.469000362116276,1.1511079571937444,7.966704464943177,12.359426455806897
1.812,1.1128808505600318,8.213505955128312,8.264187138823218,1.3227613076824127,-2.172928852935911,0.7655054015340284,6.801949626527858,9.940113142447444
1.816,-1.1172750937230376,4.672220050285432,3.984753932224521,-1.665274371018313,-6.647423315873311,0.5154115624991391,5.912496709463085,8.264867034782583
1.82,-3.3947235329605974,0.4760373526614785,-1.0286188243280776,-4.321588668160075,-10.930194321818817,0.4218014807520376,5.111747160754021,7.415576818344562
1.824,-5.480947056571495,-3.78224932789999,-6.230458177104083,-6.254963733324985,-14.930187069474414,0.4384751476609381,4.170281821156095,7.15678892683718
1.828,-6.982078152170288,-7.292710669299595,-10.742153078980664,-7.148162192859672,-18.2828607055244,0.5740105824970669,3.008867749278579,7.150692713104945
1.832,-7.37401922585741,-9.249225914726594,-13.642723687327816,-6.7880582401257925,-20.359675879298265,0.965778351361223,1.774234498559963,7.1770700360393676
1.836,-6.183187890851514,-9.1377331340409,-14.353332360066815,-5.126078213389519,-20.521447330856063,1.8218148091982584,0.7721597923136869,7.209594221527368
1.84,-3.2523007636455077,-6.9675949994789335,-12.912455110772498,-2.338884285793938,-18.475902887159464,3.2551948701948277,0.29453006246239966,7.326718177331713
1.844,1.0820476679168678,-3.3051606193093903,-9.949427230992114,1.183072314387573,-14.505306715533152,5.146109676190463,0.4676092891404551,7.556688114476856
1.848,5.999315917614695,0.9094636838162842,-6.389916686023753,4.918523962916879,-9.428685311231675,7.115813637659812,1.1901974018528563,7.783805285596827
1.852,10.418311815632933,4.696534722442266,-3.0470413739913056,8.350044199976765,-4.292602178823472,8.662787870369357,2.1899615979427836,7.804923261908698
1.856,13.34799572096199,7.3765182451006694,-0.3180021165499056,11.08819163807948,0.042255755080077506,9.38691023023057,3.1655988952479674,7.4949996024042775
1.86,14.204228764673644,8.758054077553425,1.8493965211446266,12.920417649407682,3.1898106966464184,9.168519291604753,3.9379762190856127,6.949767087642613
1.864,12.973171935396294,9.109131949574476,3.760049699112642,13.789608364826563,5.267020715003127,8.211287749134499,4.535058886774095,6.475243935983599
1.868,10.15500300203712,8.93399741576468,5.658894311022777,13.72623130502052,6.664264770869522,6.898228097770698,5.156474883042392,6.40176593155411
1.872,6.550922329613513,8.688680810572805,7.507386719729766,12.798547069949564,7.723185473268131,5.568554408524506,6.0426509200297005,6.824713139405503
1.8760000000000001,3.0044586297176465,8.585909979043208,8.984892672428032,11.12666117129811,8.532826086065143,4.35843953159565,7.312610270764708,7.451456903727376
1.8800000000000001,0.1859538037715538,8.567802343310177,9.693091351183284,8.939517201122726,8.95061037225878,3.2012921540772368,8.850684173864465,7.689053774913191
1.8840000000000001,-1.5088369330960631,8.45218979371839,9.455608477834176,6.6368461605761695,8.819522842568404,2.0051592893869383,10.31666721667807,6.95525489056854
1.8880000000000001,-1.965993970472482,8.131882368196784,8.491955527195387,4.770149535141172,8.197703143708168,0.8545149665333156,11.273962153356479,5.043123367471708
1.8920000000000001,-1.3056560767172414,7.704473529981897,7.360660999551328,3.912440865969984,7.423262288861224,0.08848203115849174,11.382195032382697,2.3154857431818527
1.8960000000000001,0.19104216966343301,7.455103652621801,6.691817125789385,4.451719817235244,6.950646357026926,0.1697444787259883,10.566351987456983,-0.4084337738368049
1.9000000000000001,2.162304751512238,7.686464627900477,6.848139954046019,6.397640449163191,7.057877580093191,1.3964952454971353,9.060128348755825,-2.2290353765965847
1.9040000000000001,4.267411453747172,8.524124120297529,7.747020300599615,9.340528731996528,7.649680889157935,3.6557231213937484,7.310321874467263,-2.593056879919459
1.9080000000000001,6.2847548868312515,9.815042055035065,8.924633879305475,12.595672781404573,8.30176399881293,6.370201309051481,5.777280607060675,-1.5265324333995522
1.9120000000000001,8.164804924040709,11.175786538607554,9.801062957701106,15.472367995205786,8.537604832747093,8.706687204025002,4.7271970187475745,0.435569184306587
1.9160000000000001,10.001236407663328,12.176937918612566,9.99814582966519,17.545980966637217,8.176903171014601,9.949488487376584,4.130103919473186,2.5695541417517234
1.92,11.921879349598385,12.56625014856263,9.533718211283485,18.802084230957917,7.531730515978779,9.843791456888539,3.7136152653865793,4.348986948129095
1.924,13.959895114905521,12.413622736384696,8.818569436583857,19.59094185640879,7.306256173595102,8.733828623106092,3.169809400928898,5.664251315842193
1.928,15.964268200645165,12.080343048814484,8.435658819344098,20.39749790535552,8.215351189685862,7.3878556925528756,2.384877339407467,6.771797466176395
1.932,17.612688544839784,12.032074664546144,8.840577158936867,21.552551500555637,10.543946725008936,6.6014229430029445,1.5470952112773375,8.037448118124303
1.936,18.53700622178394,12.601965237124205,10.144211360886402,23.041055877451527,13.921964116408162,6.794007716935994,1.0826852490008605,9.65756179669097
1.94,18.492404813141547,13.81226944845912,12.063910670672158,24.49160146033455,17.4577901733428,7.81003225909717,1.4320490477366548,11.539132272213465
1.944,17.493208744428557,15.360548077529984,14.078607240777274,25.36658318158925,20.17909034749391,9.045387989082883,2.802148253210362,13.390135173922317
1.948,15.827074261508642,16.768830241958767,15.670604537154759,25.242561793324057,21.52440525109978,9.808867541945801,5.032790032732919,14.9311665463174
1.952,13.942058836397337,17.60874366205462,16.539317929784374,24.03023108779189,21.600025368599745,9.71692758964764,7.652391779860409,16.05295782698704
1.956,12.263268596054786,17.67813593046958,16.675324395071584,22.007694896184603,21.034474277963454,8.88661121642508,10.0811046575609,16.788451825843367
1.96,11.032759402186457,17.046531454602246,16.27874984866139,19.661562539179613,20.527249562567704,7.827550816659823,11.862254519348426,17.142366874637446
1.964,10.259765012707248,15.973531585804722,15.617051007160626,17.439528028348377,20.3865768368496,7.121976963639099,12.79819744242559,16.916341575081788
1.968,9.782568561447079,14.747708276144749,14.875667741267534,15.536071387922675,20.330192809690743,7.062760225748207,12.92380293197948,15.698323425827766
1.972,9.407131641657088,13.55490279117521,14.089950679357571,13.843671007718967,19.69302044339065,7.473927411497243,12.364129507717735,13.081016953450671
1.976,9.036452099382586,12.446228624954529,13.172824632923948,12.091124403698814,17.91759294772646,7.807452613137684,11.19662153333502,9.005510260708434
1.98,8.70459937901478,11.391076503933618,11.988052463774693,10.071358585086728,15.00612539326994,7.448579325520768,9.40818118365587,4.007747796015792
1.984,8.53137436365796,10.379136242364439,10.458594871476635,7.845983507125766,11.65277227198294,6.081158728417904,6.990725214144732,-0.8249895824010309
1.988,8.621740077139293,9.479253464987323,8.625123848710246,5.7843144599296465,8.926630889643093,3.890264713420038,4.088352742971438,-4.235277799067262
1.992,8.974954276313838,8.807763577262449,6.642461037467456,4.409691230115186,7.682145928861246,1.4970032913224713,1.064889629517893,-5.355962946468935
1.996,9.456858291772278,8.431884961414198,4.723660216596727,4.133367009302674,8.04277685678153,-0.335770960679838,-1.5939392343889267,-4.166202695892025
2.0,9.835029859465067,8.266833479661727,3.0544782875890633,5.016469956707169,9.270346437602711,-1.0632754322541587,-3.510031748255642,-1.5758612522131443
2.004,9.863989163826318,8.059879105596792,1.7477424108665218,6.707900118135058,10.143217618832296,-0.5782739531105108,-4.61859699984052,0.9425098357587558
2.008,9.367289960967355,7.481230266958846,0.8213146927255366,8.575732213179435,9.623789310108805,0.8021005902864999,-5.214979304628287,2.0062339439273273
2.012,8.287402702238523,6.287326634672354,0.20561980610546016,9.963108289116462,7.436853102910391,2.5561648867760596,-5.7723681988463795,0.939160495606302
2.016,6.700259255469064,4.478225881399339,-0.22756563673920027,10.435113585418094,4.22526172630387,4.239324491622938,-6.609472116858342,-1.9528621249264688
2.02,4.788748854529331,2.342006005375879,-0.6465895809551512,9.88598899898625,1.1811618990100214,5.658518206131703,-7.630482752719672,-5.579368605996933
2.024,2.811177293332321,0.37346570364115905,-1.2110020462673674,8.495567797974672,-0.6125273606471637,6.876613833869669,-8.301247479624635,-8.613864025925977
2.028,1.067516867165068,-0.904053412255962,-2.0095976155289463,6.588380024940307,-0.745830685943929,8.056623524725183,-7.918384399136357,-10.098372437478247
2.032,-0.14252235060757812,-1.1293228039485257,-2.996126572723824,4.494765740506409,0.3723873849357915,9.271862087651243,-6.041924417483642,-9.814738456456325
2.036,-0.5808283220110297,-0.2269575095865548,-3.956463390494264,2.4837593323195506,1.8509781353373,10.407650905261107,-2.836115762556801,-8.271488856744327
2.04,-0.14964169942368244,1.5791025912112673,-4.546483694086419,0.7732892451249427,2.9004385351754536,11.204346457657266,0.8879871517365245,-6.358730283894147
2.044,1.052161151791097,3.866758456199932,-4.382868529439747,-0.4254691082624049,3.29832839034043,11.418896294482693,4.000502251603848,-4.896176071681111
2.048,2.711542777566592,6.164492445306223,-3.195184745552524,-0.9179760252354754,3.445871667668598,10.98197394375893,5.578995128995757,-4.306683099599468
2.052,4.3545248048276335,8.076448247466487,-0.9843517428917039,-0.6196026063612408,3.9947322755569985,10.043322791007085,5.340806913138749,-4.563478562741693
2.056,5.482878171372022,9.360398373056569,1.9039493819427662,0.3323408452165495,5.309747347744633,8.872230554451562,3.7545539480706793,-5.368635862774681
2.06,5.757234328962568,9.96248554361705,4.843195832851507,1.5554864754976734,7.142207420558407,7.693706178127286,1.759072038514205,-6.381535452615026
2.064,5.1795601482576785,10.035540008978387,7.1643797692045155,2.5793260934710815,8.767072723884212,6.599909541523175,0.28463888172882434,-7.333924988617582
2.068,4.1699525262661155,9.924452407146646,8.455047769544308,3.1133183409178855,9.501691504025075,5.588139150848747,-0.15425660407117903,-7.987652449037341
2.072,3.4733045027317075,10.094305320085368,8.76771399341942,3.2799091458718976,9.257515666738072,4.6971689588040135,0.40088699638090475,-8.02486094789947
2.076,3.883770194995577,10.971448303715079,8.604455121993851,3.631638412220127,8.719910379575595,4.113388531329747,1.5182270282389254,-7.042129306698371
2.08,5.8569272323684345,12.706406489327264,8.62513466931614,4.864151436009706,8.959795046953786,4.12816077879279,2.6820372554807363,-4.737126801029262
2.084,9.176308110552782,14.961640803190221,9.219649934703739,7.333980860794327,10.663894135231658,4.932899358713257,3.5015664693746658,-1.2493576225188008
2.088,12.850335382245703,16.85588497140452,10.150967921978008,10.637534621869918,13.447073684915267,6.340631777422459,3.6992874138395564,2.5708458818835425
2.092,15.3552553448867,17.16955962309521,10.508225018505982,13.549730023133861,15.729771670475202,7.640469819789814,2.9490887509423374,5.21147755113725
2.096,15.180404697277481,14.79675072069631,9.058479670337874,14.433859433250518,15.352889763326402,7.7442836841651115,0.7617658057511107,4.95467493692604
2.1,11.4760416595268,9.28465456167146,4.869105975330058,11.994643757778249,10.687048321718976,5.6385691722507545,-3.3926998648644258,0.6317268284919919
2.104,4.539234649018454,1.219581696671412,-2.066567337833021,6.042576754648053,1.6685722992096998,0.9750167505476384,-9.696608538902183,-7.660750731510234
2.108,-4.129079363698565,-7.779974088870858,-10.557242644229973,-2.167335886989804,-9.837170878940015,-5.523389881876483,-17.55607108399181,-18.277245068015418
2.112,-12.27349177982751,-15.528609238858962,-18.481019122381895,-10.253393260079292,-20.605510397909256,-12.10553523225417,-25.43397745232187,-28.403375864221744
2.116,-17.682661590637963,-20.037286914426886,-23.52020973245726,-15.590563752638445,-27.325243747236527,-16.560257429967805,-31.163985237210454,-35.008584627035816
2.12,-19.0020673604472,-20.254751939435437,-24.058998934123792,-16.36772481122989,-27.9567695216183,-17.10055542997452,-32.713976484965315,-35.97794302460534
2.124,-16.19038094045095,-16.43101064739858,-19.797603277328108,-12.294153643141954,-22.49611774844766,-13.142885587787987,-29.049762575843943,-30.91244599527954
2.128,-10.43072731440816,-9.940681066300613,-11.82811363586461,-4.637443311906054,-12.81387813575725,-5.615091246517295,-20.674032163507945,-21.232412906195805
2.132,-3.55136840361115,-2.657658621000337,-2.144163544140156,4.408764128027542,-1.704278842318672,3.384994488162647,-9.511715583409114,-9.546310795461977
2.136,2.762507256790286,3.817288910556954,7.1681212866965325,12.692928102918131,8.331551231161484,11.43241681277641,1.8355182863310802,1.4107818179322749
2.14,7.574613745613078,8.692914524897787,14.643494670143355,18.90480861627975,15.939833488323984,16.71904746130349,11.104511238201212,9.759679153921752
2.144,10.871913819060296,12.07234042008804,19.77901525743232,22.859512527710194,21.071883379051314,18.6748184807725,17.1691195274866,14.948179030814572
2.148,13.264242558195065,14.593307303338634,22.891890041908482,25.183986010777744,24.486277732313965,17.985495782421822,20.227260693930248,17.572118004308322
2.152,15.425754153501998,16.864631943403992,24.65434959149934,26.664891885353654,26.984507552365358,16.056679553857975,21.348495777001517,18.73352260128013
2.156,17.61334759837723,19.031941023439686,25.609449359555583,27.67775820601605,28.854931617684542,14.234159576636557,21.691807636733074,19.327908695039696
2.16,19.513322095207172,20.694909240761717,25.914235239084064,28.01144688274644,29.79390228324428,13.195088701941131,21.852547351392786,19.652101324956675
2.164,20.479566975267858,21.19305681622359,25.417051923553117,27.149850007890564,29.25933488008741,12.80614004771087,21.693977912018454,19.481596306757183
2.168,19.977277962582775,20.04538137247482,23.922494818174073,24.769160849366017,26.951563384018982,12.43849217355455,20.680706947089675,18.48688149726422
2.172,17.9535818387792,17.271400062607768,21.435659321484536,21.104153831796793,23.094178565599123,11.505808905822505,18.444211630677046,16.662721279983543
2.176,14.926240626091044,13.426254435036526,18.242275162066562,16.953205772308138,18.37341172102333,9.893803316025696,15.198941682285977,14.482680796227214
2.18,11.74274395692089,9.345485437394018,14.781126988504639,13.314674281747557,13.62088389483938,8.036981727475222,11.734788886834394,12.69045980965302
2.184,9.180554505438863,5.785680235166069,11.448349847948975,10.899159953191202,9.489487896486025,6.64404482877103,9.01208681015305,11.8655414231755
2.188,7.616257742979769,3.1633753301450724,8.463566265308827,9.803334246810664,6.3120379933827735,6.2537473184911505,7.6329976259874,12.045341018878617
2.192,6.946710788333462,1.5212529397035723,5.891295057512025,9.533405298701268,4.189030329259367,6.907872093313472,7.536457950406202,12.644092324862413
2.196,6.783068070626541,0.6975609719256681,3.7780748695993225,9.343102426798168,3.177022895591108,8.12572685267287,8.104869070453333,12.723186120239006
2.2,6.760098685877892,0.543204900466435,2.271860771087404,8.66238471062104,3.3885375343725173,9.1693387605319,8.597954322739042,11.479897391477152
2.204,6.766346853306459,1.0377510571347557,1.6448104225605675,7.376317149156648,4.926146483438174,9.44361097350702,8.62422928224305,8.676909669613451
2.208,6.951089772247315,2.236693167476915,2.1662198410986093,5.806214475397269,7.702873890370029,8.780448464146502,8.34687988463429,4.791359810645645
2.212,7.528335765192878,4.108255783604591,3.9042917482006487,4.446169652685967,11.302294863581437,7.467511215172635,8.298395157118648,0.7997228342615017
2.216,8.524589704504251,6.395082276132598,6.585129466547983,3.6449374048385152,15.012926127147011,6.0257929502836305,8.936496602579837,-2.277880732885478
2.22,9.639170158102502,8.60445744072672,9.588319582064742,3.4168824229716392,18.03611058013871,4.8768947947828565,10.238286664802217,-3.833269308854142
2.224,10.341401516528322,10.168759014932903,12.130879226583488,3.491377859545878,19.770615474213628,4.1259310703856045,11.621270079073383,-3.9009455163602524
2.228,10.141041628829669,10.681489091409048,13.52838129361021,3.5201689666280345,19.999947029238342,3.559455462758251,12.24706697043166,-3.0530095705969416
2.232,8.866576490525176,10.066906157486187,13.406959064622924,3.2884522007348096,18.86594489878621,2.8333326566053074,11.520698134023633,-2.053900453765891
2.236,6.7827701257070885,8.588089238617158,11.783829016653272,2.795968746042149,16.6707160414918,1.7135825428954377,9.482207911095202,-1.4722229725684883
2.24,4.456582397721263,6.6956932245858525,8.992980236832295,2.1729260685860936,13.663817181599256,0.21523438050553523,6.840575652442908,-1.430383847703979
2.244,2.4595768225868824,4.820283042423682,5.53823014310683,1.526164155503011,9.970416894411528,-1.4214155052729893,4.621824245424364,-1.6172131251155406
2.248,1.067802211613241,3.214684166045174,1.9354890866259211,0.8254879675589564,5.703467064803135,-2.8923420475823605,3.6327689740604683,-1.5203202940622305
2.2520000000000002,0.13911982593009498,1.922010683170754,-1.3898485708868975,-0.08463908017608901,1.1592606533711205,-4.008256763450731,4.063230591192564,-0.7424862369784933
2.2560000000000002,-0.7558687627960126,0.8632331631226293,-4.137214026127367,-1.361878810129042,-3.0795257018623943,-4.777496662390945,5.440320185894734,0.7598954995532949
2.2600000000000002,-2.0417163393067312,-0.04224332283911281,-6.142043067954319,-3.032144054079879,-6.2571477095843875,-5.350826113787093,6.936786148740794,2.6437136682321807
2.2640000000000002,-3.842565549097344,-0.7924656191686381,-7.347207893210225,-4.9184788021335635,-7.7304280188510575,-5.8632836216215765,7.8462399144762,4.354563305602369
2.2680000000000002,-5.867196505474681,-1.310839228432883,-7.777334696986031,-6.69486466398871,-7.286362573884389,-6.301004258753437,7.936603017505604,5.4078247130902355
2.2720000000000002,-7.540421392720418,-1.5153379630808104,-7.504913451450989,-8.022754933892998,-5.284027179774512,-6.478986273565624,7.487718196081914,5.623205153010531
2.2760000000000002,-8.297880821535557,-1.381991951420673,-6.6044416475147045,-8.684317832069041,-2.5084918053601655,-6.1564809702181265,7.025469725657786,5.190005274463601
2.2800000000000002,-7.883154751237214,-0.9636229038933379,-5.130892055625395,-8.653022754325718,0.19083165741648145,-5.231127737470729,6.947264075955616,4.54057886012265
2.2840000000000003,-6.472400841154695,-0.34403047703165157,-3.113465383442076,-8.06008090206268,2.297464073873357,-3.8738318256836237,7.2814035004548145,4.1042738697489085
2.2880000000000003,-4.578354386811014,0.4192694886226036,-0.6097657646930656,-7.118099582509785,3.820621732917971,-2.5273581358159163,7.706112147572924,4.069171183848766
2.2920000000000003,-2.7981397731653885,1.31630302957808,2.211502550294256,-6.048380244640043,5.179278421705703,-1.7480218260939182,7.794297263738315,4.280668674711251
2.2960000000000003,-1.552891814720681,2.3516798407653994,5.015989076801873,-5.042256828278255,6.849789630101384,-1.9581429100046535,7.316659261494976,4.327849598695707
2.3000000000000003,-0.9650563514529722,3.469196314534713,7.3139693962232855,-4.265909750169044,8.979250179614382,-3.2346534173069017,6.389478809077161,3.767366924428302
2.3040000000000003,-0.897376563672708,4.504457904257492,8.590492307617978,-3.8519643275860744,11.199008097433477,-5.224742613572232,5.390083343010758,2.3544705308644325
2.308,-1.1103382138280153,5.20579644491275,8.49502974514229,-3.868540923972887,12.732001071026104,-7.251296900994021,4.697300899838467,0.16734384248843526
2.312,-1.422783473075242,5.3329436237079335,7.011022783240435,-4.269086976356391,12.732578568365057,-8.564580760391323,4.429328680584263,-2.427419035610342
2.316,-1.7792600348332144,4.788033234605564,4.508243658719664,-4.865132598811897,10.677163442915003,-8.637043734910208,4.341055487264327,-4.945296728318226
2.32,-2.210083626869306,3.6944514463626774,1.6151837268855616,-5.367480858814986,6.600110925104957,-7.377009705684372,3.938273241603156,-6.983009963409131
2.324,-2.7290445531663465,2.377536712660003,-1.015422340215764,-5.486485047125825,1.0801605657001687,-5.15871292944189,2.746271990581022,-8.344588052107952
2.328,-3.272020116629051,1.2304036801000393,-2.9726811497492918,-5.0709112040065065,-4.997162816057369,-2.672112766704231,0.5687556987566609,-9.04195506422468
2.332,-3.7181568917088725,0.5329314866395976,-4.242387222711955,-4.199637556135258,-10.746498458028839,-0.6507014033826408,-2.3970220661441317,-9.204411132736254
2.336,-3.9733378470568255,0.3195934686822852,-5.170044963948499,-3.1722456925323854,-15.513079372382037,0.3985207454157944,-5.635659652783261,-8.977190645142969
2.34,-4.071049913835282,0.3569504395911167,-6.274090691000083,-2.413282293730049,-18.963340970081788,0.35009586460387254,-8.531734335675537,-8.472893890686919
2.344,-4.190985692515312,0.2636741577170483,-7.971561555893516,-2.311662453468955,-21.033817948294313,-0.5511845250889564,-10.602944253617352,-7.800084128505318
2.348,-4.584048149198679,-0.2903926543435773,-10.371001920081085,-3.0806638624882794,-21.832165771787686,-1.8671484880113667,-11.645505317171569,-7.124206249328836
2.352,-5.434993893395756,-1.396700380486891,-13.211753716407657,-4.688628078580848,-21.556723563621176,-3.1934189842054366,-11.74709710174227,-6.67286833547837
2.356,-6.7421459644793345,-2.8343940600955193,-15.969460539659053,-6.883992480012239,-20.46609564820335,-4.3350537503037,-11.217793976556322,-6.663672113719599
2.36,-8.294471620901675,-4.1620493638155835,-18.07950509696741,-9.295141992616664,-18.87781150594492,-5.354414348793057,-10.486038809364686,-7.176185001656904
2.364,-9.736348321817388,-4.906847534494375,-19.12905148430025,-11.529840518932417,-17.123520505900046,-6.459951223123312,-9.98214481255934,-8.045571263411944
2.368,-10.689393090281726,-4.766485141232181,-18.95481237288959,-13.245726402727541,-15.45547624620508,-7.812689872030319,-10.030344533302696,-8.861373316969548
2.372,-10.866981104635784,-3.7270053082685877,-17.61492783199219,-14.18094929778647,-13.942598970945255,-9.352818683788996,-10.745469386004856,-9.10072390170535
2.376,-10.12774510486173,-2.0329838704012673,-15.280899697523296,-14.155096744960929,-12.421335110538166,-10.749165944548508,-11.953863366458108,-8.34664096531867
2.38,-8.481168606842743,-0.046672826124790845,-12.14996812624122,-13.080457569648217,-10.566328718243994,-11.51262255246695,-13.190868153928363,-6.4793445829023995
2.384,-6.056530880857451,1.9244283612985669,-8.414412306173972,-10.978396992134265,-8.06970345773584,-11.203655138536988,-13.808598204475516,-3.7411456401046053
2.388,-3.07902255109758,3.719547099346414,-4.327145731347855,-8.017356044533074,-4.875447064659738,-9.654902742016361,-13.223162526433953,-0.6478964961919473
2.392,0.14191085768442235,5.29729622991124,-0.2909303209991094,-4.534882972609807,-1.3393255396155155,-7.084738225860519,-11.200775327092515,2.2118241819077866
2.396,3.238904512738202,6.625470969807168,3.13274655762109,-1.004345157943817,1.7952350684486191,-4.045011264634468,-8.047839922243043,4.385490726471744
2.4,5.841301269761686,7.568138542742474,5.327177772851201,2.054784561977044,3.6229705442817703,-1.2324407242941788,-4.582005942019691,5.684933443729506
2.404,7.674040484022328,7.8783617422344605,5.849121688503828,4.221298488434627,3.4424753102587147,0.7700027009086625,-1.8292361668635522,6.192649988520088
2.408,8.639578156182893,7.314012479592577,4.6611911411350775,5.307852686092019,1.0975682916047163,1.6969318643668885,-0.5703995882131494,6.1697472634054975
2.412,8.843794923203916,5.82280596203708,2.244084679376215,5.4281137542119495,-2.8601554991075773,1.6718842152648676,-0.9505605374965853,5.933530734303986
2.416,8.547572478897905,3.6786339727746054,-0.5013682404598967,4.959919058855917,-7.28650094009879,1.1273489555742344,-2.3595901507252393,5.756951159806249
2.42,8.04616137883312,1.4545942932790012,-2.571213337980339,4.398152881626629,-10.823180849295795,0.6082236787112834,-3.6827078332619294,5.820739554038028
2.424,7.545692947647069,-0.1778854832344905,-3.2512128501853113,4.159544210999684,-12.390570732318793,0.5554626874618407,-3.8210174625775153,6.193596758090052
2.428,7.093396612738388,-0.7444886564592252,-2.4250993955563445,4.40624256974445,-11.601516685548177,1.1415018332527325,-2.239724208320581,6.8201170645045295
2.432,6.604254006567999,-0.19490613385141842,-0.6245099644112315,4.986487197928454,-8.90630272336989,2.2284698985956766,0.7461647614175035,7.528998535201708
2.436,5.9609619213572955,1.077421816604783,1.2230199463361942,5.527805018984736,-5.390386845588978,3.4480894370708484,4.11545671796398,8.062453387502273
2.44,5.115372251956842,2.4401112500166846,2.2242132196985267,5.636412693461239,-2.3103483111862033,4.356303959150409,6.6449672713013115,8.16292036144523
2.444,4.137804504408905,3.3529398263154917,1.9536335187722216,5.118993098722285,-0.5684014770545218,4.6085158506955395,7.530049977950398,7.6861527329183446
2.448,3.1707735241919863,3.628429951178987,0.6544997120552125,4.0937210739122065,-0.3696263638888695,4.066105292035445,6.776485388104561,6.691650899613251
2.452,2.3360619702572762,3.480595234798102,-0.8809622309552196,2.940317335348368,-1.2059862390652825,2.821406210591931,5.1688441777957905,5.462336485071319
2.456,1.657180114454036,3.334618305758454,-1.6903500628196753,2.1092681316124526,-2.167343833514451,1.1460123252677477,3.8325948110298214,4.411522215637206
2.46,1.0411074322490208,3.507784023078216,-1.1140388131444752,1.876480762698634,-2.427628427200375,-0.6196899592196132,3.6202840620662755,3.910554915761395
2.464,0.35263442688517443,3.9721868547518397,0.8986905337013695,2.205387402373958,-1.650746763716711,-2.1657268527894757,4.668291097309975,4.118542726200758
2.468,-0.47903555916991536,4.3447963372437925,3.7698310726725595,2.7812871040305254,-0.13109668553977372,-3.2779801867679907,6.3376364290373886,4.9025418652304324
2.472,-1.378043159557933,4.131845758904433,6.5731803182528665,3.2141376210418002,1.4012882968212352,-3.8440092951759652,7.578463800291843,5.910138548651048
2.476,-2.117632169036824,3.0876734136328423,8.467008679452988,3.2942584916792157,2.1910412458591964,-3.8264806239872087,7.507002179673464,6.74459203552783
2.48,-2.415796307751066,1.4522581112469197,9.040510850792884,3.1359494414276696,1.8536115318095199,-3.236361204852983,5.869972674061501,7.163721770933989
2.484,-2.065986748918135,-0.08094820294252258,8.449468927312296,3.1344002885896316,0.5649237868636874,-2.1120379182834768,3.167172631876383,7.193164797676218
2.488,-1.0459920075685432,-0.6828617894793751,7.276885054007607,3.7397801784824196,-1.0544296011802317,-0.5312575439022567,0.3816913267023665,7.093961095285977
2.492,0.45938253431779685,0.17595380319403375,6.2279117978984,5.180940979460502,-2.2765036184762266,1.374652339872,-1.5045657257123821,7.2170581556645175
2.496,2.1344011578955815,2.4160135919860295,5.823035062099734,7.301743080425354,-2.6244089684551,3.420674807020987,-1.9438371034432294,7.818444193188498
2.5,3.6525897693801426,5.333592117915259,6.214034793756127,9.59393770422139,-2.072365066462112,5.377477054820929,-0.9885819402329616,8.935456260959882
2.504,4.7945515107503525,7.907539918944394,7.204961202922277,11.425853642417337,-0.9870679790381018,7.004837306778427,0.8579998089053333,10.372799524267293
2.508,5.5012965658418125,9.261716902400963,8.398428541735257,12.328392783558911,0.12050322911045441,8.081282703957186,2.9632992384008503,11.795732415736893
2.512,5.8520370985608,9.049161274157314,9.387709734156488,12.191629566563392,0.888709203104213,8.440490026735233,4.861369561979018,12.885858345722454
2.516,5.9960106074864825,7.563830405289082,9.904945529885254,11.274814692244604,1.278798665949239,8.009772948067166,6.359709489474653,13.468612248488853
2.52,6.063197756508885,5.532248066450393,9.859875718477497,10.029691316139065,1.539786390510244,6.842541205342059,7.449437715241402,13.578492277911437
2.524,6.1082594154381695,3.7284486832189714,9.318624807457581,8.867274742550649,2.0159847285349315,5.151418440726957,8.138481681059602,13.430656075650404
2.528,6.094486751578188,2.61487231345518,8.431892744019706,7.988570250442763,2.907987905326081,3.29892860644577,8.34352228070361,13.32204042130661
2.532,5.915271524020454,2.1895594841071215,7.365399436673897,7.35715694953592,4.12841232537744,1.7289556374466883,7.924376763448663,13.504221418476163
2.536,5.451123940140519,2.097775379166819,6.257830687335172,6.807373674847668,5.329285682123782,0.834299256136319,6.822354752631554,14.068980249432343
2.54,4.6287632300397945,1.9029217765809108,5.174310994376583,6.186711892720041,6.063533049593389,0.7864508793220466,5.17170453903509,14.882341768691504
2.544,3.4873187712818208,1.3754978480210411,4.1051020624302055,5.45878376633209,6.012037520343711,1.43024692705103,3.3108751101981397,15.604567244273767
2.548,2.2199480093484,0.6404324015699103,2.9971613280997644,4.7152646602305595,5.165568649685383,2.301724712863688,1.6629656255884129,15.81267493604264
2.552,1.1620578593763184,0.12033776684438635,1.8321471308092896,4.114325794904289,3.8846815166502893,2.798928087983313,0.5662525032632857,15.186308680382808
2.556,0.7151289950413684,0.3306250833234117,0.7295946184274271,3.8028395883436588,2.816076807255513,2.456370122822591,0.17464748138309005,13.675746074767176
2.56,1.1998441451013377,1.6252174447074594,-0.002815307075252349,3.864438085382062,2.6827628010514672,1.1849001075627257,0.4846550954709983,11.581771793266626
2.564,2.699635436614358,4.019045222216732,0.09044212697494913,4.315269372446437,4.026898619192934,-0.6388702494180052,1.4471728036583045,9.474157890002061
2.568,4.95720715247819,7.14936064218341,1.4308064208451015,5.112348235709533,6.9797598324196315,-2.315622025499806,3.0478440304339074,7.960744659503689
2.572,7.392050386552228,10.377038305976384,4.142502113548062,6.146403559695273,11.1363231873313,-3.143389915861917,5.264357188924123,7.393182610073836
2.576,9.27737246415711,12.986968183902945,7.851866136551962,7.231031868146829,15.600713878489842,-2.7591112066056667,7.915775427697781,7.654784597135858
2.58,10.011950143605986,14.399195876496492,11.66794483281592,8.100740549482452,19.212277383220908,-1.3308905281198804,10.522474719331967,8.167687775460308
2.584,9.388853309841124,14.335096317889793,14.440004824913103,8.462685226495068,20.913348822592525,0.5218022860858582,12.328501119868179,8.135294428213456
2.588,7.709576280577835,12.877585206897152,15.19986535951989,8.086655402342103,20.122306494523173,2.028446902349515,12.544700025436214,6.916234610183437
2.592,5.6694677672621765,10.41303849084818,13.603089678879542,6.896278324803916,16.968042336887038,2.6365557859994624,10.732173241688088,4.353634347896332
2.596,4.054261300428152,7.4799048805916755,10.142562610853929,5.009964788605657,12.26831307924499,2.2509707720173537,7.11220594259521,0.8841642156990019
2.6,3.36309747978828,4.561573929157021,5.96741311464848,2.682122468707803,7.230920129527931,1.2044727917309501,2.5803483404424696,-2.636122780133519
2.604,3.5624420217550323,1.9296479049346544,2.398629310641354,0.18607869695711088,3.0071076719063967,0.005041660828737804,-1.6210462214146446,-5.308941330489688
2.608,4.099639289878951,-0.4038231977297073,0.3372929354582084,-2.304749517001028,0.27196024816362296,-0.9959957949922682,-4.446859624294802,-6.583709850109699
2.612,4.178069104128326,-2.6078823939176345,-0.13175536009316602,-4.762160614956201,-0.9770472217860515,-1.80778600271924,-5.530563086532993,-6.464587136304544
2.616,3.1772561166472997,-4.852125926486224,0.283323102520626,-7.239238935697358,-1.3119501011337888,-2.74940639241413,-5.319388655686453,-5.442182680860242
2.62,0.9965586267060189,-7.128897785489244,0.49684422737755085,-9.753139439839288,-1.5270356474800337,-4.185486266501357,-4.778399922163771,-4.207746886703717
2.624,-1.83253949471964,-9.16712995619605,-0.3268505347291466,-12.167371458192747,-2.2094894708870925,-6.1966878408534285,-4.800170898852457,-3.3082789216846322
2.628,-4.340937001214684,-10.497017199130823,-2.2845202062987937,-14.161979573937288,-3.433383770265891,-8.408529025772168,-5.660541944764418,-2.9146060030830085
2.632,-5.525421408447528,-10.642015638797147,-4.630231320382563,-15.313910998218716,-4.71126652240855,-10.09306245901189,-6.835158823549136,-2.809402178726941
2.636,-4.774982159568822,-9.351418876316984,-6.119743770370405,-15.253382240834071,-5.226286613500406,-10.511200699454093,-7.279763386323566,-2.584115755152652
2.64,-2.1362081439807525,-6.756971035709057,-5.638991749131492,-13.821917161466672,-4.224161157976823,-9.319458620753267,-6.036676105907418,-1.896935474514521
2.644,1.7015608320259616,-3.3689754384081425,-2.7789428900209714,-11.151467618871948,-1.3802687016009259,-6.802484629588889,-2.8238547262110387,-0.6574953877302505
2.648,5.668050836480234,0.08313558159102286,1.919812606632604,-7.649333663253174,3.006527194095497,-3.806028490346307,1.7237998349746704,0.9498837536079918
2.652,8.705571239439223,2.8971906669885357,7.183349471908514,-3.8975266556708448,8.080111033660387,-1.3725902431851864,6.309629318441466,2.5974553707333143
2.656,10.131961540643942,4.623810377700238,11.560895270985384,-0.5098382023318209,12.71997163849369,-0.26255853659358763,9.588145806081684,3.995432137925036
2.66,9.833210265010848,5.167776991250548,14.024055333335127,2.0018781661210596,15.931786081886685,-0.6188657168058853,10.791011345907918,5.025224339128727
2.664,8.24569131986209,4.745403197523046,14.343676710101136,3.3364617799322787,17.185254149930188,-1.9266354017736376,10.044780834089579,5.747891850584438
2.668,6.147403276308978,3.734900954434579,13.0625709016565,3.455156629461044,16.558168051569965,-3.2921962346144937,8.21642923256195,6.303767472080835
2.672,4.3521883836085635,2.5048238906415463,11.128715935471746,2.579465754654393,14.647008411159504,-3.8835608268414035,6.398156047731391,6.789789861039935
2.676,3.4088522425015526,1.287681689455212,9.396713482409496,1.1174017912501313,12.27464248755905,-3.3081139633159182,5.3286063281602765,7.176364471060424
2.68,3.3906247511547463,0.12582361847853463,8.226634463499522,-0.4908985696563377,10.10826239952712,-1.7579907266490409,5.042560340940327,7.307116026899621
2.684,3.877630686662087,-1.0907070768344056,7.395428432613244,-1.9343667978771464,8.37381945808761,0.14916789719154622,4.932458925181436,6.982626349145903
2.688,4.143262496926582,-2.5295413452292905,6.312422360929304,-3.1352288009532003,6.794902020846848,1.7174546215269402,4.138492131602561,6.080916363482629
2.692,3.4878507097896545,-4.298249716520331,4.41611715197314,-4.228847213772951,4.803774623791696,2.5242882523070875,2.049253769875122,4.654493919115794
2.696,1.600195017878832,-6.341785686189041,1.5442033549602456,-5.4136624994616795,1.9339741730441347,2.5931502881758206,-1.351644862660578,2.9496142355242227
2.7,-1.2288335179764545,-8.408366839441669,-1.9316682458770629,-6.758334803432263,-1.819411237330769,2.3065842617133967,-5.473262412053373,1.332537969916757
2.704,-4.148178187395388,-10.082962801883696,-5.228626234746116,-8.060205540007246,-5.85171559152991,2.1491215165337962,-9.382599383507568,0.1601096101926487
2.708,-6.073991171403122,-10.905555252443264,-7.489653460838781,-8.872668139668576,-9.130648596312312,2.4125725729077203,-12.192431053127166,-0.3604353861414893
2.712,-6.169061757836516,-10.542005164340253,-8.150776024359402,-8.705848301686729,-10.633859591622468,3.044291034960679,-13.366954724746392,-0.25870447241413785
2.716,-4.250479616781604,-8.939483229821235,-7.162019810703896,-7.300019226932363,-9.835662646662968,3.711122257687748,-12.82441474979396,0.20109813070894234
2.72,-0.9224117169510464,-6.401126278720312,-4.986594875877472,-4.823029094539152,-6.995744716059562,4.01898935105055,-10.856689450115482,0.618775665469002
2.724,2.663100467004142,-3.5211295274339136,-2.3668854830120836,-1.852608988166594,-3.0719940638412027,3.767362142373713,-7.949502340628442,0.6109948722028093
2.728,5.306569112930674,-0.9916567552754714,-0.007508310752655234,0.8590546963541783,0.7004754626316299,3.0795841401663893,-4.628795283603267,-0.036487602885699744
2.732,6.287761478107086,0.6527809828157842,1.685739432457467,2.722718495840354,3.3553389857179354,2.3445572414293565,-1.387537929852897,-1.2859067018948735
2.736,5.659550224753843,1.245668453541839,2.696910551702331,3.5664210594682118,4.580732288755826,2.00381078579494,1.3301392838902757,-2.87542280720254
2.74,4.148611180359694,1.0420500258715037,3.2727268589671894,3.652248152328184,4.744096524957968,2.2991359036523136,3.153128596937222,-4.433709551173706
2.744,2.745632440445206,0.5972855931220238,3.697204756512747,3.4642660370229805,4.578682023908414,3.140837492607716,3.8580867402220065,-5.633973260097264
2.748,2.1980269762801754,0.5042186536575173,4.080091521149598,3.3804794839852548,4.707846363540966,4.146503193401713,3.461282813587559,-6.322331452478011
2.7520000000000002,2.6700401158377645,1.1150769089153982,4.288083521098088,3.432519528666944,5.2841647121338156,4.840905222784386,2.260510609839912,-6.560714905795521
2.7560000000000002,3.7338437572286693,2.3793967224144126,4.056288504712484,3.296607499984475,5.939025594320128,4.900372073325343,0.7630703342874767,-6.5709152740114405
2.7600000000000002,4.647261674168362,3.8607416882241523,3.178330738549903,2.5028047234914084,6.0362718805774875,4.298736495302364,-0.5193717711008503,-6.617765516820327
2.7640000000000002,4.751331820762289,4.930204784996022,1.6773210367582578,0.7437298111594828,5.07053501506698,3.2963568317609315,-1.3149878848030312,-6.89893682529646
2.7680000000000002,3.764763732363008,5.0310260151297825,-0.17389355705040543,-1.911993505178316,2.9542144898427978,2.2749592748473333,-1.7346173743439977,-7.483288755198373
2.7720000000000002,1.8484035690044038,3.904063211400171,-1.9868666927848153,-5.012389734016324,0.04375992726659206,1.5307265801698122,-2.2054015042645005,-8.303522890423665
2.7760000000000002,-0.5394581830496463,1.6923500269724627,-3.460617669402609,-7.903929282664421,-3.073512433164751,1.1469121320978957,-3.1984968835931795,-9.192975321916492
2.7800000000000002,-2.8844522502954533,-1.1254383973846416,-4.549226358603619,-10.00603890753655,-5.89260738161488,0.9985476619322071,-4.902439639456816,-9.936589197033754
2.7840000000000003,-4.800582089446948,-3.9174117624818336,-5.458277832655995,-11.015584745893193,-8.19782628220105,0.8880795345007755,-7.018139469608741,-10.32429672370563
2.7880000000000003,-6.105671387260372,-6.132036316959102,-6.5001192422628264,-10.969827203191016,-10.069062346521832,0.6945216980652731,-8.847858150981438,-10.210505666007975
2.7920000000000003,-6.799767951679769,-7.490099496392759,-7.882711807182432,-10.16406317091787,-11.707752623680562,0.4465644299421001,-9.651153085445458,-9.575446395887866
2.7960000000000003,-7.002275124743392,-8.050520583959951,-9.550751819933794,-8.996519701931902,-13.206931922743479,0.2918498810026904,-9.075211105970766,-8.56533217475544
2.8000000000000003,-6.903521649964887,-8.130839199955517,-11.186168370920313,-7.835469119067511,-14.417233474066506,0.3799530050987414,-7.420724937788464,-7.4691714854288875
2.8040000000000003,-6.71080411592709,-8.107380144540684,-12.33306248995541,-6.927909628788029,-14.967488136617021,0.7575438600488269,-5.53550272601592,-6.6191546714426295
2.8080000000000003,-6.575845993587109,-8.192981207070034,-12.597387447869323,-6.370112091683495,-14.430556402416642,1.3280099695002718,-4.367882331177725,-6.238251205300003
2.8120000000000003,-6.505536490377494,-8.29740808383076,-11.80392400552546,-6.110803676945125,-12.534950997562419,1.9025195342869665,-4.427181179644322,-6.309949722219699
2.816,-6.305144679971818,-8.055839371735146,-10.043502416047659,-5.982952226093175,-9.329582271634536,2.3040148003560716,-5.468000746117696,-6.564067336804328
2.82,-5.637565424640798,-7.047710339570131,-7.634017799575531,-5.782669083599785,-5.246421392705088,2.4357119414867157,-6.631475512599991,-6.618898514332614
2.824,-4.207076613773438,-5.094641928257033,-5.012072679114453,-5.3697264518546035,-1.0321492188895718,2.294555200041941,-6.9799619629068275,-6.228098245639558
2.828,-2.0032072290515544,-2.4777046848632835,-2.629332784482358,-4.757947340208148,2.422345081220783,1.935135189810353,-6.117573183879131,-5.481831056154988
2.832,0.5589102633142602,0.08209860883698639,-0.8578423922176626,-4.123358072336259,4.331504425470484,1.4490493065527517,-4.507344342131546,-4.809272353600591
2.836,2.7443257032616657,1.7208551220977597,0.10140461460059669,-3.6895256969330603,4.294300759285534,0.9956470059942149,-3.240955574603504,-4.7326594849055255
2.84,3.8366775895407272,1.8727732271140667,0.2808668097698046,-3.5445232388779004,2.5016130158730903,0.8470365056268747,-3.3689826954005184,-5.483924907080109
2.844,3.5509728386800816,0.6246227205740524,-0.03389859581369592,-3.495727868592894,-0.2430988163204688,1.3862449302582718,-5.179015726301941,-6.733545870157286
2.848,2.257407077153232,-1.267002601081117,-0.4077999502687817,-3.1132381522477885,-2.7782760471529855,2.981335282541977,-7.905649668914748,-7.654813685406566
2.852,0.8190003060781237,-2.771131904301342,-0.49150824334060417,-2.0066490982926553,-4.082189139570119,5.738033782891762,-10.130975921154459,-7.378127248245619
2.856,0.08547703434715004,-3.2082284956471767,-0.30146986389763697,-0.20594863548626563,-3.820258817721424,9.249016322622765,-10.695339240091243,-5.639267746696532
2.86,0.3029310570841517,-2.7745872857790346,-0.41230186526081525,1.5674032307738344,-2.678391271827877,12.500212484858594,-9.60651196565641,-3.2445546121336974
2.864,0.8158124213200608,-2.6129072833471128,-1.8618260637601907,1.992724578532716,-2.230577684707441,14.088025095625198,-8.331211980106445,-2.002752806826493
2.868,0.30602306934645185,-4.3019804960933925,-5.732082566503777,-0.331221938732142,-4.29306997192225,12.728422954029611,-9.176918326481655,-4.017203790564736
2.872,-2.4862601966220836,-8.967402677173595,-12.528961685336299,-6.132836816983854,-9.99807090656509,7.87997542705898,-14.007539276554326,-10.603538617918957
2.876,-7.927495805379635,-16.466272808836834,-21.651385365481246,-14.852827945574745,-19.02166533519039,0.17765944588427374,-22.964133924140242,-21.371912080765696
2.88,-15.038877110289036,-25.13102765933172,-31.292273875257706,-24.555045319814553,-29.40124317600987,-8.589461478670273,-33.95893383490784,-33.99836921997985
2.884,-21.730600261292807,-32.28227447262293,-38.89626186990631,-32.49677304621946,-38.11351556252646,-16.009695386898102,-43.317073693148814,-44.90988286961783
2.888,-25.673712559147134,-35.32842584596119,-42.06639346678344,-36.17146584673412,-42.22591799650843,-19.91882738369486,-47.33729810916134,-50.64049099647809
2.892,-25.380797734588214,-32.93048141642248,-39.53261694578828,-34.352412200154845,-40.11639365021301,-19.22571749372628,-44.015983841828984,-49.250829360010584
2.896,-20.914068885352663,-25.63121437368943,-31.70987752272299,-27.620210806040973,-32.169995367228694,-14.31726687346736,-34.02677857147728,-41.12548983723286
2.9,-13.852651362683332,-15.629301623726974,-20.582678477095214,-18.115421709548173,-20.61864698022316,-6.859854866945398,-20.43462745779152,-28.75316196883955
2.904,-6.52415145963937,-5.794198004055488,-8.927553720741344,-8.615453904312062,-8.589323475611309,0.9254281212206479,-7.273558341954185,-15.610737221379395
2.908,-0.9290393440811613,1.5640560454120305,0.7393664046633148,-1.394502313734165,1.1692450967746026,7.144202893927513,2.2635527447953336,-4.715763583386206
2.912,2.077557414072203,5.554166572860936,7.009026857012486,2.5959421156180724,7.276668982797105,10.878607005367485,7.087567797471365,2.450148928546696
2.916,2.950594595700977,6.802223526607008,9.867380386273112,3.8749878895620213,9.988731609756428,12.340806262934393,8.332517787520146,6.165866525071351
2.92,2.936495463706251,6.805589983470782,10.340948204809592,3.8970139855930483,10.680129915293264,12.50147379284249,8.349407721301532,7.839752748018327
2.924,3.2345046316266917,6.964179946783588,9.78515297894387,4.170116021914964,10.890109534491444,12.450219053601359,9.218164608309735,8.94240522096402
2.928,4.335305837118767,7.838097618991355,9.203806782300944,5.492449251271978,11.468929434112624,12.820981863910447,11.620870603911612,10.136735772260863
2.932,5.8888919192493745,9.008871419595607,8.931025196914788,7.6641362757845855,12.25911340970913,13.561259384379355,14.663138797858892,11.051199630049723
2.936,7.118135364836462,9.556919065325701,8.766700208758493,9.761793250871051,12.425121094198403,14.115440310449912,16.64944290624976,10.745115170461986
2.94,7.444461545778722,8.794024884146324,8.3585606459161,10.750270746495971,11.167767763819597,13.855161944567044,16.262923101727097,8.521260419189957
2.944,6.926261624594133,6.796635126294291,7.576537562741919,10.098422998357137,8.392725953966305,12.515649819687724,13.447504731999402,4.573704816654754
2.948,6.235450320495772,4.415060741033017,6.626405791266507,8.077325642779329,4.925436473137665,10.382633013935674,9.475011243839276,0.07363874750990362
2.952,6.2147174502057965,2.787750096981199,5.881476589497424,5.629294628803336,2.1579714937936387,8.160885324481796,6.212114026777726,-3.3409101825309335
2.956,7.329351739119261,2.6897851720378867,5.61140142878719,3.9281191525909662,1.347729816735523,6.625380714810831,5.06994432295528,-4.368911044974766
2.96,9.345315136964587,4.091127343219739,5.785772994174522,3.8453519966795966,2.9432311090621397,6.233979907163302,6.248666244990545,-2.692410850356964
2.964,11.443674286411976,6.190260464527398,6.111416457909172,5.589250129770335,6.320335907598064,6.922373148680094,8.700167735109176,0.8804474767048305
2.968,12.679157829519283,7.877384719993245,6.241870678461851,8.643089700836413,10.056735102962875,8.154266308381125,10.780285697628301,4.81952158178467
2.972,12.496027271085438,8.340572343288045,6.007848274046751,12.003601017951382,12.593107236402943,9.18366227539616,11.169493068238125,7.57637242167857
2.976,11.004981822954335,7.469945365805529,5.520706835876126,14.598878345662797,12.942246956262693,9.39694164238199,9.537570147423935,8.216048622703397
2.98,8.865471169393402,5.83881497658399,5.0642998614597445,15.687604110536597,11.087484953358512,8.564090038483073,6.593174635087507,6.688502459890287
2.984,6.892226154675029,4.320415974692025,4.886027135061568,15.107172920820574,7.906157879805107,6.90562360824083,3.5744893197819465,3.664507909513759
2.988,5.626046219313764,3.578348591011263,5.011848888396798,13.27477309420226,4.679248800092637,4.947551375440867,1.5216161338676102,0.10208188189210432
2.992,5.115011741678018,3.7326120849294853,5.221111445280599,10.967630051564583,2.467101719020434,3.2642617793899262,0.7581431490161776,-3.1801024880689965
2.996,5.009654809902088,4.37919007451444,5.203069307991768,8.991376327867442,1.6740524006277155,2.234998760031772,0.8453585052557173,-5.7259752759034654
3.0,4.8659899120974615,4.906877001764485,4.766952732474465,7.870595841468969,1.9919852847268658,1.9142996889745518,0.9628595047928457,-7.405935585098746
3.004,4.452393746681196,4.904869265982029,3.9935209954801394,7.6973752618912386,2.7132576281367733,2.0804201960681894,0.4546713658077124,-8.232038085192244
3.008,3.8673505981827816,4.406626683349657,3.210307394371796,8.178816408669945,3.203977876133308,2.4107393151787164,-0.807716727332604,-8.196810951787256
