Timestamp,O1,Oz,O2,PO3,PO4,TP7,TP8,Fz
0.0,-7.567280135845067e-13,-3.623767952376511e-13,-4.554578936222242e-12,-1.4281908988778014e-12,-1.8047785488306545e-12,4.263256414560601e-13,1.9468870959826745e-12,-2.1032064978498966e-12
0.004,-63.13369920323838,-54.78331659821227,-121.87626097060323,-73.36490313410913,-54.70908065142893,-69.43120929558103,-58.6610845396806,4.448110046384514
0.008,-109.98483808348988,-95.05343780039436,-211.02638174758258,-127.2128035834493,-94.56927536390526,-120.65397860131388,-102.20563902263083,7.770130835725496
0.012,-131.20145606259797,-112.56490138497308,-248.9416769092365,-150.45192077927152,-111.12306183089964,-143.27924950978328,-121.94108644906031,9.24153842647776
0.016,-127.84232228013141,-108.47060052883506,-238.4122100742425,-144.6124613392994,-105.51552162952262,-138.67259199057952,-118.85909241759242,8.758911466138457
0.02,-109.73868862123113,-91.79695599793132,-200.04728922356566,-121.80147988299208,-86.98936613061791,-118.12694681114576,-102.18372664447759,6.760444147529469
0.024,-89.90569743571281,-74.32407661443737,-160.64493655238954,-97.84014518307754,-67.70886697301829,-96.53708604139283,-84.22148147727327,3.939885018431994
0.028,-78.12223310859196,-64.72524710222605,-139.89807842464097,-84.42320993888187,-56.79227425033652,-85.07459844378661,-74.34592801660881,0.9143946339454203
0.032,-77.09917968750523,-65.09625052628508,-142.52842084635185,-84.48599255987662,-56.71528308860783,-86.73873737235934,-75.28587428070517,-1.966803043854057
0.036000000000000004,-82.92010017520737,-71.43762917287998,-159.37015819696433,-92.84218952705956,-63.68075118887464,-96.76150193707585,-83.36124224164337,-4.596291410248739
0.04,-88.81528701082755,-77.24561029863129,-175.48049199830325,-100.93810625462609,-71.14982210935999,-106.91162866308309,-91.91075319460823,-6.955687334596064
0.044,-89.68744592348293,-77.80771728151274,-179.82427115501696,-102.5004936235722,-74.12794508869175,-110.79694180796712,-95.59860597035967,-8.954654287042182
0.048,-84.71604800698762,-72.67784818229624,-170.85095107326077,-96.7543170081577,-71.69994628582691,-107.0752347170546,-93.08773982748411,-10.402542574529576
0.052000000000000005,-76.975203819255,-65.25407062325323,-155.60148659479387,-87.84498202737413,-66.73816749328797,-99.20674776317061,-86.95979047078065,-11.114798886156215
0.056,-70.90219407157457,-60.19657431877534,-144.03905783069357,-81.50258059269645,-63.48164493358121,-92.54689601697198,-81.47681580453241,-11.050079238583265
0.06,-69.44170181612427,-60.46703375143448,-142.59406976283117,-81.3088093084943,-64.72208332096298,-90.8592881127476,-79.79549657660962,-10.382380420712927
0.064,-72.62598186930192,-65.78871153136107,-150.86654968682893,-86.85897309138467,-70.3197808459993,-94.36987193733958,-82.33188893559947,-9.436041646336562
0.068,-78.12521207784766,-73.19106453976677,-162.86095939205904,-94.57544571920019,-77.67387287866194,-100.19554798929784,-86.96477849857055,-8.529083383138236
0.07200000000000001,-83.10266212567791,-79.06518484275074,-171.3974776432138,-100.32121883119424,-83.593081248233,-104.54847961418294,-90.67071481541622,-7.817388125482864
0.076,-86.03406531424399,-81.3451882736623,-172.6484696763423,-101.99743276515767,-86.26071982782192,-105.16176948086726,-91.42301120663812,-7.234522195499245
0.08,-87.30054949393696,-80.45575441045665,-167.90861387791756,-100.46601932133163,-86.04092944945428,-102.38360438223734,-89.14561112634973,-6.581352467371062
0.084,-88.39949989243965,-78.6345427466612,-161.91518511492723,-98.46563238103234,-84.80488636746409,-98.48474625795888,-85.34531572241448,-5.690498225684365
0.088,-90.50825750085076,-78.22806836146907,-159.19948096020366,-98.45890573147793,-84.39796627128689,-95.85988206327544,-81.86418552102731,-4.574439813395934
0.092,-93.54236318475206,-80.18382801465816,-161.1535927364677,-101.00206573827991,-85.39241292847737,-95.48267771215372,-79.73832566819226,-3.456894711832007
0.096,-96.34531885722433,-83.66798838136798,-165.6569322412543,-104.67390185728533,-86.91749327925021,-96.61309975113302,-78.89691016187572,-2.6696986851978295
0.1,-97.64526414731782,-86.79705198792354,-168.9871277319556,-107.30376646353042,-87.45121647554438,-97.66762454398959,-78.6233677630184,-2.4957929006432877
0.10400000000000001,-96.97399755606244,-87.85252631975868,-168.41638105896686,-107.48711687082263,-85.89270835499259,-97.46951816178958,-78.26873664165666,-3.0315864071134797
0.108,-94.83325687497015,-86.13920463063303,-163.63811729337417,-105.29625082293177,-82.14963094475743,-95.9466777871404,-77.62435608608733,-4.161950315688088
0.112,-92.12482496814559,-82.10931327084859,-156.42513980176906,-101.89132003442867,-77.00868858857689,-93.95646776354488,-76.82168495091602,-5.638660353536743
0.116,-89.40642104653274,-76.892911934095,-149.17098299822607,-98.53134486663014,-71.56561814936799,-92.54647483874375,-76.01490630473772,-7.191054351841437
0.12,-86.4983457662963,-71.5993330839548,-143.36188422351248,-95.69025837757646,-66.62692641270456,-92.17364895235926,-75.11693825439878,-8.610016560102608
0.124,-82.7397229713074,-66.85035148410267,-138.98561316903053,-92.87849527270679,-62.46345620719373,-92.42105597456059,-73.82195604374513,-9.759888498651009
0.128,-77.62720040875351,-62.69906191032908,-134.99237823003102,-89.1620311489231,-58.94070053829942,-92.2968950030396,-71.82658658239832,-10.546674320362683
0.132,-71.38955898595142,-58.89473679366486,-130.37227646677988,-83.99311501357376,-55.85686143826821,-90.90835394434669,-69.08661967410855,-10.863628525769322
0.136,-65.11147485959694,-55.269750734058746,-125.09796968038901,-77.80025417378252,-53.232546861797914,-88.09470484129999,-65.93843266464432,-10.566707585593392
0.14,-60.22751182228407,-51.92256097913277,-120.18674384443315,-71.87660566119669,-51.307079784777926,-84.55845555569826,-62.92854108793135,-9.533474445297955
0.14400000000000002,-57.7289294459494,-49.13960789845797,-116.95255039591092,-67.67454298150051,-50.299346841118165,-81.44316725224387,-60.48696700568926,-7.757615166698713
0.148,-57.577830363171856,-47.15535618528325,-116.00558589215615,-65.9643049845971,-50.14931404928774,-79.6257371087789,-58.66167213432044,-5.438179720005962
0.152,-58.76755396967297,-46.00690333296359,-116.84522413555726,-66.46762993634911,-50.510143541235905,-79.2351311099728,-57.16307733503325,-2.98678753842087
0.156,-60.0152907802144,-45.61203238781762,-118.36063889096187,-68.19834885841254,-51.02106550402694,-79.70423825237899,-55.71870663988532,-0.9082269933368501
0.16,-60.53172024765108,-45.89850270197195,-119.65655570293501,-70.13361932961978,-51.571038039565536,-80.17696454415645,-54.37994051198688,0.38826322068174335
0.164,-60.367800687741706,-46.84327382934045,-120.56946121386302,-71.73572457409308,-52.31574322209173,-79.96891182255887,-53.53762835260163,0.7797567387355073
0.168,-60.125552668678246,-48.350325055417485,-121.47079535775566,-72.98591896922323,-53.4010095668721,-78.78676280151396,-53.581205227998005,0.5101636284595621
0.17200000000000001,-60.36386330278524,-50.144849409619894,-122.70984553058267,-74.08588553561017,-54.683734833554865,-76.72722145013613,-54.51219183995097,0.10393328804489244
0.176,-61.195426151440486,-51.84784176753841,-124.26014916893114,-75.17414180814899,-55.7356463332429,-74.18661398767955,-55.84606318215501,0.1342882753312047
0.18,-62.253957233383346,-53.1489645933452,-125.70031687763532,-76.19900324443138,-56.10930608670957,-71.68398648498219,-56.82117976877461,0.9230715074453428
0.184,-63.00239669705365,-53.96153162892801,-126.4927796358678,-76.99334964737781,-55.67271692278825,-69.66079510186688,-56.78743589479461,2.340006814640624
0.188,-63.08527242683618,-54.411218257289136,-126.25196833805971,-77.41326861625987,-54.73901631190185,-68.29331690363568,-55.51919507350918,3.794691166319879
0.192,-62.53492530945461,-54.706738591895515,-124.92305813578292,-77.47725442008456,-53.9217252888417,-67.46786651736593,-53.33918239413323,4.474635641209147
0.196,-61.74842542542688,-55.015144189664625,-122.85422899116062,-77.44393032481162,-53.81289824040849,-66.9664071390137,-51.02217840385149,3.7426277785220883
0.2,-61.196326552761654,-55.356185340904275,-120.5885681738266,-77.67983685478308,-54.60639765237336,-66.66144502946419,-49.453716449681444,1.4886303021726555
0.20400000000000001,-61.07827408851672,-55.58751197958013,-118.52866668737359,-78.39560705621761,-55.90152095500182,-66.59682391108102,-49.21589403008514,-1.7281851994196167
0.20800000000000002,-61.12597485786881,-55.45522827129375,-116.62935668620457,-79.38521378689471,-56.80821384436752,-66.87637589037871,-50.271506625006275,-4.86457206051583
0.212,-60.7369286675475,-54.7155874918318,-114.42570051936957,-79.99428004757007,-56.36171238407193,-67.49283160645949,-51.94885088831639,-6.826874982673225
0.216,-59.38529208950344,-53.27563552738891,-111.44629433293505,-79.40253379365078,-54.05459654067171,-68.25066648903794,-53.26559089706952,-6.9225350818887605
0.22,-56.96245081776961,-51.20043179594056,-107.58852410637314,-77.0016911704027,-50.12570331114008,-68.76479009145754,-53.35536115226522,-5.14336137702165
0.224,-53.845640137372285,-48.61311760353189,-103.23539905890402,-72.68862004646599,-45.44990409857146,-68.56421052005786,-51.807210868108406,-2.1251245448674023
0.228,-50.671459885998985,-45.592640050951275,-99.07292526659191,-66.95598340749788,-41.121262449138385,-67.27918297679423,-48.78672929283412,1.1755359773882468
0.232,-48.0113738380755,-42.205674051091485,-95.8188596994879,-60.804391649188304,-38.018528429440046,-64.8656307644582,-44.9607302055601,3.9135439873947657
0.23600000000000002,-46.13814903284172,-38.64491239133084,-93.9639859264091,-55.46504405168907,-36.55295746251305,-61.701314521490374,-41.24893935653522,5.68900994721532
0.24,-44.99504184646453,-35.34599457393325,-93.6126213877177,-52.00741341952226,-36.67945843100014,-58.461217385146924,-38.49304728670879,6.614899611903083
0.244,-44.42073612991946,-33.009877027406574,-94.60763141418701,-51.03683091423528,-38.14126055125398,-55.89299082961992,-37.23799691457394,7.139433277443089
0.248,-44.3761261793879,-32.374325120492514,-96.66846116088408,-52.47892747805494,-40.66623861307388,-54.51570313682926,-37.61077959069421,7.752608121935384
0.252,-44.95613090676727,-33.77922241831737,-99.35494636596786,-55.49411209677292,-43.93489668832474,-54.3508747514447,-39.27746479195462,8.743011730349128
0.256,-46.21641875233014,-36.81161889596854,-101.98659103001211,-58.65636096455423,-47.41303937302315,-54.88378994621358,-41.536067434856925,10.120777291962371
0.26,-47.975494599102014,-40.315665932217534,-103.71137583718874,-60.429812385036335,-50.26985623065136,-55.324961630617494,-43.548450580619374,11.706010176696235
0.264,-49.801737814822765,-42.86697180511047,-103.84505986522751,-59.830916896077994,-51.56871742317854,-55.082580739108,-44.673006752127655,13.280228013925523
0.268,-51.165157358315994,-43.43839062130481,-102.18688960481168,-56.89450343904261,-50.63665459899886,-54.100107145088,-44.688371859119414,14.680647151177554
0.272,-51.63951867123605,-41.863803726315666,-99.03780874882497,-52.63708218813426,-47.38042268039838,-52.81547562293302,-43.76781229105269,15.791497580364661
0.276,-51.08515059097826,-38.882043286893044,-94.97319245820786,-48.56171580333215,-42.39214823098463,-51.816386167915105,-42.27908040095264,16.46806659191095
0.28,-49.746773812995094,-35.77001824997648,-90.57463877355767,-45.98590817422349,-36.79010874243262,-51.46027583062616,-40.581524640286204,16.48372880793942
0.28400000000000003,-48.236502599263865,-33.79113529565288,-86.34931699470252,-45.56149323743543,-31.879749392467495,-51.74296064794663,-38.97649085198503,15.57374335422339
0.28800000000000003,-47.30200413077346,-33.66890803650509,-82.70630183074663,-47.10977441078269,-28.712006417695434,-52.39078630248062,-37.7453206690969,13.556289073352934
0.292,-47.428805772055,-35.2955655434572,-79.8731629047126,-49.7586107674866,-27.700823867379498,-53.0430945416635,-37.159157214200405,10.457264624126871
0.296,-48.51528453203596,-37.820152362572706,-77.83415678479005,-52.318754302613584,-28.50338081957422,-53.42398506074987,-37.43425867817595,6.57000933015151
0.3,-49.837333811843536,-40.07018223781654,-76.3808596029311,-53.750034782504024,-30.244385810977672,-53.43310464364667,-38.67073246986563,2.403515676078945
0.304,-50.38254339624793,-41.10431701901908,-75.31662075523624,-53.54318787645875,-31.98171247456553,-53.15985024238796,-40.819582107308634,-1.4348368409409926
0.308,-49.331825775411986,-40.5638925918627,-74.56901773214858,-51.79410202141064,-33.10924823084233,-52.758597693399196,-43.634037539406194,-4.369838073161188
0.312,-46.415082997401576,-38.65897278038538,-74.09148651256967,-48.960937378259594,-33.48918775079918,-52.24735104009102,-46.61850033032283,-5.966165767645205
0.316,-42.027720184552635,-35.91676616126338,-73.72693720265104,-45.544993549419694,-33.34148307816173,-51.42190493093227,-49.08186162938882,-5.995764521357449
0.32,-37.11176347452849,-32.92519744904428,-73.23233799605234,-41.94941112737849,-33.05476685164041,-49.98782275248216,-50.3494815930033,-4.484627111572802
0.324,-32.89124146575742,-30.242920136033415,-72.54840300704822,-38.59894024220445,-33.07516823722461,-47.86891312590033,-50.078637361031795,-1.7408467200265827
0.328,-30.4859505912607,-28.400581609306183,-71.99448850130146,-36.08155156507594,-33.82600752480499,-45.39882391806579,-48.439561867676666,1.6521596723350402
0.332,-30.494683050433142,-27.85073581430335,-72.12769198715748,-35.06681361525409,-35.57306685670669,-43.19915542248643,-46.00780544277791,4.914496030154975
0.336,-32.74002899950243,-28.82293178660073,-73.358835866288,-35.99723250040535,-38.252684076345496,-41.82795833189883,-43.44203988553641,7.262206143961503
0.34,-36.31829566988078,-31.1551890070626,-75.58593159189195,-38.747073472424404,-41.352825445383985,-41.435998241776595,-41.149156347650916,8.178568682424018
0.34400000000000003,-39.98352040972877,-34.25411336727405,-78.15035086023819,-42.52793595702239,-43.97688206297759,-41.69497699354552,-39.1545883102515,7.658477531919209
0.34800000000000003,-42.63754080270623,-37.21480455851032,-80.05716601533672,-46.09997984270549,-45.0761518549519,-41.9901844961658,-37.187335794353146,6.272208410257368
0.352,-43.674891862603374,-39.07175164994243,-80.29375494700972,-48.20141143237155,-43.77459450907201,-41.73034579003536,-34.89141003797158,4.962922864575978
0.356,-43.08188514109601,-39.12421559845692,-78.1745862854847,-48.050367924253635,-39.70853552686299,-40.631491335452765,-32.06005215093759,4.643814303400834
0.36,-41.304516190279884,-37.20744386390139,-73.61362547163196,-45.69715078491619,-33.25425051495269,-38.84489948508097,-28.79073914209138,5.77004364095156
0.364,-39.010684039751226,-33.79905881064221,-67.27537692007989,-42.068141366558656,-25.53684542492578,-36.906523375302214,-25.511355533178516,8.107753978349015
0.368,-36.79681402828696,-29.83686288963303,-60.39087015994774,-38.57267936477098,-18.11268232984209,-35.46733599344189,-22.80685380050374,10.829040632817975
0.372,-34.920280102709,-26.29254038874737,-54.238316224593,-36.40609513475418,-12.40189318486848,-34.90838942214097,-21.103596579052933,12.890892499954004
0.376,-33.21451696008455,-23.75922956229049,-49.61374725744196,-35.94412496303294,-9.165377474843174,-35.10695189087522,-20.431692121740156,13.50941369381113
0.38,-31.251376965835057,-22.295353713355333,-46.609122066724865,-36.5897418012815,-8.313554819890586,-35.512714788191225,-20.43085722944678,12.484041017809101
0.384,-28.69119848801941,-21.607696585389405,-44.85965401839412,-37.18762734979133,-9.156692454050562,-35.52082046472995,-20.623600961617655,10.232416993892599
0.388,-25.560749458383935,-21.36690076512612,-43.943170165956154,-36.69568421987663,-10.870709596402477,-34.847003772630416,-20.739949688463696,7.536762494119683
0.392,-22.261157368749704,-21.402154509695674,-43.591420464212185,-34.69844968206202,-12.871397340997575,-33.64061202468096,-20.84862586633438,5.159449705429745
0.396,-19.34027258435848,-21.680789457957143,-43.66555335680012,-31.538491792102032,-14.928123772268378,-32.31351637405953,-21.24449350945232,3.5444368672808064
0.4,-17.20055845542069,-22.140967132157428,-44.013927624810506,-28.06888876678333,-17.029490101602406,-31.237306676067604,-22.189444466738124,2.7401756988057606
0.404,-15.960909760792106,-22.57899991225805,-44.45250489903336,-25.253289419602336,-19.17472204508251,-30.559240913433733,-23.708817699272878,2.5459532785812256
0.40800000000000003,-15.48652706491907,-22.666878904884364,-44.819654610643155,-23.76913365968243,-21.209842353605016,-30.179997636945217,-25.530802789664847,2.7403032976621207
0.41200000000000003,-15.511691629164762,-22.09142295460856,-45.01616411986835,-23.747978334073508,-22.803453116349342,-29.851321160444137,-27.169005283057913,3.2286551404101496
0.41600000000000004,-15.795678081681285,-20.761256003760664,-45.04284493107389,-24.76869673273645,-23.59436703308006,-29.3401872720954,-28.140575063148724,4.034783870586293
0.42,-16.23610583533406,-18.950808455510042,-45.01599537264224,-26.08456807633182,-23.41966999327964,-28.570583203005235,-28.215824555873695,5.163149196257699
0.424,-16.909840113988935,-17.290405517881556,-45.19306720096393,-26.986836579898046,-22.499372368416026,-27.703807850948678,-27.59147711582873,6.469010165094202
0.428,-17.971866538687046,-16.522654600749846,-45.85293973337677,-27.07430754435976,-21.3886795880692,-27.059906426495633,-26.831322007526246,7.641654609360102
0.432,-19.456598533752995,-17.106634909575458,-47.01386790485764,-26.303122305641494,-20.66694586307676,-26.90454454706629,-26.554304103378307,8.324945375278187
0.436,-21.146694638658552,-18.92564920405721,-48.236340354736264,-24.893103728387207,-20.569215512274347,-27.272563800529177,-27.057882506742267,8.307671720963707
0.44,-22.62016904195526,-21.288580359944845,-48.6964192991573,-23.206118934596834,-20.79685284052014,-27.955080724092685,-28.10098133621459,7.662273187206235
0.444,-23.49873653369019,-23.26864354620636,-47.6101847957587,-21.704522079107793,-20.664665762736416,-28.6937521755087,-29.011523953239774,6.745338135108864
0.448,-23.697334951935808,-24.151537141479224,-44.68640969687937,-20.883850415411157,-19.468738514036247,-29.37670579019936,-29.010103803037772,6.044789385832855
0.452,-23.47736428595454,-23.71065278093555,-40.27589846141181,-21.08968988794253,-16.83661246127193,-30.053961380164473,-27.548133231981488,5.952835563299857
0.456,-23.283823508805007,-22.195034270899846,-35.18224449065069,-22.301084067267954,-12.898157639709627,-30.790773433049665,-24.525275669684998,6.599455176412537
0.46,-23.475997988120604,-20.09623002256952,-30.283454024664206,-24.02384781467127,-8.228822639229794,-31.483831028068117,-20.32464685736451,7.816425299169713
0.464,-24.152278563974292,-17.897378438811664,-26.259821133262527,-25.449723657815312,-3.6545228044790394,-31.827985477689946,-15.717949652536866,9.23104548193006
0.468,-25.114893483166377,-15.912022054682739,-23.461483780558574,-25.799042478406392,0.01801413997371526,-31.431338082714884,-11.640978936861273,10.414846762205034
0.47200000000000003,-25.957138726391868,-14.256315751575007,-21.888534352700916,-24.675637271196308,2.240291726904041,-30.000400119729477,-8.903884474539709,10.990433874195304
0.47600000000000003,-26.257793645411514,-12.951917591059113,-21.303181542561298,-22.281191200999732,2.8150395116888243,-27.52515155706063,-7.971706863433092,10.671755934042297
0.48,-25.79676242145903,-12.062777893737655,-21.41731572468622,-19.3827072492966,1.8267697731722334,-24.3690921747247,-8.895840273844426,9.258139810435935
0.484,-24.716232528502225,-11.777313445593723,-22.11764424816986,-17.06038975080916,-0.5398717090394776,-21.240194988564397,-11.412775248950497,6.650883076940165
0.488,-23.49384401331411,-12.335996740424267,-23.51200610507995,-16.271057553372124,-4.118546381679733,-18.976976736495516,-15.082714775365282,2.932100574023799
0.492,-22.69769235137087,-13.81991403281629,-25.709561537792077,-17.38783199509177,-8.70633317264039,-18.19439536352877,-19.35311957269196,-1.5301484592339838
0.496,-22.67436072749851,-15.97343417276521,-28.536408935340482,-19.984686947816634,-13.916442852033946,-18.989649935212285,-23.58719444667112,-6.043190797327979
0.5,-23.348207386041707,-18.208883806618704,-31.415483725615275,-23.001718134908685,-19.088694719102108,-20.871112889444664,-27.11722283437585,-9.698707020558498
0.504,-24.275233295460257,-19.852876517338416,-33.58999934453718,-25.262772913215017,-23.41172488724751,-23.002376733248262,-29.391427483570794,-11.646071324296953
0.508,-24.876115773222896,-20.46546191867612,-34.49493474343912,-26.02926701718367,-26.199259416820354,-24.583788116860298,-30.143053757520097,-11.444377202178911
0.512,-24.697241507404808,-20.022640086917185,-34.00603713384753,-25.268498411651585,-27.167617115321015,-25.152876276190618,-29.477433390233944,-9.322686616689564
0.516,-23.593702261124747,-18.870419376826373,-32.466068577260145,-23.535683336519874,-26.567418337854498,-24.69538255770874,-27.8245809504794,-6.176635556956327
0.52,-21.765177032543292,-17.482257157318514,-30.48759144849089,-21.57753498711381,-25.07329432800028,-23.543683506247667,-25.76807029207186,-3.2556484773368046
0.524,-19.681536906496326,-16.199489582567402,-28.712201199037313,-19.944375253171856,-23.48605167162141,-22.191713604539554,-23.850512179278823,-1.643240798022088
0.528,-17.893149188599644,-15.073349663985864,-27.55492641586518,-18.774070858203803,-22.337007964274115,-21.074293845462115,-22.393140683346488,-1.7807346690871793
0.532,-16.77777613837713,-13.86586239257755,-26.980458485261465,-17.807457111386608,-21.56533518762163,-20.37646647209707,-21.383545790330274,-3.2811124372494076
0.536,-16.376809826161907,-12.23114012556439,-26.47291232985262,-16.626017867370894,-20.491052798436595,-19.986745947511203,-20.506980378970738,-5.133237107582066
0.54,-16.409923779343067,-9.986531817718301,-25.25111932005409,-14.969873289748136,-18.15132314836238,-19.61156009136092,-19.329205785226662,-6.218133170891838
0.544,-16.489720995999793,-7.338624995292784,-22.716512398476322,-12.985364039540778,-13.888961812544037,-19.022080394943902,-17.569134188329397,-5.866596401292762
0.548,-16.368307727448265,-4.8757403145686675,-18.82067900911592,-11.200417827640944,-7.8417545818421175,-18.228591975975082,-15.261258275465975,-4.1630904307391505
0.552,-16.0343186125046,-3.2785404671264033,-14.096445193906197,-10.202697038597067,-1.0224927255703768,-17.441979914178987,-12.686368246399262,-1.8470548824589899
0.556,-15.640334371392157,-2.9193298543463166,-9.392887019341657,-10.236382687588172,5.0622748356233975,-16.871827375270904,-10.151538984244173,0.12391420081422444
0.56,-15.334091691983136,-3.5981363157870714,-5.489980228196151,-10.984425579692912,9.052242353307324,-16.51177261058576,-7.785662582919977,1.0794752866776285
0.5640000000000001,-15.157147447640675,-4.621660033922552,-2.882897553398064,-11.732002374535497,10.26200334430135,-16.113641842866315,-5.551833850531565,0.9241461821869119
0.5680000000000001,-15.063771817239541,-5.19328444686548,-1.7764301043200577,-11.80696771160941,8.837109702550176,-15.368579841692664,-3.466076660966052,0.026715182256207504
0.5720000000000001,-15.0313392693915,-4.90531214879374,-2.2043649916425303,-11.030079950844465,5.492470240280072,-14.179766841289695,-1.872623932227933,-1.2207912957509344
0.5760000000000001,-15.200246880134749,-4.0745380951248915,-4.195830037272206,-9.931569875512363,0.9944525455076283,-12.878810633102894,-1.5808225682702397,-2.869908268620427
0.58,-15.922649552069783,-3.702163869881807,-7.85394489364597,-9.580940932078468,-4.2881349008603635,-12.223334114266866,-3.702935654155281,-5.580842825939184
0.584,-17.66814698890062,-5.049407153715096,-13.330022019651876,-11.113551588118947,-10.501343399221506,-13.147117878539333,-9.206514164784679,-10.310261093896592
0.588,-20.753762525354915,-8.967657780794525,-20.60173332819076,-15.121086107103473,-17.978969525452985,-16.294740747710243,-18.31038525650468,-17.6498266368386
0.592,-24.996835621077206,-15.28071030148648,-29.114825731487407,-21.173174986226474,-26.637420350676976,-21.526582619018406,-30.005554017622174,-27.173228637053352
0.596,-29.531084662709112,-22.577151876670857,-37.57739861390803,-27.761914238500623,-35.50614042893328,-27.70719130884914,-42.03270456083206,-37.19475446886475
0.6,-32.95681217960862,-28.583690587306027,-44.12282383567846,-32.753894086094036,-42.7484200480099,-32.960747563505215,-51.4405682917199,-45.155148256231996
0.604,-33.86665795873666,-31.036775811917387,-46.938242910325485,-34.230943625800386,-46.28295281427562,-35.38728550641434,-55.58573253414937,-48.51074663457348
0.608,-31.47935476346784,-28.632238165326953,-45.0256054256743,-31.294997232108262,-44.687509666560985,-33.88112379483539,-53.13504487452232,-45.74281834184012
0.612,-26.029789541434383,-21.580013300010048,-38.66477501720136,-24.426868867321062,-37.88996333878157,-28.619123658057628,-44.57583451085992,-37.01634563465234
0.616,-18.729366144719368,-11.529211386206711,-29.365120952226846,-15.269285809446655,-27.291366291380697,-20.99729218372067,-32.00128483120621,-24.16446404224039
0.62,-11.295130490572996,-0.903060330244151,-19.301653857754506,-5.944992291329727,-15.235169844409716,-13.04073068714866,-18.29197411604152,-10.013129656948186
0.624,-5.308722017855013,8.000508092993632,-10.565027808795321,1.7131731590339268,-4.124691659775224,-6.61866892897015,-6.110054015875242,2.6368002721500163
0.628,-1.6766733042391602,13.758416011281389,-4.490933937562736,6.712345196503623,4.403458409706582,-2.794950525260807,2.891019112376666,11.899706997477313
0.632,-0.407988084244562,16.142174801822833,-1.2978504696388504,9.051701829124264,9.897695069752126,-1.5662010189632745,8.361866041267431,17.19533649405312
0.636,-0.7877246949659127,15.929420873334214,-0.19842572224022148,9.460970780182272,12.951045933865565,-2.0691856264902775,10.998300560035426,19.071352936907267
0.64,-1.811133765264504,14.379609580218306,0.10442340108158454,8.91294236952079,14.65239812397818,-3.099073579179437,11.949035420583664,18.64098547442017
0.644,-2.676098303040587,12.633185510178002,0.7201416651209918,8.133509143034454,15.923823711079965,-3.6959919541863586,12.193583226401987,16.980060267389433
0.648,-3.0622938434133107,11.339461358516342,2.0711968325128716,7.367563707706058,17.110772757987693,-3.4926031250002496,12.193919626852693,14.772969949479474
0.652,-3.0740116516548373,10.634298400109445,3.849461217277854,6.485692880907546,17.99305646565302,-2.6884910357805727,11.941565904244948,12.298897206338683
0.656,-2.9717453272526955,10.347977812919105,5.344955168515584,5.283143652978936,18.101516720136548,-1.7744636088513612,11.248344787823932,9.64597913461466
0.66,-2.8915263503866715,10.257875471131676,5.9284146860900115,3.7588901487003437,17.105049413595683,-1.1980142193743042,10.05027141575787,6.952232015717115
0.664,-2.760417934064888,10.192799178222817,5.347693093857227,2.16799956282415,15.010395558615123,-1.1944672350702277,8.504994602065771,4.499937848489765
0.668,-2.4082837942553343,9.999582170759268,3.764668155124461,0.8812998482812269,12.13291964792801,-1.786130476432346,6.884772069277549,2.6164950342705495
0.672,-1.7300074225540323,9.498466444580309,1.6256058477513537,0.20258100583048133,8.946181311653902,-2.8432009166245633,5.410843702576301,1.4831828931745434
0.676,-0.78044685607383,8.510273228832958,-0.550235700136195,0.24934460394298075,5.919035245059558,-4.134201334566444,4.154431250294101,1.0132938911584635
0.68,0.26574494628565337,6.972697763813784,-2.3420340223812675,0.9580785181590414,3.4190749797015414,-5.33625022997133,3.053258072592353,0.8930890569863621
0.684,1.2054585625427026,5.02324420759876,-3.583972228788637,2.129197317242658,1.6363105863756608,-6.093831380417058,1.974749544717578,0.7592032537964288
0.6880000000000001,1.9015731887721854,2.9866641914835514,-4.404641102017155,3.482639842435049,0.534152182228036,-6.123089828020602,0.7938728247458879,0.39466181226207553
0.6920000000000001,2.344017980022619,1.2681339762711437,-5.091865594188404,4.724950155714717,-0.1296450460188332,-5.314106217897913,-0.5403339447318549,-0.1671826235983387
0.6960000000000001,2.61975526494591,0.17768672482149306,-5.895347620884426,5.591805166947472,-0.7196423579199678,-3.8119471600008588,-1.985180390628848,-0.6879383209282075
0.7000000000000001,2.8418131097292294,-0.20214778221060747,-6.8371962091715766,5.897625106146565,-1.5566340767564455,-1.9958898949124428,-3.403535799553282,-0.8876743040617541
0.704,3.058651996791077,-0.04953057536861305,-7.685766363179754,5.567783225376685,-2.7392566253209853,-0.3768173223901661,-4.587138713951884,-0.6121506078861341
0.708,3.2244140523179428,0.3088166192245625,-8.053011056255926,4.681813097585364,-4.015038180595198,0.5905109791924028,-5.279028294852214,0.08939032394613378
0.712,3.25857264227224,0.5971031447693802,-7.528894812330352,3.5103787873942007,-4.783882402557161,0.7072259357593973,-5.197998908009568,1.0009151805043324
0.716,3.1194327883699984,0.7390796922870133,-5.840584654571115,2.4647772774707977,-4.304605702057703,0.11234329804843135,-4.106190868899475,1.862108688127714
0.72,2.833363871700386,0.8608851778962648,-2.9769981303384103,1.9419533927797898,-2.050901717623698,-0.7928936569196172,-1.9205423981377745,2.480786031318276
0.724,2.4287030616118566,1.130644071868303,0.7059725372637464,2.0932164475914177,1.9287901234134681,-1.5739837082227512,1.1565135978193348,2.7881776031069805
0.728,1.85911970298761,1.5739069198000493,4.5151429642236875,2.6856689680194057,6.889718932637012,-1.984274306844528,4.604314901766555,2.823090899716746
0.732,1.0198807177017004,2.02532095499115,7.655333347019166,3.195630864909608,11.638092301632156,-2.025884162161885,7.7309247813979285,2.6681495884511586
0.736,-0.14445015706780784,2.244491845883308,9.548250365985787,3.105125465518441,15.03727554361708,-1.8471347644524712,9.9382256493115,2.3942964483291402
0.74,-1.497787775093641,2.1236269009298767,10.087459826313246,2.255442518323391,16.512659365517532,-1.5585390207866556,10.966252265356275,2.0335804690547903
0.744,-2.690521130818011,1.7998416795490257,9.612813155089253,0.9926052005262234,16.235200029123092,-1.1565540611379266,10.936658358679143,1.577901180020333
0.748,-3.2862024700555197,1.5920666284765366,8.65778335365168,0.011847580738133301,14.891858351972228,-0.5870109218078801,10.190606564467469,0.980424895454354
0.752,-2.9756340855521612,1.8039712315172471,7.644906440710507,-0.015763106628261303,13.193780581074359,0.12861450607623848,9.04391819294803,0.1540780046033129
0.756,-1.7748331706883151,2.5092254442582185,6.672068507044646,1.1562754446579953,11.413221769007668,0.8010263171167011,7.605658614882293,-1.0148444892914446
0.76,-0.07780387048671522,3.4661463267002643,5.519162492514293,3.160970438199942,9.23797964990514,1.1154389298738019,5.784039684913775,-2.6297952339545967
0.764,1.4522556475603086,4.200819468254073,3.792886165996049,5.126809449254422,5.997393068812562,0.7685412093977961,3.4398517472083774,-4.7118890789443615
0.768,2.15241948424861,4.252164005346878,1.1750436670350335,6.076948887502789,1.1512864737697188,-0.35008557106003124,0.6061879413545912,-7.116657823872096
0.772,1.6741897299506268,3.4403446695491886,-2.3333983419908573,5.425581586953793,-5.245913935210849,-2.033722072596725,-2.369907879454713,-9.510038287082018
0.776,0.15760685737675306,1.9754395596671375,-6.340857500454815,3.2766188057458834,-12.404597740913712,-3.805440232623722,-4.905561821156343,-11.446027977262576
0.78,-1.8175707425590106,0.35413302182674933,-10.17776539421357,0.3683875393821907,-19.064378670101185,-5.109121368418238,-6.444402454647909,-12.537050972868567
0.784,-3.5217300642038314,-0.9262968463666694,-13.19509251097119,-2.347380795564032,-24.04413852359565,-5.582237313816373,-6.782775653470697,-12.63628724158649
0.788,-4.428138727447262,-1.6380094013438615,-15.036253222582445,-4.21322340517901,-26.732073740217455,-5.225183348332829,-6.228453109114954,-11.921016503459654
0.792,-4.418599765250435,-1.8944765190815471,-15.69751610167146,-5.14040679090185,-27.228150787473208,-4.351251153802145,-5.446707640820615,-10.81432209476429
0.796,-3.7721591097114358,-2.0098866037243885,-15.405565317586547,-5.529250983651481,-26.107862974072496,-3.376904071842542,-5.079315404733889,-9.76510721788833
0.8,-2.9552989454378458,-2.2397331388014456,-14.392043508445468,-5.895506158725492,-23.980693178204803,-2.5802819101032197,-5.352255675899847,-9.002404215580913
0.804,-2.3894102084237976,-2.6135242321660903,-12.786477531109355,-6.499408322897083,-21.177066882760087,-2.0217160778159102,-5.9369643246579775,-8.412852702014355
0.808,-2.3063551381977208,-2.9544882546691387,-10.655189940232713,-7.2003045749029395,-17.737557876944617,-1.6472193977127372,-6.151412318291579,-7.633179626752572
0.812,-2.728894871859607,-3.0441221681818176,-8.095773976903676,-7.600571908537566,-13.657438705358821,-1.4517962957038464,-5.379363655548407,-6.319759601588739
0.8160000000000001,-3.5556206578555054,-2.8156888871950603,-5.318550465835216,-7.3821332899126,-9.19147217574065,-1.57624457108619,-3.4676132746001858,-4.436801356633138
0.8200000000000001,-4.641689847045938,-2.420265242077062,-2.6108603124318357,-6.585195185719579,-4.95998509352934,-2.2334726839957,-0.8580554315178988,-2.390100302820878
0.8240000000000001,-5.850015620654849,-2.1442398981732635,-0.2640769176726523,-5.671884201897237,-1.7817991966042332,-3.5377418700046275,1.594659629350125,-0.8949487954894533
0.8280000000000001,-7.03196026965023,-2.2151191152832848,1.522019506788035,-5.290402639101803,-0.30297233858606054,-5.326636642104789,3.0409772380324194,-0.6236823751095528
0.8320000000000001,-7.967078960041378,-2.623354701073123,2.718070047313364,-5.860557296628345,-0.6393715627282259,-7.1044871785142165,3.072939963185535,-1.8270034362583498
0.836,-8.35375080387892,-3.1026537284169704,3.439612187341769,-7.2584971606593065,-2.283383332649035,-8.198348325417161,1.9184493153121052,-4.148437925109459
0.84,-7.878721902807674,-3.275734292483098,3.8655190206539243,-8.792864650960333,-4.343589244314538,-8.04633630418679,0.3009821544154172,-6.7699861245227435
0.844,-6.385247156347875,-2.9060439874161306,4.093404927555902,-9.547027176870838,-6.014704182728934,-6.506222041155652,-0.9739508833038371,-8.812762227880127
0.848,-4.030391437855908,-2.0838418498044193,4.05500783990435,-8.883283635476108,-6.990702498987303,-3.986437415528787,-1.449326202653305,-9.78249892836986
0.852,-1.2939204261670736,-1.1882769573557417,3.599903058885311,-6.785351799881937,-7.5448025243059105,-1.2825926134653196,-1.2085404191970257,-9.80147809914631
0.856,1.1852424280157345,-0.6433802265870587,2.6690131469583847,-3.849145825984319,-8.244100562637616,0.7922437394228994,-0.7400365626594745,-9.469072341727944
0.86,2.8848987394587566,-0.6123390726600568,1.4547715303771485,-0.9221397237991278,-9.481444343730551,1.8037161674432567,-0.5590672192090889,-9.441361797128046
0.864,3.6177896145965107,-0.8517044702944825,0.3654864953210506,1.3557077589247957,-11.138822620047742,1.8728052066991037,-0.8547169773825867,-9.96766919684064
0.868,3.5891478501769636,-0.8222827010724494,-0.1780267195819758,2.8495991203484805,-12.584771821474504,1.5595112042078334,-1.3638096216912603,-10.671019119353872
0.872,3.278536781909257,0.013457758024687516,0.041256462316812126,3.9201510500038395,-12.999460602061939,1.5500814101344167,-1.5150397444288581,-10.720561214190614
0.876,3.1943502504679735,1.8680002453054385,0.9217667237758743,5.117221566949802,-11.83400696966599,2.3048366188590688,-0.7629242230573574,-9.31140285153704
0.88,3.638466621329272,4.477316172495341,2.139356556207092,6.7915583898369025,-9.119231441515327,3.8586962376833296,1.1031115813915027,-6.193460050395391
0.884,4.556903839633469,7.18148563989754,3.340588064640116,8.828305705296101,-5.468860113536828,5.820394485911132,3.822990221666117,-1.9240242719451524
0.888,5.556292131801027,9.198288981600303,4.331493071073106,10.666285098728503,-1.7805109689399605,7.5571758566012335,6.776782710092168,2.3119435953104013
0.892,6.079947370242474,9.951211796100564,5.165939676385433,11.591989709858353,1.1914328041053022,8.474474865308265,9.282931946596497,5.230830232938404
0.896,5.652566269427983,9.284871347309002,6.061393738614688,11.127704493943554,3.1488378022296146,8.25310787171119,10.916318713037686,6.070443189786786
0.9,4.100498705375675,7.49138290530533,7.230393625040195,9.302578118041268,4.303415162928395,6.969658696583531,11.682119497188976,4.964039896551652
0.904,1.6305999832363653,5.137776853153514,8.673643555562762,6.620255793977772,5.137993430465084,5.036262247470049,11.933829329226981,2.868639071046611
0.908,-1.2331637372142712,2.820114235587428,10.104000004408288,3.790333013938545,6.06486149793129,3.038770986508309,12.102986306440354,1.0843642175149935
0.912,-3.8097405715466865,0.9860313864292509,11.088284990802478,1.411081763123562,7.1975906100944265,1.5635168806704591,12.430133011901239,0.6165256178868379
0.916,-5.462416429004166,-0.12728836625856,11.297274741761274,-0.23185785101801848,8.338472100856006,1.0467335581503434,12.832787435801347,1.7073551956724682
0.92,-5.7637355066339255,-0.4493514971660799,10.742501951126131,-1.1430302869872566,9.161675487062428,1.6944051213313485,12.985762949993791,3.7607608844461726
0.924,-4.624652321320131,-0.04055260899229651,9.77498428549358,-1.4729903353718456,9.41315260763391,3.42528219060622,12.521695292979487,5.678753992008056
0.928,-2.3381828306621406,0.9104720646294884,8.858168836451956,-1.36540104368195,9.004951629902852,5.866761671604682,11.24496269701226,6.416074263172911
0.932,0.49553073744444487,2.086376815380335,8.279937311352791,-0.8882771860530712,7.971919908605562,8.439941141291504,9.258091309726618,5.466126238137198
0.936,3.1376938975611686,3.0779955454517554,7.960601706084871,-0.08599273557692477,6.347548669979423,10.518382041877055,6.924846617635943,3.0570203619777843
0.9400000000000001,4.950427362410462,3.5123136435464293,7.529883062681847,0.9389109625156618,4.102353289327058,11.648276459174731,4.725801967532787,-0.013307823741061764
0.9440000000000001,5.579005956280891,3.1961377387140875,6.562327508449708,1.9574352316667225,1.1778002046040204,11.696117365142968,3.0529603829674103,-2.774991417296345
0.9480000000000001,5.022283062182562,2.213150540365368,4.846005877005745,2.646521666753007,-2.3891019705570145,10.87374186446631,2.060387612750282,-4.496784920150709
0.9520000000000001,3.587662876551658,0.916948394590917,2.5572484439228185,2.7280334211413892,-6.320128622274791,9.642420999245285,1.6596985973068303,-4.920570084313775
0.9560000000000001,1.748756551563547,-0.20819681187950145,0.21702252598891758,2.120003162086265,-10.050661379207316,8.517786207137569,1.6331169208263212,-4.234998070578017
0.96,-0.00774925802924642,-0.7424444068738152,-1.5036309998497162,1.0286188899779183,-12.82985953564284,7.889443736627559,1.816327024430901,-2.8609580100046843
0.964,-1.3106345797547663,-0.5018958540267539,-2.0718916158917895,-0.11578841869637019,-13.95644588862061,7.904755256663551,2.2184282640399164,-1.194986406879357
0.968,-1.9621698206130826,0.4094841311481552,-1.308304280645011,-0.8423056936145105,-13.040508996109452,8.460284601432889,3.0139017204690726,0.5414550471746526
0.972,-1.9172540403113887,1.6931304944011416,0.5949256156593901,-0.8289160644563529,-10.155472852990272,9.304480651126072,4.427585849586399,2.287836110870667
0.976,-1.2375573111879197,3.0218253832163495,3.206544452208531,-0.02463514100540326,-5.822017651269752,10.170117824170685,6.553486678244203,4.009181672941271
0.98,-0.048796886354234736,4.194256668464581,6.084236538209129,1.3689245608272194,-0.8238901755151122,10.883978496945717,9.238579633055238,5.5577049419053965
0.984,1.4456425139670694,5.1621778060284385,8.902033538085151,2.985529569461999,4.028026090253313,11.370876879660635,12.066685632410435,6.649749572557808
0.988,2.9399697278738346,5.937258742214939,11.443807942705625,4.4008943737143325,8.08932955102185,11.583762307747596,14.464231292013094,6.977646032906785
0.992,4.057190383134989,6.479459753111286,13.54181480078326,5.236353205460685,10.99061850891392,11.44241375729939,15.915766074198512,6.401430897677207
0.996,4.449971451543923,6.651061923639787,15.018951950079682,5.2300801480660155,12.641880448464612,10.830379469877574,16.17322831910398,5.099536121086718
1.0,3.968176601503256,6.297172754339471,15.741703634742848,4.307619926093624,13.18613530211017,9.687820457396649,15.374616065991805,3.5631856650582776
1.004,2.7689084449533112,5.369446596281658,15.679428591779747,2.6061479590073153,12.901733130167027,8.0962104614333,13.973010659830226,2.413003785822176
1.008,1.2956526018218844,4.008830663840445,14.924477889207596,0.45720087471676596,12.0918842034644,6.301586255793316,12.514620049844954,2.120713684497214
1.012,0.12595826769037188,2.5247470672461914,13.657715141744854,-1.67246150400418,10.992187636350687,4.662915156914871,11.379206196258725,2.7702479691831474
1.016,-0.2678619909465789,1.2581498281021108,12.047403914057394,-3.305390175038499,9.704975430089267,3.527740737666766,10.608694146249553,3.992920881658925
1.02,0.2891904560799645,0.425551141534402,10.190691659253407,-4.089604308647119,8.190195637652847,3.1200638976671384,9.935555634373397,5.1072016276505
1.024,1.596683750777279,0.015278930748835129,8.08999803852524,-3.923422220373258,6.295157806570161,3.462916986984163,8.975123828883538,5.416931099763612
1.028,3.159348451014758,-0.19559305475601252,5.704405627013915,-3.0021644827347593,3.8379339675538544,4.378842023562269,7.488434661623799,4.52728612426105
1.032,4.412222927451154,-0.50007158448906,3.0651665632243383,-1.732959271979091,0.7296179064968951,5.570750565350398,5.581283431075606,2.5214145042457083
1.036,4.973875277684462,-1.0901363231968029,0.3508428348200434,-0.5511947338586687,-2.9138705575929507,6.723116058190309,3.7059726234849455,-0.07595178058947916
1.04,4.837120465560503,-1.929632640620747,-2.0833949393993736,0.3084516294793369,-6.692601185714579,7.6147257554169006,2.4764399221399955,-2.5274405065361183
1.044,4.383396348889102,-2.759382874532862,-3.812885816124137,0.9359805563715873,-9.954689742108776,8.162091155384855,2.37198452327931,-4.177941804200229
1.048,4.219741826211989,-3.2135476961878666,-4.51347272206316,1.6965874892325394,-11.945582871961212,8.407239168975964,3.496421131205895,-4.673055860422233
1.052,4.920210966636386,-2.9688459029087104,-4.072108206281733,3.030246800754507,-12.030674607523332,8.487500204890317,5.531028934690467,-4.025494171265424
1.056,6.758897801677634,-1.8659842654515735,-2.6049160052433677,5.175743778990439,-9.928866121787182,8.583024318477811,7.905972895254205,-2.5292741439090536
1.06,9.564722389102819,0.05968129110680431,-0.3338507868719498,7.985290220848386,-5.842884801510263,8.881161716270602,10.119863569081632,-0.5953230159508376
1.064,12.718968448757176,2.592600711640858,2.5184569298601063,10.89810937676148,-0.45168608972595714,9.509501436099548,11.98824223688837,1.4003735010005407
1.068,15.31817290572154,5.375538134073065,5.755096639534086,13.117116441568516,5.266410087736667,10.453346418801424,13.676830054602167,3.198512591004029
1.072,16.476828438282126,7.965665536861117,9.168047549578825,13.937400048227943,10.339683532368133,11.50939222623494,15.50626533281579,4.6558574449093495
1.076,15.666393346698321,9.910832806823672,12.471775779324075,13.071274435698516,14.114250118242603,12.317629101210418,17.645648275499013,5.716871999296062
1.08,12.995828725092679,10.883798290913917,15.347200968813475,10.853981012618991,16.462586878753633,12.520920671817242,19.92201470763068,6.399475194392549
1.084,9.267704120133672,10.811281045063133,17.53797134324558,8.171832312560673,17.75766966037341,11.951978368688085,21.843535053932737,6.806153746455628
1.088,5.730191591732642,9.922605316593273,18.93838585189902,6.105790726858437,18.598723887011722,10.749618468064078,22.824197193844224,7.120969116015637
1.092,3.6017683319844345,8.679432548377285,19.624522181690573,5.450332748637867,19.424656566588922,9.33664214421281,22.492465328113507,7.5639742815138735
1.096,3.5438071820347616,7.56960941098893,19.755310549243987,6.3144718304042105,20.204521896507472,8.228163632989139,20.890205373675016,8.304328415003038
1.1,5.347958604493741,6.873250118556553,19.441942268029855,8.04160495664212,20.409807992240033,7.787985963713031,18.469010677949825,9.363978424687751
1.104,7.9923871649867735,6.510785263357076,18.624468640035854,9.487683595190635,19.288827925766228,8.030647072790082,15.862883639587542,10.58135968322353
1.108,10.08873745676744,6.083643551377364,17.07161472816503,9.559028166705223,16.324405879169316,8.599073903020786,13.593608342605593,11.67703728892189
1.112,10.549582360923544,5.130698712072708,14.563638422410904,7.788284323940978,11.651040135124305,8.965619654950027,11.898835562371719,12.398087160380236
1.116,9.138049669328714,3.4578753964210547,11.136589687267149,4.639684215004129,6.174806504481306,8.737637481359103,10.758457949436007,12.65918937292583
1.12,6.636287860710011,1.366956098628172,7.2766868549945976,1.3903463603337913,1.308405511431821,7.926281156817101,10.099863823272567,12.581821949277273
1.124,4.481779446998899,-0.39749277724697807,3.8389954471881795,-0.4255828738498466,-1.6062217037739548,6.97605734778978,9.981559920491245,12.397570562836062
1.1280000000000001,4.024462959224819,-1.0009218812588472,1.6752099107310456,0.23132748036444806,-1.9212182518917693,6.512187302783982,10.594895764597634,12.257793319962843
1.1320000000000001,5.787695889351516,0.012162849408989596,1.1772717055758193,3.3472595302254486,-0.015957749498834772,6.947582091058133,12.0855989331065,12.070017642058092
1.1360000000000001,9.123373274606015,2.395799226609468,1.989309107340595,7.7782799261626705,2.848568337676978,8.168104347071507,14.307802485398096,11.494902030871092
1.1400000000000001,12.502039434987234,5.260799789206265,3.1616868219873275,11.765185066381246,5.135054705325082,9.532817413424645,16.73263066215582,10.136824059154126
1.1440000000000001,14.288000107772277,7.495220178175032,3.6615937618612993,13.776799459296956,5.783025111894041,10.182277296377293,18.611235558693572,7.8556755666455285
1.1480000000000001,13.592636138139047,8.331497859992833,2.971290974115172,13.250707838060409,4.726574773162715,9.498366208896297,19.335401797642195,5.007114505972558
1.1520000000000001,10.752118748929158,7.750956544098127,1.4398078593037251,10.851606827821348,2.911504525055009,7.467918222240711,18.78483120326161,2.4229043171807088
1.156,7.154609602380613,6.474802745767547,0.12934501181780345,8.088553210468216,1.7817595825495305,4.719690546066444,17.416358320030227,1.0834475307771518
1.16,4.527270841011109,5.5574389861625875,0.2616043882998804,6.519470065299599,2.5218187123725664,2.23464281728467,16.027446894847102,1.610009885687496
1.164,4.034863969000512,5.78393785822923,2.4966144598446025,6.937024414617558,5.418211182783855,0.8570829722754283,15.282556084897411,3.8504849281440934
1.168,5.678531886392279,7.212969971450516,6.455203603132164,8.969284671057785,9.666395689715682,0.8787173420755003,15.28015426198972,6.8199819675039475
1.172,8.328477281493845,9.13396816960052,10.80223664876759,11.314477802484491,13.727766034779036,1.9368005234242953,15.457671844353149,9.081089010552061
1.176,10.351865640340908,10.457930176889922,13.857324675118905,12.463817828722776,16.04516429925007,3.2583592132792245,14.924358726913699,9.419342300201391
1.18,10.512426434796994,10.343269185345942,14.472668448285075,11.532452155600424,15.77574283887039,4.131845357700666,13.063170241534594,7.468144212861407
1.184,8.614570284847355,8.677046044015507,12.637609791173624,8.709363796752159,13.155902369173912,4.2902911406230775,10.011398624484702,3.9396616274926064
1.188,5.550694898400248,6.1454292701911575,9.468992540518258,5.099718250113816,9.338059207608051,3.9896090870249488,6.705359717803544,0.30462784107841223
1.192,2.7497267671592587,3.8627077053863825,6.599877683632514,2.0777916957553493,5.805170124946272,3.759547099472826,4.428162504729395,-1.9545950848498137
1.196,1.3505546762150775,2.768127431366405,5.282252530449613,0.5290143013735586,3.669984915600895,3.9886095599819518,4.087921346072783,-2.115413568806928
1.2,1.604636617018397,3.1555288544509654,5.759433918617592,0.45135224538228225,3.2321152322810764,4.65166104615828,5.679760979544647,-0.5921970564831756
1.204,2.801484811319603,4.556405219471287,7.188477706100457,1.082682380796434,3.9629199538410287,5.3210591530550495,8.22671971455481,1.3062759507401829
1.208,3.726490253586747,6.012257129686015,8.127287227209012,1.4283658481370212,4.869466470633802,5.43958234976524,10.25275834330954,2.1146918802872445
1.212,3.385404182964392,6.574636510005041,7.324021033703606,0.8649029374993269,5.02698300233224,4.692452685378342,10.54421582446573,1.042501217420102
1.216,1.559211710464794,5.737175985635643,4.344987706011528,-0.5555544296497672,3.991753714110356,3.224876857875352,8.751353671391897,-1.5661087118975958
1.22,-1.0772406882298355,3.6141366206433343,-0.21979314270707828,-2.210950587674284,1.9421077228592578,1.6024548430665224,5.526716829354957,-4.418663736020433
1.224,-3.3386459226277996,0.7921843750770563,-5.096084167487909,-3.3448481701641697,-0.495846736103303,0.5019095034019334,2.1183468208674237,-6.001296597967459
1.228,-4.187878935036218,-2.016477652561518,-8.982036163415717,-3.5366581052100594,-2.6020633949258904,0.31471786586722494,-0.32670998212235336,-5.4437356715425125
1.232,-3.2682544331556667,-4.282527477626343,-11.107748655212927,-2.8911159027899593,-3.863723145235869,0.9215303033411208,-1.325259591234282,-3.016530079531912
1.236,-1.0406466090488689,-5.777237814888123,-11.433080293073614,-1.8642577143090415,-4.089319169707902,1.7554423088364084,-1.1800182453243124,0.02684002489097992
1.24,1.5370657908994936,-6.468974738290054,-10.391387627374158,-0.8655088180408308,-3.3184961925640817,2.1388122081708065,-0.6200815261211527,2.1525288449901443
1.244,3.549001849727307,-6.344281899824289,-8.456752051826514,0.04323492344183899,-1.659713289363717,1.6664938718972735,-0.2576608118934951,2.4031877588226047
1.248,4.556149856699575,-5.3184760715491795,-5.849299940733443,1.1339833441570435,0.7956419849611489,0.40972940665265567,-0.21936826550980726,0.9095716786984371
1.252,4.711050774681029,-3.306765126297509,-2.5431829057726416,2.702546882527705,3.921361200870855,-1.1576107253515153,-0.17194024101256078,-1.2341845742854978
1.256,4.521827890016736,-0.4086824576003807,1.44520927634864,4.680718540254526,7.417293311789593,-2.457101121151296,0.30879673350142456,-2.624823050872256
1.26,4.478066158306794,2.9662925098946,5.7946347095916035,6.497946370692148,10.736517542362694,-3.1018914692302286,1.3431420117599135,-2.3467750211942695
1.264,4.755482297361472,6.1349790284371295,9.819510993675538,7.303364396347526,13.165695463794234,-3.0542683794836245,2.6017092832025197,-0.44123884145122105
1.268,5.16121206995402,8.359039768568138,12.687710582754473,6.435587275426412,14.054762378524778,-2.5780703230304542,3.501208996507533,2.1985956516470617
1.272,5.323667770335453,9.153115753411477,13.818497388284724,3.860443796667862,13.095887074818823,-2.033380184896074,3.606710461490547,4.3954596408812385
1.276,4.973105736667933,8.50231542899126,13.189149923670954,0.2833312714380698,10.489793149141745,-1.674341889029691,2.951359535587046,5.368857393579937
1.28,4.157821163148862,6.884881321644924,11.397455427029549,-3.133596436371598,6.913742673413892,-1.537385561343157,2.0603792655417106,5.109644805942553
1.284,3.2495446639110193,5.068549640647966,9.384879705834543,-5.3212174323017285,3.280101242960588,-1.4850507109116093,1.6334970851021073,4.275888739480769
1.288,2.745562652442675,3.7761918348661663,7.965414773884883,-5.810993298050111,0.3893796602075612,-1.3457118727652446,2.108839031320918,3.728234437363909
1.292,3.0108760015504235,3.395188997744224,7.446198878372568,-4.893511116742876,-1.3431218826798952,-1.0212910983711716,3.403027213804567,4.02027854690368
1.296,4.100643878651173,3.865845950993278,7.535080777192145,-3.361028714019969,-1.970049202495392,-0.5009246825683387,4.991330522878209,5.152651942716138
1.3,5.776869716830307,4.801943648413876,7.624800344676037,-1.9763018231617333,-1.8756464687102443,0.23756155580525684,6.289876424326081,6.68754177800416
1.304,7.641864339289285,5.7074772819039845,7.189590931639171,-1.0519245333664218,-1.5620257539158586,1.2941961508175608,7.017119102107824,8.069350981529306
1.308,9.278210471626679,6.1499257407141545,6.0216451886138085,-0.41434726502364727,-1.4952369089292414,2.7794663291853547,7.24781862260217,8.877192951094056
1.312,10.314633542391372,5.815024396831849,4.184833605894325,0.24338287755006371,-2.066267429974703,4.620809575825985,7.09860170658565,8.830549187682402
1.316,10.405096928104248,4.455327327271744,1.7419566941504285,0.8677399372260133,-3.6243525154652705,6.350873043477497,6.27422139557804,7.606502357038211
1.32,9.238671899098398,1.8816959836003728,-1.4293770591688257,0.8311224300311969,-6.438127100291396,7.1037479669669334,3.9044514085344013,4.69508222888208
1.324,6.627188927718884,-1.9428676957294706,-5.581338524122783,-0.8174281611778604,-10.542742372628943,5.875968826743607,-1.1085110119883166,-0.482198157552554
1.328,2.6738624804069575,-6.724592608900911,-10.775316199219116,-4.723126564393041,-15.52095441636715,1.9949456108157544,-9.320807499454805,-8.14231183106503
1.332,-2.053019081214155,-11.681711056315708,-16.46515306782716,-10.568273175902345,-20.364423702920924,-4.400611596877078,-19.975745645499625,-17.634108309679796
1.336,-6.498549634789924,-15.58534000791973,-21.332233565357797,-16.84324691264344,-23.598219534244862,-12.157621136128043,-30.768945365350156,-27.221159735912074
1.34,-9.315494699366031,-17.051026979773805,-23.527487579113995,-21.241000101126154,-23.6900880164566,-19.315329649538683,-38.41804387186396,-34.42007542372872
1.344,-9.289576692140004,-15.045115168992623,-21.36988996111965,-21.595238234226713,-19.6522002393536,-23.7390805902209,-39.92603954249046,-36.86046978081308
1.348,-5.839474937613218,-9.39140409007489,-14.216819737353985,-16.924168036757262,-11.580129219595813,-23.939309240029228,-33.96394172980316,-33.29709285633209
1.352,0.6521563869768343,-1.006075929346986,-3.0242783296771734,-8.015372673263935,-0.823505688439214,-19.697755280664786,-21.645500673761912,-24.256500821182186
1.356,8.853995259487924,8.30184012310958,9.744593080129658,2.7857401740266106,10.35555363348088,-12.202815009013971,-6.2398168517452035,-11.93587984674793
1.36,16.91494554687761,16.45175637579609,20.966390256970477,12.551252710386658,19.55131080416996,-3.580710974162235,8.131041375793096,0.6297190033761169
1.364,23.11390547171828,21.848467001742296,28.056125311514933,19.012269851981337,25.066773530543724,3.9460008900720753,18.15130247715208,10.750451399525968
1.368,26.427947395986745,23.912376303025138,29.937052460042466,21.434643940005884,26.449093394225084,8.87973538222082,22.51082533062413,17.034650791737477
1.372,26.780691533581596,23.149573615859147,27.33959361220291,20.717985353823025,24.482641896457622,10.894500286603751,22.108567548585544,19.671117702605017
1.3760000000000001,24.88084944702202,20.74934433510199,22.283770769514447,18.70128157822385,20.67158640112421,10.725432059250181,19.214477080502267,19.977595796183287
1.3800000000000001,21.8029652980678,17.969239294498617,17.08873116804918,17.123939859897746,16.522197947430364,9.64635771247173,16.144221809386153,19.52018076562497
1.3840000000000001,18.519208297683832,15.610390101678261,13.368374063829345,16.788231305757222,12.965150027717229,8.805000716781176,14.159518577670216,19.309254462767473
1.3880000000000001,15.603851560244555,13.82668282167503,11.487908433562769,17.33130933784392,10.171414590356187,8.735454549406223,13.131882458623338,19.474621293819386
1.3920000000000001,13.219906778962816,12.320501518308543,10.705705501918619,17.678516386289363,7.797859060769409,9.262772311213432,12.046757644540694,19.51032068723544
1.3960000000000001,11.305467726891326,10.739593700615611,9.823438732600827,16.843663610828994,5.454234809971011,9.769746637255523,9.929624442880367,18.845966709261766
1.4000000000000001,9.81790546671605,9.030677618843068,8.011686842699667,14.61197062338318,3.1242611361682036,9.659051994314146,6.6309403913013405,17.33756528264124
1.4040000000000001,8.845069130811906,7.521358685998227,5.3153916813170685,11.693175193619176,1.2872048192666332,8.710458673841032,2.996727245757768,15.393396327493996
1.408,8.523837966382267,6.702290372625982,2.59997274143016,9.28900506828164,0.6919167437288003,7.1575085972203345,0.3788946013070964,13.704054756317161
1.412,8.855364622486114,6.884090920572576,1.044737081815347,8.370431988541158,1.9443656118425983,5.498710944372943,-0.1615175614378077,12.79383895284452
1.416,9.56527829491887,7.951356546288225,1.4724751938500367,9.100437024551393,5.132839499732421,4.181637321446065,1.5286590240458464,12.7094813006144
1.42,10.174678596132244,9.406127814094114,3.9527140188506573,10.770566986755853,9.717010320385832,3.403546827373572,4.635562475578369,13.031216275687076
1.424,10.232107516063742,10.648561982463828,7.807431299187939,12.238710433099694,14.703263107439401,3.1043604345452795,7.8412224494928635,13.18251870635465
1.428,9.562748592187283,11.300243158675904,11.948322952726404,12.575563634617856,18.99030332889631,3.110256157827063,9.988662123355173,12.814779976521146
1.432,8.386026025070343,11.369568483756002,15.352952679849492,11.548399528201545,21.722099387376737,3.3148486090034535,10.569173957267132,12.011365228968613
1.436,7.192132859415574,11.147012363227656,17.40252992926255,9.663584103615865,22.497538281693213,3.744058595785977,9.784829359423568,11.190748846316751
1.44,6.465414658196108,10.933374166235797,18.01234558490728,7.805877922212609,21.41084608238638,4.50014247174116,8.259540140728738,10.777285916852362
1.444,6.38343806702264,10.759535200119537,17.502220751589796,6.69050474202505,18.92596513576843,5.605506481500788,6.609297997132759,10.86510218233259
1.448,6.670071245898463,10.288147326414482,16.31719566768459,6.449731233400172,15.665209100145425,6.85943001965394,5.137138331627899,11.097534167198763
1.452,6.712585974027048,8.988867721809914,14.792522528535645,6.593471630843805,12.215889794250023,7.83873191877969,3.8057548872121005,10.843373125786524
1.456,5.883140911199232,6.481018533210392,13.042917157328697,6.330876033507773,9.002668479227138,8.05766620775145,2.4250163097024733,9.5808370117311
1.46,3.9178861499010926,2.8621127596054716,11.05127682731423,5.074009114224707,6.268636923253555,7.243133050774707,0.9012104822763017,7.2513859857215515
1.464,1.1152296677365303,-1.2041097803779266,8.816956206227434,2.806231584747663,4.122114868220401,5.532089713662435,-0.6522940742970821,4.3742648123925045
1.468,-1.7639777263281653,-4.721951592794666,6.441082664310858,0.11815706038702256,2.5984352960015986,3.464242437152571,-2.0038518041739337,1.847761758282267
1.472,-3.852728289478701,-6.8081561470951435,4.122881475057795,-2.0813310794676516,1.7129325557657857,1.7651676599494186,-2.986942638074276,0.5249801281887541
1.476,-4.618525227973744,-7.130451120491729,2.0516580938357016,-3.027110987834141,1.467638663740134,1.0041649777165924,-3.6399194109440556,0.7806689878470185
1.48,-4.111482273475053,-6.072186341423258,0.33560656006827694,-2.4412951174376865,1.8288868727591154,1.3414190481096435,-4.172723343535457,2.2838111974817705
1.484,-2.9225827727278593,-4.553665757437428,-1.0303847740595096,-0.6393608083743059,2.6697802102230406,2.466047108532454,-4.8064569269178765,4.0945303347829896
1.488,-1.8855449576542778,-3.5999090705308756,-2.1538358769829076,1.6153754942634144,3.717613705520534,3.749953290372365,-5.60601732495267,5.0539021379693905
1.492,-1.6596324171313364,-3.854585685043806,-3.1694301616475578,3.436747957367094,4.575397238276748,4.5545930739782206,-6.414914159212989,4.292590554334964
1.496,-2.419372184944258,-5.284974700435427,-4.160452707123177,4.154307102268908,4.834758890838383,4.525228496365357,-6.944647145074041,1.6380723588416455
1.5,-3.776547547242849,-7.1950898449851515,-5.052775034496449,3.5641605175249977,4.277208453897842,3.760693753113954,-6.932817653629138,-2.2755779494273662
1.504,-4.991094813509193,-8.5508263388367,-5.5889312229812775,1.9830640683731517,3.041252663430496,2.7519781820098146,-6.289575489719534,-6.245092083683869
1.508,-5.3661548506512196,-8.462703258554857,-5.428099702801715,0.09339583453910816,1.6329052043114547,2.1176294020525095,-5.1607887789502485,-8.991820687451632
1.512,-4.6115642079130055,-6.593622025212127,-4.318634716500615,-1.3431219429689274,0.7332601925851081,2.2762785178411153,-3.876505983205724,-9.711884154937724
1.516,-3.005421684552461,-3.3209977047372496,-2.2962743577798075,-1.8066598694818428,0.8583030571117707,3.2076871210125155,-2.8468021097903815,-8.439519960055254
1.52,-1.247242596330094,0.4353793554383063,0.25394226314712554,-1.2177972519109748,2.060469815216292,4.462367622884542,-2.4269599699981454,-6.0583822003961405
1.524,-0.09977248032738117,3.609816099353602,2.6852938595184197,0.050159491341923435,3.8303407501551368,5.38843928711446,-2.8175250261941085,-3.928974097719143
1.528,-0.018915554672749968,5.4090445209298625,4.29173556139534,1.345621950002175,5.2725950104810035,5.448277273737034,-4.026429987403932,-3.2916081776309416
1.532,-0.9575655043655051,5.571695252213519,4.562682995624353,2.0353213579643334,5.500573321157379,4.479218648506866,-5.874637702706784,-4.719098039694315
1.536,-2.432632266249583,4.370023806673301,3.3668529792353423,1.7907351038465422,4.057989791954979,2.7625679780149675,-8.039791273163182,-7.852494936529601
1.54,-3.7804157081049565,2.409208787209674,1.036653344864542,0.7560750308784252,1.1690311543571,0.9096096516232874,-10.102307068580933,-11.56041990390355
1.544,-4.496235358112738,0.31446809264003317,-1.7580621767757014,-0.5373351153127564,-2.356758215807014,-0.412001590196013,-11.645225940538674,-14.452949568721472
1.548,-4.481692352052831,-1.5321618119032774,-4.30444222897693,-1.489736775606124,-5.522621314309044,-0.7814623406668528,-12.401930730335309,-15.506562804267958
1.552,-4.0659548348544305,-3.0838741369069984,-6.153498743163732,-1.8135461595121853,-7.631681986476329,-0.20426681977863925,-12.383451051294433,-14.511662058295721
1.556,-3.8255977615641976,-4.549727637089232,-7.317655936983982,-1.7741792025466463,-8.611806353694696,0.8932249933919927,-11.91791959705435,-12.133078012997508
1.56,-4.27277689043534,-6.183701100436803,-8.18720584218993,-2.097872817137996,-8.973281228654747,1.8751941146135556,-11.524907275203397,-9.57199089442461
1.564,-5.595221940977741,-8.08942682948237,-9.2591547689845,-3.5836988621334376,-9.449178357835487,2.1847937499289016,-11.67742564664018,-7.99542076135217
1.568,-7.584703757496766,-10.145244066200311,-10.837895466799411,-6.617961071102394,-10.536158802493372,1.5708123088848684,-12.55751353505745,-8.016335393136906
1.572,-9.749099705257366,-12.055637370432503,-12.832671232082548,-10.83793889239545,-12.17752209253647,0.17176549946477193,-13.931032272260396,-9.461279383607044
1.576,-11.547929215348288,-13.497111156539315,-14.785840730183942,-15.167244981261254,-13.778299861870236,-1.577324496180994,-15.237200155444746,-11.510244606997993
1.58,-12.594053468862704,-14.241768116175523,-16.0586287740406,-18.210222436665315,-14.522479131492549,-3.1165196442598875,-15.832217657320335,-13.128315380264446
1.584,-12.751791165998618,-14.215325749935865,-16.123214011991976,-18.86065606169684,-13.825884112843147,-3.962135864276344,-15.304498273072648,-13.558919957229225
1.588,-12.117976859096808,-13.480089638628506,-14.815765014643198,-16.82709386508028,-11.677436505144081,-3.8692449581555497,-13.69846719098476,-12.636964238188993
1.592,-10.92838400209902,-12.172471664003156,-12.414850154167196,-12.801629963363645,-8.686858378522299,-2.8959489054960974,-11.515786613745352,-10.801759513643173
1.596,-9.477912260475708,-10.462097541091769,-9.540337745299686,-8.190201132036275,-5.824181166968121,-1.3778711652086608,-9.501077331457887,-8.835581610147816
1.6,-8.052804714365532,-8.529811354957227,-6.86143263566181,-4.491536156965317,-3.9627084852808783,0.21354652311656552,-8.28869097559208,-7.48090149532854
1.604,-6.900391879356482,-6.576432212326525,-4.802528369803699,-2.648325325709915,-3.4784596519160518,1.4518516615290429,-8.096529654875603,-7.108098678279944
1.608,-6.210040947640208,-4.827206806104925,-3.4014012450547306,-2.6870644599861824,-4.100345358287577,2.107428744395321,-8.631006571936867,-7.578685054795013
1.612,-6.063617278478429,-3.4903144971520703,-2.352290103255399,-3.8010196818622943,-5.059972424606457,2.227119568429755,-9.23843139250022,-8.346941167323118
1.616,-6.382900785668635,-2.6869048047075266,-1.22352170266215,-4.829931011706112,-5.4649915444393935,2.0916538854120805,-9.222067730107279,-8.726990395929816
1.62,-6.886788126780868,-2.361690580332881,0.327268335086933,-4.843736401250445,-4.686600005554812,2.09829594666654,-8.14148332318729,-8.21098568902911
1.624,-7.1432438958564735,-2.261995459158719,2.388585818913187,-3.57552786518104,-2.61133111748816,2.578159526657121,-5.985907783459582,-6.6911032730908655
1.6280000000000001,-6.73476254640326,-2.0283860871259884,4.734219569707289,-1.5174860549964926,0.3228891249744499,3.6213582306676946,-3.161884271609831,-4.495360303790016
1.6320000000000001,-5.449453612243372,-1.3531803090362617,6.921652573032741,0.3743914601936209,3.3231806257705125,5.023255248897265,-0.3028096240330973,-2.230166395362379
1.6360000000000001,-3.4261178376220665,-0.15395055153491416,8.46159713248524,1.1732823797004919,5.548931591801569,6.362712174975867,1.9827266140419286,-0.5079845960798162
1.6400000000000001,-1.1233254225211677,1.367572278711446,9.058250130622135,0.4611319833405809,6.440196920828825,7.221560574543898,3.3381573288082507,0.3161904720863715
1.6440000000000001,0.8664372319050178,2.7956199595396116,8.760488564976495,-1.4638701890353079,5.917996051508492,7.4061902828344675,3.7628071916400057,0.2900986121937059
1.6480000000000001,2.055857169834684,3.6608672556983697,7.926770390442737,-3.755503045080917,4.376411482725185,7.036990293665524,3.552530745977055,-0.17738659765833376
1.6520000000000001,2.255148855372902,3.630683648954543,7.0481780183124645,-5.452286250156947,2.495755145291711,6.467629228521756,3.1375677207442187,-0.5282828090009688
1.6560000000000001,1.617763451267796,2.6380868804932884,6.49923437217138,-5.951222338387545,0.9556400882997806,6.068393392026543,2.8901486795868534,-0.3366266097652586
1.6600000000000001,0.5343212029591009,0.903548001099475,6.351614842842155,-5.276487869647201,0.17277767925907384,6.011230351439262,2.978418884380427,0.48003472663268143
1.6640000000000001,-0.5643724095428584,-1.1487793914346778,6.3366350162740845,-4.021513800817333,0.17009700852551646,6.1826993703266195,3.320553919158286,1.6341976951233614
1.668,-1.3855954786316542,-3.0252389661100993,5.9999393064145945,-2.997295384047037,0.635631673659276,6.287916168957167,3.6538238201885207,2.642128106322711
1.672,-1.8491527415014035,-4.291005695228845,4.97417906590714,-2.781344367079935,1.12394301234127,6.074668798206922,3.676525506081574,3.0928778297978896
1.676,-2.0674738180921888,-4.675772237952008,3.191278380842636,-3.43179413729702,1.2831358884695927,5.501740572149155,3.173267017929847,2.871665628319596
1.68,-2.2382716400502405,-4.122492523550774,0.9690848736780033,-4.4796676077006925,1.0201469510460477,4.771475948334423,2.108268530636919,2.2120151658117444
1.684,-2.5048870517062705,-2.7750036021795377,-1.0711008203330694,-5.178878613949383,0.5295237573086333,4.203721651154108,0.665639830066342,1.539007699185585
1.688,-2.8747211002342796,-0.9423684611889303,-2.257080442650026,-4.893668326777837,0.16778906042703,4.018186674336151,-0.8036910837445363,1.2155826280754252
1.692,-3.219161894092063,0.9561266402028943,-2.1653185071208965,-3.4125226290067125,0.24576274546620347,4.178584051973796,-1.8965276149314487,1.3295374319836553
1.696,-3.3596906878745125,2.456947155733305,-0.8628656029810147,-1.0548700606103916,0.8309695218074284,4.388745871079002,-2.3084904792395524,1.6587676165813332
1.7,-3.171052352964457,3.1486881042607835,1.0758731298740707,1.4880188254855717,1.6806622042550154,4.277512877612591,-1.9473008242635488,1.8311975110481753
1.704,-2.6471580803846866,2.790379540942527,2.809490642338223,3.481211646706389,2.3440112976374046,3.659225189751273,-0.9650548796991192,1.565564103154169
1.708,-1.9262701756483531,1.392601439437077,3.5857344413309122,4.448695737615673,2.3602980408660232,2.685900598751435,0.29239072041075787,0.848630075939657
1.712,-1.2592826668835904,-0.779520412672797,3.0476251046633784,4.306986149777826,1.4502312681467742,1.780746664006104,1.4000814763551486,-0.06839016818546151
1.716,-0.9512940708311397,-3.3107033383049136,1.31105885670368,3.2659858232514796,-0.402428221230378,1.3607821561365125,1.9691934579505501,-0.8490125099268928
1.72,-1.254395822486616,-5.782801943087636,-1.1516553414190933,1.6238477620015908,-2.9740130216012846,1.5524311144975647,1.7573500897118042,-1.302951869850582
1.724,-2.226178708918832,-7.88987991019258,-3.7245634460988977,-0.38689659434280266,-5.884287719951772,2.087834075230965,0.7602589129211512,-1.5192417793656081
1.728,-3.6444388677953317,-9.480110021913882,-5.872532852624552,-2.6370797248259708,-8.692106575709673,2.451189706489099,-0.7562395452843265,-1.7924990908575
1.732,-5.0344686549184745,-10.513024050288806,-7.272264373684203,-5.026642257908598,-10.966770955900161,2.2026137971843864,-2.301298392234539,-2.389648483516104
1.736,-5.853903721634291,-10.998070010197484,-7.865280726347477,-7.408922450941902,-12.358364658400495,1.2481987791901852,-3.314438516331072,-3.3166787805470266
1.74,-5.745485686413353,-10.944220188153274,-7.798885812252062,-9.568645179587662,-12.65516957312834,-0.08884970318769225,-3.371006194332911,-4.248044819128234
1.744,-4.71676784867238,-10.341405733406933,-7.283983076243914,-11.260555307510847,-11.824265867824984,-1.2346538879269566,-2.3418196131778632,-4.684610723998459
1.748,-3.1606465927205036,-9.195954146355675,-6.480998709494042,-12.293638872074702,-10.04291727778935,-1.6849799256263944,-0.4632005887393653,-4.255679845467761
1.752,-1.6701073133684827,-7.578494486392588,-5.447016828971048,-12.584628003794844,-7.684829639464219,-1.278361714317568,1.736165623982937,-2.98804528568329
1.756,-0.7524852662686026,-5.663536536942044,-4.197206731420087,-12.166586394783621,-5.255229501904646,-0.2843464945798946,3.6192514624198164,-1.359802016038901
1.76,-0.5710369910064474,-3.7114237530080554,-2.7846692359452843,-11.132204402749855,-3.252690745293032,0.772328236499713,4.687716711716867,-0.08245942103205373
1.764,-0.8538569194847505,-1.989029555185906,-1.3320716333171743,-9.56288576139124,-2.0082612749655384,1.4371379591809053,4.791107289334242,0.26884190796102025
1.768,-1.0597735441835403,-0.6923271507683113,-0.039457839180583765,-7.537908832665633,-1.5926644340324163,1.5767991912840995,4.176116544254037,-0.4349913727135164
1.772,-0.7110317024780031,0.08933177603476761,0.8498986220617724,-5.220720737672525,-1.8388592840040294,1.4081183550499476,3.3450503177566846,-1.8158096587654051
1.776,0.2853974240371675,0.3553902075160389,1.0845174841611835,-2.9661465279544577,-2.481224877599346,1.2785026839003415,2.7814590785003093,-3.2007247815767506
1.78,1.5470456227480323,0.17415158311078338,0.49393585476949253,-1.3084096208088627,-3.295685349602491,1.3808806146622472,2.6947685995310704,-3.986849294651612
1.784,2.43265329009667,-0.3140991740432577,-0.8856358403297189,-0.769116957918063,-4.158072821851066,1.599791135293995,2.93434059385726,-3.95624036758965
1.788,2.4290900824828197,-0.8896236026866338,-2.7430585907909784,-1.5778215398983777,-5.007011947143624,1.579483662208552,3.1071381853636835,-3.3531897868214444
1.792,1.4995118489293593,-1.2585608252297038,-4.517929000893419,-3.45462874411304,-5.743024353144707,0.9813303666599491,2.8387717890281676,-2.7028774577061765
1.796,0.1333554743794112,-1.1406391445988024,-5.600357898813435,-5.649535909641829,-6.181009069426966,-0.2718321589060213,2.002635003514275,-2.494395253608564
1.8,-0.929322797744747,-0.41427204176416144,-5.594473201427445,-7.247996911691013,-6.098246491007567,-1.8962381874885246,0.7975956999919394,-2.9207072233018616
1.804,-1.1267823771644607,0.7649494648757238,-4.5042041427112505,-7.603002137133495,-5.3667068410364855,-3.354695410914246,-0.3515318086279655,-3.820465263944032
1.808,-0.4261432300652447,1.9407251313052891,-2.7667126902177115,-6.687601595391504,-4.097904732652413,-4.124526352222952,-1.0365223429647306,-4.823886503620265
1.812,0.6340236984238745,2.4971639451001844,-1.0733264679179575,-5.145172327979447,-2.6811796057355632,-3.9588386846528314,-1.088163235452952,-5.583944917287418
1.816,1.2229979264049677,1.92314285848621,-0.08763171493775102,-4.007121538242965,-1.6755426161718228,-3.0118244288865927,-0.6601798232604752,-5.9324640893285805
1.82,0.6775014663569128,0.09229634851994462,-0.1526576410558933,-4.189271012356832,-1.5689040831254482,-1.7434654111472436,-0.11880430741413361,-5.875354362964567
1.824,-1.1040025235616633,-2.5846796315556677,-1.1210953955648397,-6.010994957979055,-2.516981146913796,-0.6684090867191472,0.19546482126943676,-5.468100206040584
1.828,-3.5810045899655583,-5.268561586818535,-2.441434930784748,-9.014235976333469,-4.231350739315136,-0.10927678008095587,0.17027975119877592,-4.6920771215022175
1.832,-5.837542934355836,-7.031769030195534,-3.442749006173745,-12.172606491301943,-6.091738865514428,-0.07983124433233102,-0.028239204842819277,-3.4524922433478005
1.836,-7.054916552427427,-7.291177004104252,-3.709032461711306,-14.397439719316473,-7.445208059430234,-0.3699627943209567,-0.10901990586178512,-1.7091993148619409
1.84,-6.895920366856494,-6.084092800503753,-3.294330036508812,-15.03612328678905,-7.914671093005461,-0.7180817315758857,0.11256552801711006,0.36049862740693606
1.844,-5.584295151562042,-4.017846884728458,-2.640627120488774,-14.097483990425374,-7.545332984936531,-0.9458082399655178,0.5737253327238958,2.2996772389449607
1.848,-3.681339907141644,-1.928575523704625,-2.276685415946245,-12.127219528175567,-6.71872236786038,-0.9935463391591075,0.9912869454314739,3.5114777504627255
1.852,-1.7097693387781754,-0.42177852147160033,-2.456614958085339,-9.820677035234711,-5.885478854797672,-0.8544593898945587,1.0538655128030832,3.5543054393941445
1.856,0.11746523127125563,0.43231237805146217,-2.9911608802207916,-7.63457430577321,-5.288187833415789,-0.5055230039035443,0.6360818118624156,2.438146162320688
1.86,1.9206215348928297,1.080764719363858,-3.3396589430421058,-5.595409597021285,-4.823632142095391,0.11399479171410709,-0.09682773806666722,0.7237177306481053
1.864,3.949025391046378,2.162624313448451,-2.903751697579788,-3.389133310381693,-4.116846341345134,1.0503965680809002,-0.7574440219420236,-0.6868616639229959
1.868,6.290691576962179,4.055552703343203,-1.3791487126615605,-0.6605015879422192,-2.7631500819661814,2.2422207481991605,-0.955769354534032,-0.9691146208816672
1.872,8.70317652105433,6.567770495314415,1.049447974338201,2.6783729196190764,-0.5920481908495496,3.469974235309629,-0.5258331493461137,0.20164110643934463
1.8760000000000001,10.663281131788986,8.950176600569119,3.743795277128942,6.29359524519985,2.180039164096729,4.3903656535354045,0.36895255870530574,2.471490854998853
1.8800000000000001,11.621665253989855,10.25087878624696,5.893779247058557,9.537396524672603,5.008050402871218,4.6868531704349135,1.3331571061508503,4.986354109814458
1.8840000000000001,11.311845265022534,9.825200341584008,6.906417929260486,11.751641912320094,7.252539008466072,4.258722524470655,1.9837544195543968,6.82782650593038
1.8880000000000001,9.909393263932309,7.702161378816552,6.668521618875619,12.583112301526159,8.449153498508629,3.3234297293861728,2.176765108969293,7.484415412917302
1.8920000000000001,7.957616953707501,4.610814549319086,5.567955460429806,12.150247092451014,8.480532205900168,2.3672249160121424,2.0805266598223158,7.085164004356692
1.8960000000000001,6.087605708721908,1.6330837312617357,4.241252941289973,10.95988564378791,7.561468673646546,1.9246831077946118,2.034248860876543,6.275405534511384
1.9000000000000001,4.722840166321747,-0.3089218383214787,3.240165171623179,9.655582495210378,6.095836642326125,2.3247818451099995,2.3103389217139587,5.821207304014195
1.9040000000000001,3.9453122780389434,-0.844580436410328,2.817173176451308,8.747971751990157,4.505488603858388,3.5420977135364904,2.948198478844008,6.169427896411327
1.9080000000000001,3.5550301882034923,-0.25271947209730694,2.8908880352094632,8.43407878033257,3.1065786689597576,5.2091676517421295,3.7458585849496986,7.22056007270562
1.9120000000000001,3.280943857351576,0.7684250818960843,3.19602364708939,8.583614274987301,2.0711105510745806,6.7964555351212015,4.418382414524578,8.417307430963069
1.9160000000000001,2.9704046658864103,1.4852350140285142,3.4545627574563436,8.845241945225755,1.429686403334013,7.831850615605157,4.772514646073432,9.082445515923546
1.92,2.6467266525339044,1.4618402919671913,3.490111565502754,8.823541350763001,1.1003916001208363,8.070055049897796,4.789262875313969,8.794670916181728
1.924,2.4319518118065924,0.6925311153868701,3.2502816652342457,8.257590098904627,0.9094729477183092,7.54123651078763,4.573324040706677,7.571257472515523
1.928,2.396221518849143,-0.509255328347221,2.7291931139678,7.120425974637074,0.6093713506422829,6.464989783017227,4.192356325369275,5.788435836895385
1.932,2.4566388772613337,-1.7501382726340116,1.898541762741729,5.629548987950225,-0.0654601812541834,5.111588384539162,3.558154394878805,3.9199338772165637
1.936,2.3971146142401887,-2.7766068945299582,0.6830441743503752,4.165022513183356,-1.3015238592463934,3.68105127970379,2.4487898307706932,2.2850804041758246
1.94,2.0219829857108724,-3.542034337549118,-0.9575488859548449,3.1586303846231214,-3.072266997298565,2.296582564089851,0.7013867462428132,0.9776108794574965
1.944,1.352844854485651,-4.112295963658097,-2.881306214846689,2.993938622749535,-5.036622669012201,1.0895857763844936,-1.5437277280082142,-0.015431916147187419
1.948,0.7116028136723358,-4.526675239556012,-4.699990735641101,3.9119598415097108,-6.572752483674161,0.2797784471469016,-3.749304671299197,-0.6218597133588242
1.952,0.6157537853478532,-4.718215017928364,-5.855084697143084,5.942005749215491,-6.974596869213405,0.17064226295886575,-5.140122078681786,-0.600672688327351
1.956,1.4939387219981484,-4.575033505087854,-5.8746858122573595,8.840521960082208,-5.784160958328029,0.9953073871375362,-5.096071360813681,0.33051710046813865
1.96,3.379646127604581,-4.085758356799067,-4.663329281732117,12.086723984025214,-3.0959821484121712,2.7163156018999977,-3.561793014898544,2.219486277837316
1.964,5.77421658081785,-3.4383991607548148,-2.6351360967313404,14.973168282974674,0.3518160586892063,4.9214741891173,-1.1889483642387328,4.653008613917762
1.968,7.775788890400637,-2.989259231983653,-0.6101338172136996,16.77978522834137,3.3872808711056464,6.909743865765206,0.9141926210298814,6.794908674113457
1.972,8.452163582805063,-3.0860441185966914,0.5299774589373589,17.005441491977493,4.867803978821012,7.978497870414144,1.7399135914004553,7.735748326873397
1.976,7.26814785885291,-3.8556995933859763,0.2266774642559959,15.554801236454239,4.17708669978818,7.755241073807172,0.9363602957899877,6.996791548372912
1.98,4.372674624113687,-5.082798807299014,-1.4855036088626674,12.815317240437832,1.5314271050030328,6.409053259253524,-0.9511537271150861,4.894339366986472
1.984,0.6088937897659523,-6.259169922363604,-3.951042158440938,9.587502361108914,-2.0688497465303923,4.608480958718259,-2.721850601610303,2.4972780566967234
1.988,-2.8136543275629897,-6.830986828185386,-6.179374358061791,6.834746899039361,-5.2772218825898385,3.1998779143073808,-3.1589377552624125,1.1363903849851926
1.992,-4.815872719257234,-6.501742251265563,-7.288202110656586,5.3432966681719005,-7.013706374327124,2.776372253891986,-1.717622004785608,1.696702200464741
1.996,-4.890072439256205,-5.428281379011578,-6.915967349814455,5.413498832304967,-6.954671401258112,3.356601613784027,1.124891426659989,4.100961466019974
2.0,-3.27459873887105,-4.175237738598847,-5.367430653882889,6.737685113073875,-5.633482603982066,4.382680972041366,4.09537944730898,7.297774202822995
2.004,-0.7655807901516194,-3.4123343566204642,-3.39594907300659,8.553071930506926,-4.081687730955278,5.0614609432575755,5.8277708747396915,9.797971385341164
2.008,1.7086383367159261,-3.5215656312065766,-1.7697725836918758,10.00224552170683,-3.2158447753455945,4.8526115432329116,5.641170267838641,10.490726162170281
2.012,3.520280837941805,-4.336121088946484,-0.8531058700509719,10.536681315032753,-3.3153912578103393,3.821872828831007,3.9404848686561396,9.249182900543419
2.016,4.53754291809962,-5.195908491805328,-0.4874648075436525,10.135524883420803,-3.9148814862570713,2.599013600325536,1.9576032534990215,6.952722762426102
2.02,4.996376298890196,-5.324266985390863,-0.21959718114587456,9.229365191492537,-4.178283245589092,1.9564085105704483,0.9502840212921506,4.884463273936514
2.024,5.163974766063472,-4.335875751899882,0.27272674344882475,8.367021487845625,-3.5435693441795135,2.2455844108386973,1.3345565813539073,3.8329861076186784
2.028,5.0175349011288395,-2.59863052919326,0.8003394226627423,7.801836468999578,-2.248190387972045,3.0323716374108054,2.259149065490897,3.4592633320139745
2.032,4.1750620628933675,-1.1980525291222395,0.6174762434812937,7.257335515920078,-1.3685249260704002,3.205308403596005,1.9405429536698335,2.354636522638531
2.036,2.120739680152613,-1.480377100523775,-1.2509687375292788,6.006920300068501,-2.3090222992352367,1.5239984458613236,-1.3775890109615914,-1.1673937301262018
2.04,-1.3746005260415406,-4.347424639701144,-5.417530555155225,3.2905034361891996,-5.95857842892592,-2.64312885250938,-8.318664495722949,-7.954205799733469
2.044,-5.8877105895495845,-9.643243444923543,-11.577431796965563,-1.1315902111804643,-11.974990102059806,-8.796298470140322,-17.719815637655387,-17.22404483134082
2.048,-10.310197730876745,-15.992427015507316,-18.358409876694125,-6.6216823002877945,-18.64738724948937,-15.339948320068158,-26.850146744131994,-26.592294363336478
2.052,-13.219846880852936,-21.226464114837057,-23.710877571629002,-11.740108213678688,-23.486353123823413,-20.203409756751626,-32.46379088856693,-33.00211221285896
2.056,-13.509071681899261,-23.254130225040644,-25.733102415127394,-14.78646899069145,-24.307897521204428,-21.771555191201433,-32.21432970912354,-34.100479635987526
2.06,-10.942366478073225,-20.975884789837544,-23.512163902335864,-14.557323402007027,-20.265431688893614,-19.634724951907046,-25.718907712609372,-29.34635971106677
2.064,-6.311263067372874,-14.792187217449765,-17.54180466164111,-10.926163835532996,-12.289296424088745,-14.752812466874332,-14.745995116797749,-20.272747169156546
2.068,-1.0990546162618742,-6.462531738499672,-9.529152117521651,-4.9565502618246144,-2.703734891385313,-8.96509317924314,-2.459187400781624,-9.750014511552138
2.072,3.196802134873705,1.6286824210506798,-1.6577035610693835,1.542553357136904,5.793957685869985,-4.095667849312894,7.914547646188971,-0.6576647064313876
2.076,5.720172449098394,7.439842740189509,4.296192331615414,6.7896038202298605,11.26712296702721,-1.1475256018918112,14.33027057629176,5.328487877026157
2.08,6.545500844005785,10.022765340697863,7.58301231389096,9.748516772844033,13.236109421969322,0.0160874783573125,16.52687495595317,8.217099514031352
2.084,6.479221630228675,9.734787222013722,8.58508245105779,10.455200038381202,12.633881853284635,0.36916768621720664,15.78867989809973,9.258190828391308
2.088,6.489766980606458,7.841975134075867,8.38170132054453,9.798413253716806,11.103342615765506,0.998624955374297,14.062701384885179,9.924483209843263
2.092,7.117465106616988,5.779705959257356,8.081364979456634,8.921939818490774,10.06955746741601,2.4017940513335088,12.948175819462694,10.953153175508774
2.096,8.184419541652344,4.453422991910065,8.255436542684274,8.576763896740896,10.073348093653209,4.178829051887879,13.043678674490533,12.002657612298314
2.1,8.960715638151868,3.921631321422709,8.768207993053775,8.788239571427036,10.681059495179117,5.288402605422488,13.908733084398595,12.0703712650232
2.104,8.686688032659099,3.5796098178117113,9.04921754941739,8.999265226427738,10.946482211569794,4.700827106114679,14.557332538912112,10.337135614433683
2.108,7.09843775031195,2.6600839084987715,8.55386414048082,8.537943376252072,10.082564945963133,2.048032392961127,14.130126083474014,6.883159402855845
2.112,4.643250762223216,0.7482977094636434,7.1398154447655,7.117923982745319,7.9524948447701975,-2.0850393657845028,12.381786484880822,2.808913184826276
2.116,2.243373247412645,-1.9837572688545393,5.1156329142063415,5.044255038657022,5.109113355700471,-6.40937125288007,9.750721969356789,-0.3240331684869684
2.12,0.7597859009674065,-4.904867298861037,2.998937808311972,3.024252844154139,2.4322379041126894,-9.556914659721892,7.052643419519197,-1.376269079912999
2.124,0.4950454003027809,-7.284613929579676,1.1958734376876765,1.7303923118402604,0.6343037920711119,-10.730351648161932,5.0337484572129405,-0.2973033151798514
2.128,1.0241804193155266,-8.661509552946416,-0.20033865494654135,1.3905951536338255,-0.06484390356014913,-10.034698031456148,4.036054016354258,1.847286526174772
2.132,1.4715808089021734,-9.00221777513595,-1.3475080250099765,1.680308791330896,0.08191656960449345,-8.322769576839683,3.93754724635792,3.496483631970801
2.136,1.057531573659522,-8.604064995097026,-2.427995362122153,1.9614528325630503,0.6327091618084673,-6.6899425268838355,4.32674444116819,3.5006693527933215
2.14,-0.4106806720965288,-7.838208546589977,-3.419107949013249,1.7234721572891991,1.2908912004909305,-5.891587488741367,4.780256645962025,1.7762622251678368
2.144,-2.3868818950788144,-6.9082837746703465,-4.019002262360878,0.9491927481940139,2.065816334769473,-5.992277156124181,5.082397347509067,-0.6781159476443204
2.148,-3.8912375647524664,-5.792507901938628,-3.8296105327777132,0.14618737808162208,3.1525400707214493,-6.4367457106638835,5.2593121577021815,-2.396070247412708
2.152,-4.091441265216474,-4.376715218610822,-2.6564703017899425,0.029842539023312797,4.635553580597436,-6.454635384172347,5.457273756963343,-2.3325723028559135
2.156,-2.8395517890595645,-2.68318837564684,-0.7697188412818285,1.028841672846599,6.218114517732352,-5.57785297561025,5.75097608424829,-0.5064433075715518
2.16,-0.8371780310748995,-1.0172029266103104,1.0800621766349279,2.9302945682053183,7.202044794390562,-3.9591035536791246,6.012212874149888,1.972076586842816
2.164,0.6902224360842787,0.10218181648487934,1.9621735036135104,4.910547434057169,6.7819931401554365,-2.3094944916581737,5.9293490062966985,3.4865039902608217
2.168,0.6281062051729909,0.19278544666049013,1.2081265404637063,5.945585721264614,4.495762087502976,-1.5108990844884733,5.1586044814313725,2.7814660001843152
2.172,-1.4045345228936312,-0.8802695941997727,-1.2098930418246867,5.391739715682643,0.5921307488481302,-2.10308059789334,3.5398076351695997,-0.3714017475319782
2.176,-4.804639191320938,-2.735621905711873,-4.6135990987992574,3.3796134441971954,-3.9306846090242304,-3.950725001024306,1.2434121458200735,-5.049910049228767
2.18,-8.235387685927678,-4.559242346325962,-7.890244722916542,0.7998759162357993,-7.669721364214958,-6.2558975381619675,-1.223698362590516,-9.635250065514484
2.184,-10.2434622950132,-5.428354311431091,-9.966956991297412,-1.1259424698465437,-9.405755083892647,-7.921537603656272,-3.167873342495168,-12.591927310449616
2.188,-9.949128425824549,-4.7439826078176,-10.287835668205696,-1.4814932321835497,-8.665139507197583,-8.10036260091854,-3.980497680783165,-13.152632460903453
2.192,-7.452335554674734,-2.542877684459855,-9.032378985338518,-0.13387792959771327,-5.965653203246334,-6.627465750579304,-3.40223996790935,-11.58740647475599
2.196,-3.7828149598887375,0.45963946886990525,-7.014865645504737,2.184907110413602,-2.629000286596054,-4.138528321421796,-1.6751829788443802,-8.968511021092763
2.2,-0.42798831537122795,3.139857033439917,-5.303190618765824,4.242200581415548,-0.21787725860798468,-1.7918602828702195,0.507165539180868,-6.602633757331459
2.204,1.3267165183085934,4.44538637466097,-4.726068084142922,4.921692329982662,0.14571607867315528,-0.7237205186841662,2.2659065681332913,-5.449889954681166
2.208,0.9196914309335225,3.85641276393655,-5.525632879399149,3.75232007548928,-1.7419910309566604,-1.5141802744452133,2.901430553763724,-5.786603801385631
2.212,-1.3137699345621638,1.6245254934639313,-7.280677247627533,1.0896113770900921,-5.10510344274292,-3.916353117199766,2.2038615712129106,-7.227810615359791
2.216,-4.385935672723763,-1.3466978831495124,-9.160695159830787,-2.1417605607899244,-8.589229773266934,-7.004329352924922,0.5391302766049662,-9.0326936995304
2.22,-7.158773198273872,-3.9169247554929427,-10.353837620467004,-4.963893400354502,-10.917450598658718,-9.642535287589393,-1.3421099477394212,-10.492398581900256
2.224,-8.842805840396537,-5.210533678283154,-10.438394356723013,-6.824375302375617,-11.474506591168709,-11.036906002581189,-2.6894151484485374,-11.221495434400552
2.228,-9.29075983636599,-4.989807205029716,-9.559358674161764,-7.804474746470266,-10.555672568686786,-11.102502124887557,-3.160292869167179,-11.240983439441127
2.232,-8.95959364503313,-3.7109551667948617,-8.306983597036933,-8.455740312376543,-9.161195903259973,-10.44240487734291,-3.010997179700908,-10.865532747681328
2.236,-8.594831223965002,-2.254244011190447,-7.3986033047156665,-9.405154947301508,-8.45715618219927,-9.983347274377238,-2.970412794456572,-10.490720898144986
2.24,-8.809343105217414,-1.4713799652147639,-7.314896707287611,-10.961215644708512,-9.174964009158135,-10.456586343974635,-3.8366823838231348,-10.399267504239816
2.244,-9.764996145108922,-1.7807826980974166,-8.063548203159336,-12.937113966401606,-11.250595481159303,-12.00078056443439,-5.99546508007662,-10.675746979991626
2.248,-11.105863071049038,-3.019003217278856,-9.215751120593051,-14.778420178866698,-13.888013529830683,-14.102192322903568,-9.147497644544531,-11.234024354330698
2.2520000000000002,-12.160024526567874,-4.601648305163975,-10.164030335930489,-15.886960086567807,-15.993886541774561,-15.88743087322348,-12.4019955117662,-11.932716541849791
2.2560000000000002,-12.320643081587058,-5.898557026516816,-10.492957134687513,-15.966309759077692,-16.75949665304822,-16.625348964821953,-14.717525403649898,-12.700292483367296
2.2600000000000002,-11.398361996842537,-6.591817974961739,-10.233627677744789,-15.180177621642917,-16.066829458748696,-16.136073402746966,-15.457377884827434,-13.596339057749667
2.2640000000000002,-9.754743771100381,-6.800755540211879,-9.829786325693679,-14.037173730522182,-14.502995804171766,-14.876469328265637,-14.731958640201396,-14.779117851002727
2.2680000000000002,-8.152334960949352,-6.926030253452322,-9.857719996101205,-13.100507000541047,-13.004368463800805,-13.67572027186349,-13.33102140512861,-16.384790304767094
2.2720000000000002,-7.363500046978523,-7.295990521759039,-10.616169530226635,-12.67339994957953,-12.31307908426949,-13.24802200742342,-12.26212649892427,-18.377457968044478
2.2760000000000002,-7.758098669131933,-7.864637178567592,-11.872446073751039,-12.664455156794997,-12.574250210995844,-13.788066341656226,-12.157535409973384,-20.452089494947113
2.2800000000000002,-9.082823749163003,-8.163647545885324,-12.922576694214651,-12.69186208376632,-13.289408516323869,-14.870146361489294,-12.89983857949457,-22.062548960393812
2.2840000000000003,-10.540956878516166,-7.548833326085988,-12.941185394306048,-12.338215550001454,-13.63154711858982,-15.697044039994235,-13.691675615357202,-22.590809387929717
2.2880000000000003,-11.17941947549603,-5.630746598449637,-11.483772740713384,-11.426662873580025,-12.958165006487212,-15.571649511065555,-13.557341686845907,-21.60296164298861
2.2920000000000003,-10.379721050887245,-2.61849526101346,-8.824058591275382,-10.140087560960755,-11.217710153613528,-14.304090455304394,-11.98405595798714,-19.083709401986866
2.2960000000000003,-8.210976157391173,0.640617908818286,-5.942104626245227,-8.933948406550451,-9.025480651656506,-12.345394780663899,-9.331518225221455,-15.52001736787085
2.3000000000000003,-5.437562999760041,3.0031272850242923,-4.1040097003055624,-8.27722383920661,-7.35085968302995,-10.55299890686238,-6.734486975832059,-11.763903927970134
2.3040000000000003,-3.149185624176498,3.603301857696589,-4.207749786194832,-8.357053754652355,-6.983618095186053,-9.715990727711736,-5.507860946981601,-8.72007003371546
2.308,-2.2148838315885686,2.329445974657914,-6.283610493803241,-8.937089671832428,-8.087854309811721,-10.123817696639668,-6.408169902192164,-6.99371461947299
2.312,-2.834671406872799,-0.06223486267742562,-9.404523928831631,-9.442534507423725,-10.083631373175864,-11.404418536439087,-9.159178738365119,-6.671870293846343
2.316,-4.447376366857224,-2.2981846933631798,-12.11428748591078,-9.252219709737346,-11.938370788532001,-12.735949923082288,-12.532885056803963,-7.335721851718722
2.32,-6.046794563746014,-3.236850030478312,-13.154814439177056,-8.042821961048924,-12.701473365851253,-13.288930623545015,-14.960987980255616,-8.290377764746607
2.324,-6.718831879523344,-2.459833713068571,-12.089318951541426,-5.987954685657753,-11.984763578767238,-12.637743579706665,-15.330782114457268,-8.897097400531782
2.328,-6.122372927751938,-0.4941512013324125,-9.515166264705552,-3.710891861234331,-10.135925878714605,-10.933117096276685,-13.543155235095936,-8.826667803913358
2.332,-4.628352992709549,1.4871615299957461,-6.704110926202917,-1.9816961345878745,-8.001506399870216,-8.741308067224837,-10.498246250399676,-8.111081153102502
2.336,-3.0593433261434138,2.3227892283085536,-4.896596764475571,-1.325868149267732,-6.433829830970269,-6.693915233644889,-7.551309847702866,-6.9946838693970514
2.34,-2.189743136943843,1.5172314762379377,-4.632441404891045,-1.750122708270923,-5.820400144186435,-5.160983784820683,-5.7699010670146595,-5.70353494068283
2.344,-2.295383013692676,-0.46689699520567585,-5.47633469661313,-2.736917983289507,-5.901349010058128,-4.13473522024813,-5.399493515941212,-4.301567761301321
2.348,-3.025646262163193,-2.4503199098145148,-6.317438337072266,-3.5352160369149166,-5.97611719007896,-3.382279455783128,-5.843120307348317,-2.7072313241706514
2.352,-3.659123527910777,-3.1795468513377285,-6.038417539525652,-3.580938361928644,-5.362239432680207,-2.7247158738962933,-6.115884487665408,-0.8546021103906494
2.356,-3.592411831996781,-2.031782075729639,-4.208456045779163,-2.834562576286517,-3.847440326720964,-2.255554760476083,-5.487741269259175,1.126714625679583
2.36,-2.7420941137091885,0.6194505316903938,-1.3805656561566932,-1.8207045593578937,-1.848110186497394,-2.32271558663333,-3.922216388464091,2.8708824432191746
2.364,-1.5988009813871653,3.5915803480409894,1.199680280032378,-1.3161089873178908,-0.16640893123884815,-3.272136179176718,-2.052839364986051,3.930187999624189
2.368,-0.9080006150209643,5.527112038430138,2.292020060045483,-1.8589687116610991,0.5140755964977959,-5.1240454433812594,-0.7456341688411074,4.0526435959959
2.372,-1.1473054175608857,5.638274050622066,1.4045425106017795,-3.3364812730246975,0.11184214014008242,-7.388268151164054,-0.5290442181836271,3.4013785267837537
2.376,-2.1582135591347185,4.13080554234715,-0.8747435606956464,-4.928709759774426,-0.704467103156135,-9.194597895553905,-1.262887972312647,2.552377563665475
2.38,-3.178917426060712,2.0752731952873074,-3.1426667709125917,-5.4790506235248975,-0.8222270433040768,-9.693286717072036,-2.228523863196634,2.2273729934461435
2.384,-3.271686645500524,0.8145371604036646,-3.8894595993814605,-4.10952657913559,0.7110478542379082,-8.505633817560739,-2.5520373990985057,2.890400255724081
2.388,-1.9235553323254182,1.2214657991953286,-2.2994767454464764,-0.7713806446891011,4.094656586593361,-5.984612888913384,-1.7128139672682794,4.443101344924601
2.392,0.5569014488338162,3.2279333809819626,1.3181357290119649,3.6018276553665816,8.547623621394393,-3.103001702318299,0.1893544873050076,6.2142019889621425
2.396,3.1006182391961232,5.873949588288297,5.669404940587432,7.43999915283772,12.590952823240709,-1.0243468587998392,2.53716702217263,7.282569731183426
2.4,4.395484067179637,7.839211709477015,9.112498027229327,9.23941249352019,14.718473475248965,-0.5660192303796212,4.576961681827749,6.97286464172991
2.404,3.5915797259366573,8.154081560724348,10.454671768055865,8.27501787785381,14.116818297952847,-1.8327959870517039,5.820119272891263,5.237964538769653
2.408,0.7922771173538048,6.696316963920916,9.473745634862993,4.941949650960599,11.053865484830572,-4.22028043539692,6.212541619826162,2.7145574887057338
2.412,-2.9405256301025924,4.2278228240286975,6.946426035434895,0.5657315529295313,6.742534695504506,-6.753939325885969,6.023184053383794,0.39965900178113767
2.416,-6.09827081153621,1.957780717054372,4.173407942900463,-3.240883523805075,2.737804486801644,-8.58637396909037,5.5429898396444734,-0.8821667302057055
2.42,-7.470037002875741,0.9053886719203628,2.3049259878340065,-5.319938001501374,0.20577392481064072,-9.364208627864194,4.835279794157205,-0.9087748677160983
2.424,-6.710095967905474,1.424514659580077,1.8422573224682024,-5.423085425617093,-0.5482432108454296,-9.283930498861787,3.7234965275194574,-0.15006521482289603
2.428,-4.442616574720883,3.124130464551051,2.528506878616449,-4.177945725634004,-0.07108958742564564,-8.846658742546854,2.0023704691925084,0.548198820007693
2.432,-1.8512526479832472,5.204336985614773,3.6705174233393967,-2.6089974650789305,0.6976718317085752,-8.458805793652154,-0.26588185103191575,0.495504076967789
2.436,-0.023488275866093478,6.956937657231043,4.621425164018514,-1.5359988019349835,1.0286945916848018,-8.157539177638505,-2.6048787821842154,-0.4103788383267357
2.44,0.5762195300057472,8.127548922251187,5.136287447397249,-1.1898084949745884,0.7984358520997423,-7.611491664419168,-4.257736269295043,-1.6048169073288334
2.444,0.23974252389691952,8.956721914604845,5.432794113663386,-1.226222808671964,0.4740541178154061,-6.380792183906667,-4.52881659111994,-2.1916055239266665
2.448,-0.30029727252023797,9.89439001476288,5.931410538740495,-1.0990709629744404,0.7195717934389139,-4.283397642632944,-3.1653208603028054,-1.4877001470728697
2.452,-0.38547351769662663,11.211827064988992,6.90480327452444,-0.5073127134824804,1.9012398829500907,-1.6096854319165779,-0.5336850137945999,0.5315937371719706
2.456,0.16079397580622778,12.751941926763251,8.238360963447713,0.351992167469908,3.794915936063239,0.9390617713846781,2.5083359351531938,3.1576925654350454
2.46,0.9644382624953631,13.97583973549659,9.456241812708985,0.8824308964808663,5.675286566265117,2.579504344094071,4.9830155560332745,5.302015408221462
2.464,1.4023988926023865,14.283097948771971,10.002224075904167,0.48125065853296745,6.728255443671916,2.866003283206531,6.214053752364131,6.077364966031569
2.468,1.0424645798671286,13.38359631797223,9.563117462892615,-1.0536305511221653,6.515254520262693,1.94403693683806,6.06982558351832,5.284725472715124
2.472,-0.0386765327962747,11.506733341299682,8.270631056275558,-3.3389759270896278,5.218201860609614,0.5080706273382578,4.941052305497722,3.5217850449180195
2.476,-1.2725457100555215,9.313989114492246,6.629532400743493,-5.572619715785354,3.5114825109184826,-0.5396040648096578,3.4773194365022055,1.8583637741708352
2.48,-1.9341073901700012,7.5691616457594915,5.23870947352955,-6.951311970758269,2.1609560238616954,-0.5336088436056459,2.2589656449022755,1.2713370266797033
2.484,-1.5712393726886198,6.7708116141366235,4.497560773712042,-7.076904145338283,1.6117467349702308,0.6533610487709889,1.5915041879296972,2.1476613661106554
2.488,-0.2860078764947609,6.934872504389952,4.4388218125499685,-6.137212607463198,1.7980246703112712,2.590474231557244,1.4902189352506383,4.1268827314442875
2.492,1.3112408857906934,7.641592069111203,4.804551804137457,-4.753237125472213,2.2808077880953483,4.570627657364216,1.8174296057691057,6.340654826485981
2.496,2.4311895168183084,8.297239139180244,5.261223133753572,-3.6141450699759203,2.5908072622292684,6.004067192323719,2.4443057675844564,7.899760702108415
2.5,2.530167687195753,8.455559736678719,5.611743596908341,-3.111758486950782,2.547275415762137,6.715166089984421,3.3328743909886205,8.35125742772483
2.504,1.6034770267097478,8.032041859361371,5.8836829058785725,-3.171220408174803,2.349305482104031,6.984805339828574,4.499883870265251,7.849667336822754
2.508,0.16954652823037075,7.295291950655704,6.209220823153556,-3.3745090725427436,2.380339514546713,7.311609648596729,5.889012422709989,6.981684882059996
2.512,-1.0027231042646976,6.689497494508154,6.638477500251243,-3.2482906650201766,2.891043182238308,8.073376077726993,7.280259872508064,6.377871415075158
2.516,-1.285237683701599,6.5762633606072285,6.993417301876716,-2.559409465432601,3.7610691034482397,9.26894867112415,8.3018952134133,6.357220372586478
2.52,-0.49254372218316944,7.039320124549119,6.898469905128859,-1.442589471605478,4.516647973499479,10.507291602487165,8.555456943701778,6.812042061882476
2.524,1.0606168220398369,7.856635530031321,6.010226358309538,-0.29866063431542433,4.604899676234333,11.246543245365569,7.808068299827999,7.364081380754488
2.528,2.7324466231039524,8.614899895428051,4.278725655841686,0.43756715705561255,3.739759199531017,11.121003157807667,6.144165223163104,7.679460421336374
2.532,3.867450577505722,8.906226931019532,2.095608518251222,0.5294753137466746,2.105924734354419,10.173598053739232,3.9922305203369644,7.712110137127928
2.536,4.072132678174198,8.501520002023028,0.1792545034352231,0.025228504570076637,0.28047141305035295,8.835433068182791,1.9888741135206731,7.721382900257507
2.54,3.3476918210989455,7.439009229252449,-0.7467771215417112,-0.8124166409228901,-1.0673323513999637,7.679693974081426,0.7408959137277265,8.073603906267236
2.544,2.0444430919026333,6.009331789839436,-0.3131607003229573,-1.659262046691187,-1.519364834058641,7.098732122370057,0.590382038370127,8.952647598390454
2.548,0.6729640830799581,4.630768842743196,1.2631306873944246,-2.2904732778765937,-1.109219093556126,7.075907304545641,1.462298553449036,10.167213306222989
2.552,-0.31393754457040757,3.6940287528140026,3.272790126922184,-2.634167678421626,-0.2442881779155619,7.220455486760487,2.8858490651516355,11.195377024906662
2.556,-0.6915482413370024,3.4179899893080776,4.857756203074954,-2.7327301975997678,0.5693853209204138,7.019846650453055,4.174161965478748,11.449960831308463
2.56,-0.5221391867397731,3.764452382117047,5.429520542878398,-2.659746277603972,1.0160616053174099,6.169885845499758,4.702005475894253,10.603654336934149
2.564,-0.08317856570820936,4.462334844960354,4.959164252882187,-2.4488704286211056,1.1174652837984151,4.790515304964166,4.1697992280435185,8.783067095940794
2.568,0.2816120750144555,5.123370626686278,3.951438426481487,-2.085257875059065,1.1551464900866293,3.3878375465778285,2.7247352909036144,6.532601434080224
2.572,0.3325034868941845,5.410359385918679,3.1552322818901084,-1.537271989196658,1.4425812159904297,2.595115364173136,0.8918939474476,4.556104186656035
2.576,0.038947205507540605,5.169513193922521,3.142056309408675,-0.8124579729896264,2.0904911605462937,2.8146992351712212,-0.6744325692333559,3.3799046473991567
2.58,-0.4266537841822975,4.469432868968251,3.993736743776318,0.00601425489873697,2.9103555217600405,3.9709251458055066,-1.5045941868345079,3.127388380376448
2.584,-0.781700954672915,3.5464007171239977,5.290924722957672,0.7787986013987529,3.510952201153474,5.525002525552534,-1.529233482135207,3.512928288260812
2.588,-0.7943178419401415,2.665984750096468,6.365991166525617,1.3448157045725324,3.506709890221031,6.721587483896295,-1.1042341212588775,4.039428219243369
2.592,-0.40420379764232806,1.9958562241420887,6.70550560526334,1.5773436025489347,2.7279078575147793,6.9611098096523145,-0.7992424574966562,4.275243245464729
2.596,0.2470055285049173,1.54463979711758,6.2352262171181865,1.4195299891097015,1.2968477931098379,6.0772500424485525,-1.0762436823959414,4.0485214330765515
2.6,0.8897523071661286,1.199186769168632,5.337697067560522,0.900595514396656,-0.44918773883887364,4.393461531698449,-2.033542126073316,3.4696956711759164
2.604,1.2772444959103595,0.8331018936165426,4.606878172701094,0.13670949302671165,-2.1216663394840363,2.545443182492318,-3.3468756844664584,2.788851897296965
2.608,1.3029488392114792,0.39857456970193716,4.4577251659859805,-0.7034545167285886,-3.4480266991565274,1.1609995713775523,-4.461586739861845,2.2035456340880195
2.612,1.0350200067974424,-0.040685286872573556,4.872419321749731,-1.4364505787176318,-4.339635581156987,0.5955243656605902,-4.905527435412135,1.7385790020169543
2.616,0.6392198471339232,-0.3630127853127876,5.408217686830094,-1.9229558647001803,-4.858623381585542,0.8251121803169509,-4.554874182054862,1.266961839853094
2.62,0.24929501927276299,-0.48561169385324554,5.4765108959774595,-2.124608004752753,-5.124821191036228,1.5337715868512423,-3.6841621839228402,0.6487921578080069
2.624,-0.10018510358654172,-0.41740397170884047,4.752349887672335,-2.111345207988687,-5.218030352616461,2.330593834366138,-2.758784589577738,-0.11628277406107479
2.628,-0.45064829888361746,-0.2476706873768605,3.4262613784468003,-2.031618778966549,-5.146365994708852,2.940587534843469,-2.1209848260733164,-0.8258567859515482
2.632,-0.8033519880052609,-0.06711479069139936,2.1682984956803093,-2.033881002397264,-4.873371097802265,3.2911414349729093,-1.764121619572538,-1.1635291455533157
2.636,-1.0219572307407006,0.10418005216294413,1.7687142059788785,-2.1940148744380714,-4.393341113098903,3.44697037276178,-1.3661361831427556,-0.8914244948529819
2.64,-0.8510941523061788,0.32248614058833436,2.6548181181422716,-2.48429964065489,-3.7996342721056067,3.4721350364789156,-0.557777342363438,-0.02363830443816084
2.644,-0.05759756919599335,0.653064922663888,4.584501439215268,-2.7959653629254446,-3.288496347489943,3.333325172214398,0.7529442345851831,1.1258702881144362
2.648,1.358168575540224,1.062975994071058,6.684340321920272,-3.0175969226200956,-3.096786218796197,2.897937433252263,2.2167130649161004,2.074338512843578
2.652,3.0495956716793557,1.3826226074052503,7.885721812669477,-3.098238586128188,-3.3748396072620324,2.0508925574719665,3.204115591731913,2.416091427422973
2.656,4.4051454948226105,1.3741356268559966,7.509620057350888,-3.0707330704858458,-4.069881847631822,0.8267314327361106,3.2071727906083076,2.04709614619589
2.66,4.81153614847272,0.8769831564266002,5.67249645845573,-3.020161461020313,-4.894195814218794,-0.5377611788584888,2.223399100266535,1.2393953130476905
2.664,3.9870142308346725,-0.03586623406996159,3.2966358322077594,-2.99885299041791,-5.399474706841847,-1.670483923984888,0.8704516825629622,0.5166267808244009
2.668,2.1613548630090156,-1.027845365338437,1.652810478027292,-2.976916857110247,-5.165701805626534,-2.2509781916323295,0.09534134803584315,0.38127881070951153
2.672,-0.006639354967026279,-1.621100467759005,1.70471451030222,-2.847772975974258,-4.007367374259836,-2.184193989821038,0.6372274537424674,1.0434592727724874
2.676,-1.7460352821753116,-1.419817083668649,3.5936829235204852,-2.4896471945656695,-2.0951665033724187,-1.6586359515665183,2.5670983937132092,2.3219670264847703
2.68,-2.5466043422790987,-0.3117961979933792,6.5620590396160425,-1.8368382883411907,0.09497559120467391,-1.0302489923631475,5.207040760924654,3.783073597831604
2.684,-2.355693010230295,1.480199586707363,9.379228410559913,-0.9046219241191755,2.0090163753324806,-0.5929582119090879,7.520279790500511,5.029697350185466
2.688,-1.5136876018384209,3.511760279630116,10.997346366896181,0.2281206309338044,3.291583126432535,-0.38358795532251033,8.737885441543426,5.971152496894966
2.692,-0.4598286607519011,5.345948508491653,11.108890397239815,1.485413990121593,3.9774221601747404,-0.12688309708798728,8.837737858365632,6.888454480017348
2.696,0.5818302252245042,6.754602256389835,10.266484093597777,2.84159556302457,4.467335980166888,0.6010839113468958,8.540871468336716,8.235079554203212
2.7,1.7095631686172144,7.772689291623151,9.502321059945151,4.295430100626971,5.275647182075954,2.0776459670700045,8.79967862704924,10.276304179012072
2.704,3.198592091555536,8.604040034828607,9.704059470643255,5.8004349713578875,6.700464040547226,4.195317679886812,10.103422243303537,12.794438983624358
2.708,5.204694963998998,9.448578631304853,11.100384545281843,7.193823230350102,8.609805350815915,6.431168948606214,12.05971108050077,15.087146908120229
2.712,7.553833503564541,10.39266517109121,13.196179480158273,8.220116962980608,10.505157181966117,8.09508927414468,13.587373036950176,16.30421572931579
2.716,9.783340456908606,11.431406140510337,15.161258401539463,8.656360148229219,11.84127613413126,8.717745481272685,13.632921264790333,15.956638128733044
2.72,11.42560287629038,12.580680454525005,16.412930979595735,8.479276886371848,12.414544569550108,8.352962867343923,11.972831109640369,14.298195077388678
2.724,12.336385222931872,13.956602919378364,17.009541866905266,7.952306470163235,12.55078605622203,7.58334618835028,9.553791212306194,12.281235242645323
2.728,12.800332544128484,15.701687517022052,17.552286007345078,7.527553792232978,12.922892863856752,7.1672915146681015,8.039029188730073,11.045395861379706
2.732,13.304199498509917,17.767375398723182,18.666268335586068,7.586797038459347,14.06528537150107,7.513781008594372,8.75326139456489,11.166485111995437
2.736,14.082074615158092,19.676233381492978,20.360611027880765,8.128506279872614,15.848359310421486,8.269838293661138,11.629085303424262,12.094117041934933
2.74,14.74819087075651,20.476234034081635,21.71427481594015,8.611742075853906,17.279903777201017,8.320946754293214,14.851426467231128,12.188748960048233
2.744,14.326794509818113,19.030586134166136,21.179783623133996,8.107956615815922,16.843754468456765,6.285748352037579,15.548961289634809,9.443260148559991
2.748,11.738432691959817,14.568086062169513,17.38802715014034,5.734150392218977,13.26844098475727,1.284231650001387,11.277282686675928,2.608157422826956
2.7520000000000002,6.548048382595201,7.26875251414354,10.085960599222302,1.2149353428523062,6.37375865728257,-6.384913954309979,1.547071633564089,-7.85628535754833
2.7560000000000002,-0.4749930713543078,-1.4609589234697078,0.6377028803215088,-4.743497564291973,-2.4946229164408598,-15.074894207218907,-11.48781916537169,-19.55749931730191
2.7600000000000002,-7.385615307953584,-9.264405275860444,-8.259353742034229,-10.516147731180734,-10.754354580100966,-22.284342484260563,-23.650792557763946,-28.894358820590277
2.7640000000000002,-11.757415632451728,-13.631059734281628,-13.576775221009738,-14.093690965419642,-15.542808449839683,-25.629647109115403,-30.451367767686378,-32.477652678269344
2.7680000000000002,-11.762950175380576,-12.907029073760969,-13.2522758785545,-13.903079412133685,-14.923470549494967,-23.86377044771357,-29.07604640102149,-28.585469541252778
2.7720000000000002,-7.072864227836526,-7.0370758949476695,-7.114975595250514,-9.517602712825285,-8.74376748866115,-17.42687986922463,-19.64893473938953,-17.956408040796553
2.7760000000000002,0.9024668124531017,2.3267814954926394,2.9903191620457665,-1.9233151158586388,1.2708194617981636,-8.27285510968753,-5.141382548920433,-3.522173695086283
2.7800000000000002,9.586712819317162,12.437048657267628,13.951748467712715,6.8163439965978725,12.23647173384246,0.9525801921623209,10.00252687030839,10.801047825094654
2.7840000000000003,16.363808901005175,20.528819224385842,22.667511350315856,14.376444221585114,21.30425716365835,7.9920695553003345,21.801201382855186,21.67534499965054
2.7880000000000003,19.659315795501257,24.840916434155204,27.198295042326034,19.059615777287753,26.71862480041732,11.774692233599518,28.251374797876572,27.516972437745025
2.7920000000000003,19.474411443443557,25.144830529293813,27.332175775580364,20.3836404042334,28.283838672534166,12.614732039531605,29.75976058071584,28.780088435193854
2.7960000000000003,17.136928633855028,22.569841132959574,24.34764479491927,19.099765139552176,27.075781227276288,11.77035951818801,28.398406644304302,27.317844576357054
2.8000000000000003,14.452386752933878,18.865218775911632,20.17970798884439,16.672998221779604,24.64238583971214,10.664044921914407,26.515217404110146,25.237780250498293
2.8040000000000003,12.759432484613455,15.527414086384347,16.476828132376482,14.525902253331072,22.169069315473898,10.194636901233338,25.50255026002851,23.869465745394148
2.8080000000000003,12.365207720373983,13.219300226526432,13.974242847265385,13.407694686183781,20.02121279978164,10.451735644940872,25.323246965959203,23.34111465605342
2.8120000000000003,12.622174700442821,11.746069059304158,12.464204324192535,13.203795442396327,17.856562759218384,10.932353466540906,24.944829175464335,22.86848298551305
2.816,12.508667218559907,10.497969903531683,11.24346753243917,13.208044097404468,15.137777953390724,11.030843468262225,23.283451549887584,21.471790101565134
2.82,11.321147561450434,9.028671242685332,9.71208561016139,12.651355130826914,11.684382347938435,10.478592783866866,20.02606285220968,18.65698703581589
2.824,9.08707703536485,7.418118693204168,7.785168858438471,11.181396727634246,7.9236072442210155,9.484267121751095,15.87004595883394,14.678741355801796
2.828,6.482175292117349,6.200012599513197,5.88594158166636,9.02318987723677,4.705260365102161,8.519904396706279,12.093603413286194,10.313821841810089
2.832,4.3834436199359095,5.961534789213454,4.630451605968005,6.802330031757536,2.8482481389405776,7.960379449712628,9.79971339681915,6.3705114302412476
2.836,3.3466621012089908,6.885080721753397,4.402765534969147,5.156661239733313,2.6896485024764907,7.804524744159558,9.313528130232415,3.273269848611873
2.84,3.3297968062599343,8.543731665564794,5.091534181213525,4.386478722300851,3.9089859409692185,7.673845897834758,10.078118819345372,0.9739275649393409
2.844,3.8000746860847032,10.092640742364523,6.14753223003715,4.346838315264584,5.708452827104401,7.084329451957366,11.07729121512469,-0.8196470594622087
2.848,4.098223258270792,10.715595573613365,6.870221917762294,4.593227874179789,7.208158422347779,5.786637925549108,11.459478075941783,-2.295699327040568
2.852,3.8465324869527047,10.072961745551286,6.783289461000916,4.686824937012436,7.843611557145813,3.9781724791773416,10.987931141753492,-3.340645189097596
2.856,3.1310264671396886,8.458660446228834,5.8524975724128,4.4434227882759,7.545656563779484,2.2275217755400076,10.052131388912844,-3.6418833156366213
2.86,2.371231223359036,6.573139326367018,4.43804900028176,3.9837936380911625,6.646385896106895,1.166038743853582,9.277030412543036,-3.004003374375984
2.864,1.9982272702352781,5.069966411446968,3.0524072584023263,3.5925675599559286,5.615748598179656,1.1376115711787227,9.026505341544887,-1.6485793268662094
2.868,2.1333124784591577,4.142021895413295,2.0367005482463103,3.47502766188367,4.787047012653443,1.9912826313931835,9.114571739666294,-0.2594160760172226
2.872,2.495992506964972,3.4302463535871,1.3956887189061429,3.6152801587727224,4.239403726833087,3.173643314059146,8.923826734078702,0.3075510408680544
2.876,2.586409637509362,2.2981605450747358,0.8538638476746641,3.8106680855565287,3.854336469297455,4.042777575444613,7.83492629399931,-0.49547526117474616
2.88,2.0168800241180493,0.2850773953173509,0.07284949239744387,3.8407197852231016,3.4616415326461567,4.215236036472836,5.66423102356946,-2.5320646055581935
2.884,0.7971742493938363,-2.536651121521137,-1.0978406335375417,3.6546484414232543,2.967656153117143,3.7528050835979476,2.832794792475949,-4.958992566046417
2.888,-0.6263050548657967,-5.548998804707962,-2.5321100032959514,3.4157965698838098,2.3687886980552095,3.0686895809396315,0.13035769944542075,-6.611336842879354
2.892,-1.5949273923676794,-7.913543183308095,-3.902722300623708,3.3855368406734243,1.6880121524774407,2.6432512583925547,-1.7608596734219675,-6.6132647088235235
2.896,-1.6043020785573208,-9.037688205277796,-4.887740424338736,3.7142948738183446,0.9025702329238425,2.7133888730520055,-2.692410287776016,-4.88106102810856
2.9,-0.6098815985337931,-8.892689864114033,-5.360632061782932,4.290280268253355,-0.05613300829260881,3.1324855678696215,-3.142204489020821,-2.2200830677169914
2.904,0.9137560930612965,-7.9892983826971395,-5.427011012620394,4.764606248297435,-1.214482965586148,3.4844675898120467,-3.8887934990578854,0.04774494781280936
2.908,2.1935060737619803,-7.0468374460644245,-5.323106260975365,4.746380600221962,-2.4553399987525557,3.3647665120911348,-5.478218646262663,0.7495540568233783
2.912,2.557226668226467,-6.561643526921685,-5.221555144059433,4.067682023780623,-3.4780712955906243,2.668584332462438,-7.803643052925777,-0.5493908493330077
2.916,1.775488483926984,-6.567760180534801,-5.122027738672498,2.9175897423311214,-3.9019752266648893,1.6812445997027066,-10.090175811058424,-3.3592605029050038
2.92,0.1529571527169553,-6.737216275201929,-4.914646035729869,1.7425603236710816,-3.4821100110131855,0.9113911722473782,-11.336909959454026,-6.577929292003935
2.924,-1.668954615092543,-6.725783102294074,-4.556222626787141,0.9658551062474823,-2.3145397480124252,0.7715932103096834,-10.957273458188425,-9.131401956658559
2.928,-3.094332086869034,-6.527988693568145,-4.255994278975141,0.677242501547193,-0.9118259399655582,1.2873990912803808,-9.242709014579264,-10.57500201930458
2.932,-3.901440735933541,-6.573150053976184,-4.476412409453957,0.5125957011511506,-0.06705499770659706,2.035520314362966,-7.333723360322087,-11.324797437617837
2.936,-4.340338446359529,-7.488255013077325,-5.722312769826296,-0.19005036068152492,-0.5571274154892922,2.3447391108673052,-6.686809250582118,-12.39037512371517
2.94,-4.944872975475411,-9.66453517219459,-8.212254337180475,-2.018825858097948,-2.8124733967366735,1.6626940927701446,-8.310040851211479,-14.75087646553732
2.944,-6.162496473656928,-12.900854875971401,-11.617761947627375,-5.096983387473154,-6.706836798182659,-0.1151148052242843,-12.17259710486925,-18.731239305214178
2.948,-8.053705628156225,-16.40407886137558,-15.107773708404595,-8.938452587976913,-11.593373536101979,-2.5720667294027697,-17.164876372215282,-23.73515471710536
2.952,-10.221582505613233,-19.158760176488837,-17.689518548651982,-12.634165852621614,-16.54903625818517,-4.976532582031774,-21.637343046013584,-28.482290712936518
2.956,-12.014449722316307,-20.467825656165935,-18.70399309765108,-15.279936792085513,-20.71793039664285,-6.6629666964306695,-24.226536107779538,-31.61868804051211
2.96,-12.89127438459275,-20.3534183830887,-18.206568385089227,-16.425968016758965,-23.598064714592873,-7.363756023354221,-24.51766521202531,-32.37201098304144
2.964,-12.714419693925544,-19.54653167644685,-16.9755952370408,-16.28430216371582,-25.14289676029395,-7.2929001841613905,-23.182455060799917,-30.904674034050483
2.968,-11.806550527640685,-19.05586972495253,-16.133039215149815,-15.583414893381835,-25.66779183056581,-6.956797951914869,-21.542618722191463,-28.182702521898733
2.972,-10.736091370798547,-19.556552449255307,-16.53683180086113,-15.14770698306497,-25.629251775653618,-6.80142899768166,-20.809952951440312,-25.46849478447739
2.976,-9.977988121595025,-20.96462049762638,-18.29924897768034,-15.451536948691247,-25.4010889444231,-6.928842045119325,-21.452391633465794,-23.71695607599799
2.98,-9.666535877307156,-22.45494612387148,-20.706328016427218,-16.402883576803696,-25.146066787071213,-7.065131052278568,-23.034426141465776,-23.19587068982442
2.984,-9.57273155393398,-22.91403698470271,-22.573936197045754,-17.459439517906308,-24.808810884256467,-6.791489427289841,-24.575630821620248,-23.49934211995636
2.988,-9.339459052873774,-21.594987371852127,-22.886381693855164,-18.022955623287345,-24.21885676109806,-5.905996551384612,-25.19832914034859,-23.886270582395355
2.992,-8.79250908486716,-18.587360892929098,-21.33187602060581,-17.854359862770604,-23.222600338576587,-4.658827801860404,-24.652077018481616,-23.732163251328004
2.996,-8.11435527561017,-14.825927409676865,-18.452104197537622,-17.259550810722423,-21.77597528273329,-3.697046049700011,-23.4187451503732,-22.824215358800767
3.0,-7.76082437169546,-11.635380201625514,-15.340171337075724,-16.93459704838819,-19.97348682932715,-3.722893380103919,-22.360221926194033,-21.36296343925671
